timestamp,sequence,battery,flags,EEG-ch1,EEG-ch2,EEG-ch3,EEG-ch4,EEG-ch5,EEG-ch6,EEG-ch7,EEG-ch8,EEG-ch9,EEG-ch10,EEG-ch11,EEG-ch12,EEG-ch13,EEG-ch14,EEG-ch15,EEG-ch16
560840056554,32447,-2,0,4589.8985955502,6774.6815662904,12821.3576639673,-538.1407273883,-8168.2600511187,-5471.9836090325,-8423.6721751291,-21741.4597017756,-10993.9642843105,-4468.4893166509,-6449.4390302131,-1758.3782032770,-23792.4101751602,7406.8299193327,9789.9950190741,15879.5014095677
560840056554,32447,-2,0,4591.7845885577,6775.4602988870,12815.6631818541,-540.7202791147,-8162.2735442818,-5477.1792155759,-8419.5108228157,-21735.6435426942,-10985.8971013169,-4464.2306227628,-6446.6282922470,-1749.1794244789,-23785.5232587584,7413.3518048298,9797.2104632901,15887.6415987423
560840056554,32447,-2,0,4597.8075984851,6782.4080537729,12820.5302605833,-534.8797846397,-8156.7250745306,-5466.6419901273,-8410.7500811031,-21729.9612282779,-10980.3486315657,-4458.8403330703,-6435.0933156589,-1744.8598921067,-23780.8143600879,7418.2188835589,9801.0189523957,15888.3473251580
560840056554,32447,-2,0,4602.3583170969,6786.6789153578,12833.6470377584,-526.8612724334,-8157.3821301590,-5454.4742933043,-8408.3773802227,-21732.0175690410,-10983.0376925635,-4457.5627249039,-6430.5425970471,-1749.1185859947,-23783.7224396286,7414.7510899644,9797.2347986837,15882.9205323750
560840056554,32447,-2,0,4599.5597468276,6784.1602021154,12835.2166706486,-527.1411294603,-8161.2392900519,-5454.2066039742,-8413.1471173773,-21736.2884306258,-10987.5032372976,-4463.4762255598,-6436.7724578204,-1754.8860742888,-23788.5043444800,7410.3707191081,9791.7228320229,15878.6983415774
560840056554,32447,-2,0,4595.9946116585,6779.4634711418,12826.5776059043,-534.1862259208,-8162.9671030007,-5465.1331957212,-8419.0971211237,-21737.2010078876,-10989.3040564274,-4467.4672301177,-6446.5552860661,-1754.3263602350,-23787.0442208613,7411.4049733381,9790.8102547612,15880.7303469469
560840056554,32447,-2,0,4596.4934872282,6780.4977253717,12820.4450867055,-536.5954298917,-8158.5380613572,-5471.7767581865,-8416.9677741797,-21731.2023333538,-10984.0962821871,-4462.5636482981,-6445.4358579584,-1748.7900581805,-23783.7832781127,7416.3693936418,9797.1861278964,15889.8439518672
560840056554,32447,-2,0,4599.1338774388,6784.0020220567,12823.5843524859,-532.5557545465,-8153.9021688677,-5464.4396370023,-8410.4823917730,-21726.4082608056,-10979.9105944800,-4457.0638493341,-6434.9108002065,-1743.6309547276,-23781.2280617799,7418.6690883414,9799.6440026547,15892.3626651096
560840079184,32448,-2,0,4603.1492173904,6789.7695103508,12831.5055231176,-522.8946032691,-8153.0869331805,-5451.0916735875,-8405.6031453470,-21725.8607144486,-10981.3828857956,-4456.5406383707,-6428.5105916777,-1744.5678673830,-23782.9437070320,7416.8439338179,9797.8675189185,15887.8606172851
560840079184,32448,-2,0,4600.8860257813,6786.9344369911,12835.8858939739,-521.3736411662,-8156.7007391369,-5448.3174387119,-8408.4503864036,-21730.1194083366,-10984.3274684268,-4457.1368555151,-6430.5304293503,-1748.5953750313,-23787.1902332232,7412.2932152062,9795.5434888253,15885.7434380379
560840079184,32448,-2,0,4598.7445111405,6785.0241085899,12831.5785292985,-526.5814154065,-8158.8909245651,-5457.5892236910,-8411.1394474015,-21729.5110234954,-10982.2711276637,-4458.0372650800,-6438.4759353756,-1747.2812637745,-23785.9612958441,7413.7533388249,9796.2492152411,15889.0408838769
560840079184,32448,-2,0,4599.1217097420,6784.1358667218,12823.2679923685,-529.9640351232,-8154.1820258946,-5468.5766539221,-8411.0177704332,-21726.4934346834,-10978.1949492280,-4458.7429914957,-6439.6927050579,-1741.3190923312,-23780.6561800293,7418.2553866494,9802.2235543811,15895.2099061662
560840079184,32448,-2,0,4603.6115898696,6787.5793249227,12823.8277064223,-527.8346881792,-8151.4807971999,-5465.8997606211,-8408.4747217972,-21724.6682801599,-10974.8244972081,-4456.4432967962,-6433.8157074925,-1740.8567198520,-23778.3199822392,7420.5672490458,9802.6737591636,15896.9985575991
560840079184,32448,-2,0,4605.8626137819,6789.4653179302,12834.7542981693,-522.9676094500,-8152.7827407599,-5456.3237832214,-8407.4526352641,-21727.4546827324,-10978.8155017660,-4457.3072032706,-6429.2528211839,-1745.7359662780,-23782.0919682544,7413.2422955584,9794.6309115636,15888.4324990358
560840079184,32448,-2,0,4604.3781547695,6790.0615350746,12838.3437687321,-520.6070762664,-8156.3600436259,-5452.0285862429,-8409.9835162033,-21730.7521285714,-10983.8285928570,-4460.9210092270,-6431.1996526755,-1749.0212444202,-23787.9689658198,7410.9304331620,9793.2924649131,15884.8186930794
560840079184,32448,-2,0,4599.2555544070,6784.3548852646,12833.2941745506,-526.9951170984,-8158.0635211811,-5459.7794091191,-8413.7676699152,-21733.4533572661,-10985.9822751947,-4463.0990269583,-6440.2524191118,-1749.5809584740,-23788.4070029055,7410.3585514113,9791.9175151721,15885.6582641602
560840089152,32449,-2,0,4597.3938967931,6781.2886256652,12822.5622659527,-533.3344871432,-8157.8323349415,-5471.2657149200,-8415.2399612308,-21730.0220667620,-10983.1958726222,-4463.7925856772,-6443.9513989460,-1745.6386247034,-23787.1658978295,7411.8551781205,9795.3609733730,15892.2288204445
560840089152,32449,-2,0,4597.3330583090,6782.8704262522,12817.1598085634,-534.6242630064,-8157.0657700416,-5471.8010935802,-8411.1759504919,-21726.0919006882,-10981.5897366416,-4463.9872688264,-6438.3299230138,-1742.5967004976,-23785.5962649394,7414.3860590597,9798.1960467327,15894.6015213250
560840089152,32449,-2,0,4598.2334678739,6786.0340274262,12822.6961106178,-529.0757932552,-8157.1874470098,-5461.2151973442,-8408.0488524084,-21726.6394470452,-10983.2810465000,-4462.8678407187,-6430.7737832867,-1745.0180721654,-23787.8837919421,7412.0863643602,9796.7967615981,15890.5740136766
560840089152,32449,-2,0,4596.2623009886,6786.6667476610,12830.8362997923,-524.9631117290,-8160.8620914504,-5454.0970947028,-8408.9249265797,-21729.6205327669,-10987.4302311166,-4464.6199890612,-6430.2140692329,-1750.2866848897,-23791.4610948080,7408.5820676752,9793.6453281210,15886.2179782140
560840089152,32449,-2,0,4594.9968605190,6784.0020220567,12826.4437612393,-528.5525822918,-8163.2347923308,-5461.1786942538,-8412.8185895630,-21730.2532530016,-10988.9511932195,-4467.0048576385,-6438.1839106519,-1750.2501817993,-23788.3461644213,7409.5068126337,9795.2757994952,15885.0012085317
560840089152,32449,-2,0,4593.3420537511,6780.1570298607,12816.5392560254,-535.2569832412,-8161.1297807805,-5472.5676584800,-8415.7996752847,-21730.8981409333,-10986.9800263342,-4466.9561868512,-6443.0388216842,-1746.5268665714,-23784.9148739173,7411.8186750301,9796.7845939013,15888.8948715151
560840089152,32449,-2,0,4594.4736495556,6781.9335135968,12813.3756548514,-534.7702753683,-8159.1221108047,-5473.6505834973,-8415.2764643213,-21729.0973218035,-10983.6704127983,-4464.4253059120,-6438.8774693708,-1745.1397491336,-23784.2943213793,7413.2179601647,9798.2447175200,15889.3694116912
560840089152,32449,-2,0,4596.2501332918,6785.3891394945,12818.2670689742,-530.9739539595,-8159.4019678316,-5464.3544631246,-8411.8330061204,-21730.9589794174,-10987.6005788721,-4465.2162062055,-6434.2902476686,-1748.1208348553,-23788.1636489690,7409.2999617877,9794.5457376859,15884.7335192016
560840119225,32450,-2,0,4594.7900096730,6783.8803450885,12824.4969297476,-528.4795761108,-8165.4493131526,-5458.9520057352,-8414.9114334166,-21736.3736045036,-10994.4874952739,-4468.8543475556,-6436.0180606174,-1755.1415959221,-23794.8558822216,7404.5423923299,9790.8102547612,15880.4139868295
560840119225,32450,-2,0,4588.4019688410,6777.0664348677,12820.2139004659,-535.8045295983,-8171.6670062291,-5467.5789027826,-8422.9542810165,-21742.4209498246,-10999.8777849665,-4473.2347184118,-6445.3871871711,-1759.2056066610,-23797.7274586718,7401.5978096988,9789.4231373234,15881.0710424579
560840119225,32450,-2,0,4585.7615786304,6771.4206235418,12809.2994764157,-544.7234513695,-8173.5773346304,-5480.4766614150,-8424.4995785131,-21742.4817883087,-10999.0990523698,-4476.4348226762,-6452.3836128443,-1755.1294282253,-23795.1114038549,7406.0025159487,9795.2636317984,15887.7754434073
560840119225,32450,-2,0,4589.5213969487,6775.0952679823,12806.7807631734,-543.0929799952,-8167.1527907078,-5482.8736976891,-8420.5694124393,-21736.4709460782,-10993.0395393520,-4472.3951473310,-6444.9978208727,-1748.7535550900,-23789.6359402846,7412.5487368394,9800.8607723370,15894.6623598091
560840119225,32450,-2,0,4594.5344880397,6780.3152099194,12816.8434484460,-536.2182312902,-8165.2546300035,-5472.0322798198,-8415.0452780816,-21733.9887359263,-10991.4212356746,-4469.3288877316,-6437.6972027790,-1749.2645983566,-23789.3439155608,7411.8916812110,9799.9116919848,15891.5352617256
560840119225,32450,-2,0,4594.1207863477,6782.3472152888,12823.7425325446,-532.8599469671,-8167.8828525172,-5463.4053827724,-8417.1867927225,-21738.2109267239,-10996.6776807021,-4472.2613026660,-6437.1374887251,-1755.0685897412,-23794.2596650773,7407.7424965944,9792.6840800720,15883.9304512113
560840119225,32450,-2,0,4591.4925638340,6779.1957818117,12822.5379305591,-534.7337722778,-8170.7057581801,-5467.6275735699,-8421.6280020628,-21742.4574529151,-11000.5470082918,-4475.9967855906,-6444.4989453030,-1758.6823956976,-23798.0073156988,7403.7879951269,9787.9751814015,15879.2823910249
560840119225,32450,-2,0,4589.3632168900,6773.6351443636,12814.3734059909,-542.3994212763,-8170.2190503072,-5478.3108113805,-8424.7064293591,-21739.7805596140,-10998.0404627462,-4475.2667237812,-6449.0739993084,-1755.5796330077,-23795.3425900945,7406.4770561248,9790.1045283455,15885.0012085317
560840133035,32451,-2,0,4593.7557554431,6777.0786025645,12811.1854694233,-543.0078061174,-8164.2690465608,-5481.3892386767,-8419.5108228157,-21733.1856679360,-10991.0440370730,-4471.3365577074,-6445.4845287457,-1749.0820829043,-23788.3461644213,7411.3441348540,9795.1906256175,15892.0584726890
560840133035,32451,-2,0,4597.5764122455,6783.5031464870,12817.7438580109,-535.2691509380,-8160.1198619442,-5471.0101932867,-8413.1471173773,-21731.9688982537,-10989.7907643003,-4469.2315461571,-6436.7237870331,-1748.5832073345,-23786.3384944456,7410.3585514113,9794.5579053827,15887.7511080137
560840133035,32451,-2,0,4599.3163928911,6783.8803450885,12828.3784250341,-531.0347924437,-8162.2492088882,-5461.3368743125,-8413.3539682232,-21737.4321941272,-10992.1756328776,-4467.8200933256,-6433.2681611354,-1753.8639877557,-23790.0983127639,7407.8155027753,9793.1221171576,15885.9259534903
560840133035,32451,-2,0,4597.8197661819,6782.1281967460,12830.5929458559,-530.3899045120,-8164.5002328004,-5461.5315574616,-8417.1502896320,-21738.3812744794,-10993.9156135233,-4469.8399309982,-6438.3055876201,-1755.4092852522,-23790.7432006955,7408.4603907069,9792.7084154656,15884.5145006588
560840133035,32451,-2,0,4596.4813195314,6778.9524278752,12820.6519375515,-536.0965543220,-8163.9040156561,-5473.0787017466,-8418.5739101603,-21736.0207412957,-10991.6402542174,-4470.5699928076,-6445.1316655378,-1751.8928208704,-23786.5331775947,7413.2179601647,9796.0666997887,15886.9358723266
560840133035,32451,-2,0,4596.1892948076,6775.5576404616,12814.1908905386,-541.5841855891,-8161.6286563502,-5479.6614257278,-8417.9411899255,-21732.3704322488,-10986.8461816691,-4467.8079256288,-6442.9779832001,-1748.3520210949,-23782.2866514035,7417.5374925368,9800.0820397403,15895.8061233105
560840133035,32451,-2,0,4598.5984987786,6778.9524278752,12819.5690125343,-537.3498270948,-8158.6962414159,-5471.5942427342,-8413.9623530644,-21731.3848488062,-10984.7655055124,-4465.5690694134,-6435.7990420746,-1748.5832073345,-23782.2988191003,7416.5397413974,9800.9094431243,15895.3924216185
560840133035,32451,-2,0,4599.3163928911,6781.8605074159,12828.8894683007,-533.0667978131,-8158.7205768095,-5457.7474037497,-8413.0132727122,-21733.1491648455,-10986.3229707057,-4466.0192741958,-6432.9152979276,-1752.7688950416,-23782.0432974671,7413.4248110107,9797.9040220090,15890.5131751925
560840164087,32452,-2,0,4599.3772313753,6780.5707315527,12833.8903916949,-532.5800899402,-8159.6818248586,-5456.5914725515,-8415.3373028054,-21736.3127660195,-10987.2963864516,-4464.8755106945,-6435.7625389841,-1754.8374035015,-23783.1505578780,7413.3274694361,9795.6529980967,15888.9192069087
560840164087,32452,-2,0,4596.5664934092,6773.8054921191,12825.1296499824,-540.9392976575,-8160.1441973378,-5467.9926044746,-8420.4964062583,-21736.3614368068,-10986.4324799771,-4466.8831806702,-6445.3628517774,-1753.7788138779,-23781.2645648704,7416.4423998228,9797.9161897058,15893.7862856379
560840164087,32452,-2,0,4595.2888852427,6772.8564117669,12815.3833248272,-544.4192589489,-8158.2460366334,-5475.9137751063,-8418.3183885270,-21732.7476308504,-10981.7114136098,-4465.9584357117,-6443.9027281587,-1747.2934314713,-23777.4074049775,7421.8326895153,9803.5620010317,15900.7827113111
560840164087,32452,-2,0,4597.4790706709,6777.7843289802,12819.8732049549,-540.7932852957,-8154.4253798310,-5468.6983308903,-8414.1448685167,-21730.4722715445,-10978.7181601914,-4463.0503561710,-6436.0667314047,-1745.9914879112,-23777.3830695839,7422.5749190215,9805.3506524646,15902.8025489837
560840164087,32452,-2,0,4598.2456355707,6778.9767632689,12828.0012264326,-534.6607660969,-8157.1874470098,-5458.6234779209,-8414.4490609373,-21734.6336238579,-10983.1350341381,-4463.4640578630,-6433.4141734973,-1751.0167466991,-23782.0432974671,7417.7321756860,9800.5200768259,15898.1423211005
560840164087,32452,-2,0,4596.0432824458,6776.9082548090,12827.9160525548,-536.0965543220,-8162.6507428833,-5459.7794091191,-8418.5009039793,-21739.1965101665,-10988.2941375911,-4468.3676396826,-6438.9748109454,-1756.8572411741,-23787.5795995215,7412.9259354410,9798.2203821264,15895.1490676821
560840164087,32452,-2,0,4592.2226256434,6771.0677603339,12819.9948819231,-543.3728370221,-8162.7115813675,-5469.5135665775,-8422.1998838135,-21738.2230944207,-10988.0872867451,-4468.7326705873,-6445.6792118948,-1754.0343355112,-23783.9536258683,7414.1062020328,9797.7823450408,15899.5416062351
560840164087,32452,-2,0,4589.4970615550,6766.2736877857,12812.1467174723,-550.6004489349,-8160.8134206631,-5478.2499728964,-8420.5937478329,-21734.4511084056,-10984.3274684268,-4466.9805222448,-6446.5431183693,-1748.4371949727,-23780.6196769388,7421.2243046742,9803.7323487872,15905.2847591356
560840197885,32453,-2,0,4593.3055506606,6772.3210331067,12813.3513194578,-546.3295873501,-8156.7129068338,-5473.6749188909,-8415.5684890450,-21732.2122521901,-10981.9182644558,-4465.7150817752,-6438.1595752582,-1745.5047800383,-23777.2005541315,7422.5627513247,9805.8981988217,15904.6763742944
560840197885,32453,-2,0,4596.9558597075,6776.2998699678,12822.8421229797,-537.8608703613,-8157.6376517923,-5461.2638681315,-8412.9889373186,-21731.8228858918,-10982.8065063239,-4462.2107850902,-6429.5935166949,-1748.8265612710,-23780.2181429436,7418.1702127716,9802.7467653445,15898.3613396433
560840197885,32453,-2,0,4596.1284563235,6775.6549820362,12828.2689157627,-536.2303989871,-8160.8255883599,-5458.4166270750,-8415.0696134753,-21735.9842382053,-10985.5564058059,-4464.3522997311,-6432.9761364117,-1752.9149074035,-23784.1969798047,7412.9381031378,9798.9626116326,15893.0562238285
560840197885,32453,-2,0,4593.6340784748,6773.8298275127,12821.5645148133,-540.8784591734,-8161.9206810740,-5467.2382072716,-8419.8393506299,-21735.6435426942,-10986.9800263342,-4466.6884975211,-6440.7269592879,-1752.6228826797,-23783.3939118144,7414.0331958518,9800.3740644640,15893.0562238285
560840197885,32453,-2,0,4592.4781472766,6770.7757356102,12812.1832205628,-547.2421646118,-8159.9008434014,-5477.4834079965,-8419.3161396665,-21732.4191030361,-10982.1859537859,-4464.1819519755,-6441.0676547989,-1748.1938410362,-23779.5489196184,7418.8394360969,9804.6449260489,15898.4708489147
560840197885,32453,-2,0,4594.5344880397,6774.9979264078,12813.8623627243,-543.8960479855,-8153.6709826280,-5470.8763486217,-8412.8550926535,-21727.0653164340,-10975.9195899221,-4457.2098616960,-6431.6011866707,-1741.8058002041,-23773.6354189624,7422.3680681756,9806.3849066946,15904.0071509692
560840197885,32453,-2,0,4598.5863310818,6782.4323891666,12824.5821036253,-533.2736486591,-8149.0350901385,-5455.7032306834,-8404.6905680853,-21724.3519200425,-10974.5324724843,-4453.0971801698,-6422.8039418677,-1741.4286016026,-23772.3091400087,7424.3879058482,9808.8549491496,15905.3212622260
560840197885,32453,-2,0,4599.9612808228,6785.1944563454,12833.6592054553,-527.4818249714,-8148.8039038988,-5447.2345136947,-8402.5977242318,-21726.1284037787,-10974.4472986065,-4450.0795913578,-6422.3780724789,-1742.2316695930,-23774.3533130750,7425.1301353544,9808.6115952132,15901.9873132965
560840229294,32454,-2,0,4604.2443101044,6786.4233937245,12836.7011296610,-526.1312106240,-8146.2121844756,-5451.7730646096,-8403.6076430681,-21723.9503860474,-10973.3035351052,-4449.3495295484,-6427.5858467191,-1741.3434277249,-23773.6354189624,7428.0260471982,9810.8261160350,15902.6078658345
560840229294,32454,-2,0,4607.1280542515,6785.9731889420,12829.3396730831,-530.3290660279,-8143.2189310571,-5461.1056880728,-8403.4007922221,-21720.7867848734,-10969.8844122979,-4450.4446222624,-6431.5281804897,-1738.5935282429,-23768.7926756269,7431.7615301229,9813.5030093360,15905.0414051991
560840229294,32454,-2,0,4609.0627180463,6787.4819833481,12826.4924320265,-529.3799856757,-8145.1779302456,-5462.3954639361,-8402.4882149604,-21720.7137786925,-10970.3467847772,-4451.1746840718,-6428.4740885872,-1738.8612175730,-23770.0581160965,7429.0359660345,9812.5052581965,15903.6177846708
560840229294,32454,-2,0,4609.7927798557,6793.0182854025,12836.0562417294,-523.4543173230,-8149.4001210432,-5455.4355413533,-8404.0578478505,-21724.8142925218,-10976.2724531300,-4454.1436020966,-6425.1279719609,-1746.5633696619,-23776.1297968111,7423.6821794324,9806.7256022056,15896.1103157311
560840229294,32454,-2,0,4607.1888927356,6793.1034592803,12837.6015392259,-522.5660754549,-8156.3235405354,-5453.1601820474,-8409.1439451225,-21732.3704322488,-10984.6194931505,-4461.6510710364,-6431.6498574580,-1753.9978324207,-23781.0212109339,7416.7952630306,9799.4249841119,15884.6240099302
560840229294,32454,-2,0,4604.5241671314,6790.0615350746,12832.9656467364,-526.6422538906,-8160.0833588537,-5461.7140729140,-8414.8627626293,-21734.7674685230,-10988.2698021974,-4466.1652865577,-6440.1185744467,-1756.0785085775,-23783.9171227778,7413.1936247711,9797.3686433488,15887.8362818915
560840229294,32454,-2,0,4603.2830620554,6788.4553990939,12826.5167674202,-530.0735443946,-8157.0414346480,-5470.5721562011,-8413.9015145803,-21731.7377120140,-10985.1183687203,-4463.4762255598,-6442.5642815082,-1749.8851508946,-23780.4736645769,7413.2301278615,9797.1496248060,15891.7056094812
560840229294,32454,-2,0,4604.7066825837,6789.1246224192,12823.3288308526,-531.1686371087,-8154.8512492198,-5471.9227705484,-8411.5531490934,-21729.6692035541,-10984.2544622458,-4463.7682502836,-6439.9117236008,-1747.5246177109,-23784.5863461031,7413.0597801060,9799.1451270849,15894.3946704790
560840259454,32455,-2,0,4605.9599553565,6791.1201246981,12827.5510216501,-526.1677137145,-8158.0756888779,-5462.6631532662,-8410.1538639588,-21732.6016184885,-10988.7443423735,-4465.3743862642,-6435.7747066810,-1752.8905720098,-23789.9644680988,7408.3143783451,9792.9274340084,15888.4933375199
560840259454,32455,-2,0,4602.2974786128,6789.1611255097,12833.4036838220,-524.2208822228,-8163.8431771720,-5457.6743975688,-8414.3273839691,-21737.4808649145,-10993.0760424425,-4466.9318514575,-6436.5169361872,-1758.1105139469,-23794.0528142313,7403.8488336110,9787.5979828000,15881.9227812355
560840259454,32455,-2,0,4600.4479886957,6785.7541703992,12829.8872194401,-528.3335637490,-8166.8242628936,-5463.2593704105,-8416.9069356955,-21739.2086778633,-10994.9742031469,-4471.8841040645,-6444.9248146918,-1759.6314760498,-23794.1014850186,7404.4815538458,9787.5979828000,15882.6285076512
560840259454,32455,-2,0,4600.8130196004,6784.1480344186,12822.4649243782,-532.7747730893,-8163.6484940228,-5472.7623416292,-8416.8095941210,-21733.4168541756,-10991.5672480364,-4471.0567006805,-6447.4921987214,-1753.6693046065,-23789.0153877466,7411.1129486143,9793.6939989083,15890.4036659211
560840259454,32455,-2,0,4603.8427761093,6786.7762569324,12821.0778069403,-532.0812143704,-8157.5403102177,-5471.3265534041,-8409.9470131128,-21727.0166456467,-10982.1981214828,-4464.6929952421,-6438.8896370676,-1746.6363758429,-23782.6395146114,7416.9777784830,9800.4470706450,15897.6556132276
560840259454,32455,-2,0,4608.6003455670,6790.6942553093,12831.0553183352,-526.2042168049,-8152.8192438504,-5457.8082422338,-8401.8189916351,-21723.9017152601,-10980.1417807197,-4461.0426861952,-6427.9265422302,-1744.0689918132,-23780.7778569975,7416.0165304340,9800.1307105276,15894.4920120536
560840259454,32455,-2,0,4610.4011646968,6791.9961988694,12838.6844642431,-521.7508397678,-8153.1721070583,-5448.0375816850,-8399.0325890626,-21722.6849455778,-10982.3806369351,-4461.2617047380,-6422.6214264154,-1745.3222645860,-23781.7269373497,7415.2377978373,9801.4326540876,15893.0318884349
560840259454,32455,-2,0,4607.2618989165,6787.8591819496,12839.9012339254,-523.8801867118,-8154.0968520168,-5450.2155994163,-8401.1376006130,-21724.2667461648,-10983.2688788032,-4459.8502519066,-6427.0748034525,-1745.1275814368,-23782.7611915796,7414.7267545708,9801.8950265669,15893.5307640046
560840290478,32456,-2,0,4606.1424708088,6785.9488535484,12831.9192248096,-530.0248736074,-8153.2451132392,-5461.4220481902,-8403.1452705888,-21722.5754363064,-10980.8840102259,-4460.7019906842,-6433.2073226513,-1741.0392353043,-23778.4416592075,7419.6668394809,9804.0365412078,15899.1400722400
560840290478,32456,-2,0,4605.3880736058,6786.0340274262,12823.6451909700,-531.8378604340,-8149.8016550383,-5466.8610086701,-8400.8090727988,-21718.6209348389,-10976.1629438586,-4459.4487179114,-6430.4939262598,-1736.6101936608,-23772.8566863657,7423.3293162246,9805.8616957312,15903.2405860693
560840290478,32456,-2,0,4608.4056624179,6789.6721687762,12831.2013306970,-526.0825398367,-8148.7065623243,-5456.9686711530,-8396.7328943631,-21719.2414873769,-10974.7393233303,-4455.5428872313,-6422.6092587185,-1738.1433234604,-23771.5425751089,7423.5848378579,9803.9391996332,15902.1089902648
560840290478,32456,-2,0,4612.3236607949,6793.6145025469,12841.7628915393,-521.0329456552,-8147.1612648277,-5445.8473962569,-8396.1853480061,-21721.7967037097,-10974.7393233303,-4454.5329683950,-6418.9346142780,-1742.5480297103,-23771.6885874707,7423.8160240975,9800.1428782244,15898.0936503132
560840290478,32456,-2,0,4611.1190588094,6791.8380188107,12843.4298660041,-521.1302872298,-8146.7475631358,-5445.9690732251,-8398.9109120944,-21724.8386279154,-10974.6906525430,-4454.8979992996,-6425.7120214084,-1744.5070288988,-23771.6764197739,7426.1157187970,9801.3353125131,15898.2761657655
560840290478,32456,-2,0,4609.6954382811,6787.5793249227,12836.4577757245,-527.0802909762,-8145.3969487884,-5456.7374849134,-8403.1452705888,-21725.2766650011,-10971.8434114864,-4453.5230495586,-6431.7958698198,-1743.6309547276,-23769.6930851918,7427.9408733205,9805.4723294329,15903.2284183725
560840290478,32456,-2,0,4608.4299978115,6785.8028411865,12829.3883438704,-531.9960404927,-8143.0607509984,-5462.3832962392,-8403.1939413761,-21724.4979324044,-10967.9010777158,-4452.7199815683,-6432.3434161769,-1741.3920985122,-23766.4321424432,7428.3545750124,9808.6237629100,15906.3555164560
560840290478,32456,-2,0,4609.4034135574,6788.4067283066,12830.0332318020,-528.9784516806,-8142.9634094238,-5456.0195908008,-8401.1376006130,-21723.9625537442,-10969.6045552710,-4453.7177327078,-6425.8580337703,-1741.5989493582,-23770.3866439107,7427.3933269634,9809.2808185384,15906.5136965147
560840326923,32457,-2,0,4609.7197736748,6791.5338263901,12839.3171844779,-522.2618830343,-8147.5019603388,-5446.2976010393,-8401.4052899431,-21727.2965026737,-10974.3864601224,-4454.6546453632,-6423.3028174374,-1745.7846370652,-23777.0788771633,7420.8106029822,9805.1194662250,15901.2572514872
560840326923,32457,-2,0,4605.6070921486,6787.5063187417,12837.4190237736,-525.5836642670,-8152.7097345790,-5450.7266426829,-8407.8663369561,-21731.4943580776,-10981.6627428226,-4459.3635440337,-6431.1388141914,-1750.0676663469,-23784.4281660444,7415.1282885659,9801.2501386353,15896.7673713595
560840326923,32457,-2,0,4599.4259021625,6780.2908745257,12824.6307744126,-534.3200705859,-8155.8246649657,-5465.0358541466,-8414.2543777881,-21732.8206370313,-10984.8750147838,-4465.8610941371,-6441.6517042464,-1750.4448649484,-23782.9802101224,7416.2477166736,9801.2501386353,15900.2473326509
560840326923,32457,-2,0,4600.9346965686,6779.2809556894,12818.4739198202,-536.8874546155,-8153.1721070583,-5471.3022180105,-8413.5608190692,-21729.5596942827,-10979.7159113309,-4465.0458584500,-6440.8486362561,-1745.1397491336,-23778.2469760583,7420.9687830409,9806.7012668120,15906.6718765734
560840326923,32457,-2,0,4605.7287691168,6784.5495684138,12824.7767867745,-533.1884747813,-8151.2374432634,-5465.0480218435,-8410.1173608683,-21727.2234964927,-10977.6839059614,-4462.3933005426,-6432.9396333212,-1744.0203210259,-23775.8134366937,7423.3779870119,9808.0397134625,15906.2460071846
560840326923,32457,-2,0,4609.6224321002,6788.3337221257,12835.4843599787,-524.9022732449,-8151.7606542268,-5454.4621256075,-8408.3165417385,-21730.0585698525,-10980.7623332577,-4463.9020949486,-6428.6687717364,-1746.3808542096,-23777.1397156474,7419.5573302095,9804.0608766014,15898.7142028512
560840326923,32457,-2,0,4609.2695688923,6785.9853566389,12837.7110484973,-526.3867322573,-8154.9729261881,-5455.0948458423,-8412.6360741107,-21735.1446671245,-10983.7434189793,-4466.3234666164,-6432.6476085975,-1750.6030450071,-23781.1063848117,7418.3892313145,9805.4966648265,15899.3347553891
560840326923,32457,-2,0,4605.3272351217,6780.8384208828,12829.6682008973,-534.3687413731,-8157.6133163987,-5467.7127474477,-8419.2796365760,-21736.9454862543,-10984.6194931505,-4467.7714225383,-6441.7490458210,-1750.2136787088,-23780.4736645769,7418.7907653096,9806.7256022056,15903.1675798884
560840426883,32458,-2,0,4603.6359252633,6778.3318753372,12819.5081740502,-540.1483973640,-8156.7494099242,-5478.3108113805,-8420.4720708647,-21736.0085735989,-10981.8574259717,-4467.4307270273,-6444.2190882761,-1748.4980334568,-23775.8742751778,7424.1323842149,9810.5827620985,15906.5988703924
560840426883,32458,-2,0,4603.7210991410,6779.4756388386,12817.7438580109,-539.5643479165,-8156.9562607702,-5475.1228748129,-8419.0362826396,-21736.3614368068,-10980.5798178053,-4465.5690694134,-6438.5976123439,-1749.4714492026,-23774.8278532511,7425.1423030512,9810.4367497366,15908.1198324953
560840426883,32458,-2,0,4602.5530002460,6779.6094835036,12825.0079730141,-536.7171068600,-8162.4803951278,-5466.3377977067,-8419.8150152362,-21740.8269815408,-10985.4103934440,-4465.4352247483,-6433.6818628274,-1755.7743161569,-23779.8044412516,7418.7907653096,9805.7400187630,15900.1256556826
560840426883,32458,-2,0,4600.6061687544,6780.8262531859,12827.4536800756,-534.8919523365,-8167.1771261015,-5465.4373881418,-8422.6257532023,-21743.7472287783,-10992.3338129363,-4469.4749000935,-6438.0622336837,-1760.0573454386,-23782.1041359512,7415.7610088007,9803.2699763079,15896.8160421468
560840426883,32458,-2,0,4598.9026911992,6779.2322849021,12823.4748432145,-538.3962490215,-8166.5444058667,-5472.7988447197,-8424.9984540828,-21741.2528509296,-10991.1413786476,-4469.3897262158,-6443.1239955620,-1757.1736012915,-23779.9017828262,7416.8074307275,9804.8031061076,15899.6876185970
560840426883,32458,-2,0,4599.5719145244,6780.7532470050,12817.6708518299,-541.5355148019,-8164.2690465608,-5480.8660277133,-8422.2607222976,-21735.1811702149,-10986.0917844661,-4465.2405415991,-6443.7567157968,-1751.5521253593,-23774.3898161654,7420.3482305029,9808.7454398782,15907.4506091700
560840426883,32458,-2,0,4605.3028997280,6784.5374007169,12820.7857822166,-536.2425666839,-8158.0391857875,-5474.0642851893,-8415.2886320181,-21730.4236007572,-10980.9205133164,-4461.7362449141,-6435.0689802652,-1746.4416926937,-23772.2726369182,7425.0936322639,9811.3493269983,15910.2856825298
560840426883,32458,-2,0,4609.2817365891,6788.4919021844,12830.3860950099,-528.5890853822,-8157.4186332495,-5460.1322723270,-8411.1881181888,-21732.0054013442,-10981.0908610719,-4459.7164072415,-6427.4885051445,-1748.1208348553,-23774.3411453781,7423.8525271880,9808.8671168465,15906.5136965147
560840441679,32459,-2,0,4608.1623084814,6789.0029454510,12838.5262841844,-525.9000243844,-8159.2072846825,-5455.7275660771,-8413.9866884580,-21735.3150148800,-10984.6803316346,-4460.3734628700,-6429.3866658489,-1751.9171562640,-23778.1739698774,7421.4311555202,9805.6670125820,15902.3766795949
560840441679,32459,-2,0,4606.2276446866,6786.2043751817,12833.2698391569,-530.9131154754,-8158.7205768095,-5463.4905566501,-8416.9556064828,-21735.8503935402,-10984.4126423045,-4462.1621143029,-6437.7580412631,-1751.0045790023,-23776.2028029921,7423.7186825229,9808.1492227339,15903.7759647295
560840441679,32459,-2,0,4607.0185449801,6785.0727793771,12825.6771963394,-533.2006424781,-8153.0139269996,-5471.1075348613,-8414.9357688102,-21730.6304516032,-10977.7812475360,-4460.4708044445,-6438.6827862216,-1745.2127553146,-23768.5979924777,7429.5956800884,9813.7098601820,15911.2347628820
560840441679,32459,-2,0,4608.7828610194,6790.9254415490,12826.1395688187,-530.3777368152,-8149.3271148622,-5468.3332999857,-8411.0299381301,-21728.3672599941,-10974.0701000050,-4457.0273462437,-6432.9031302307,-1744.6652089575,-23766.4443101401,7432.1143933307,9814.1600649644,15913.8751530926
560840441679,32459,-2,0,4611.1555618999,6793.6753410310,12833.8538886044,-524.9874471227,-8150.8359092683,-5457.9542545957,-8408.6085664623,-21730.8129670555,-10976.5523101569,-4459.2418670654,-6429.5691813013,-1748.7900581805,-23769.1698742284,7427.8435317459,9809.6458494431,15907.3289322018
560840441679,32459,-2,0,4611.3137419586,6792.3612297741,12839.1103336319,-523.4908204134,-8154.5592244961,-5453.7320637981,-8411.0664412205,-21735.8503935402,-10983.0376925635,-4463.0503561710,-6433.2073226513,-1754.8252358047,-23773.9031082925,7423.3536516182,9805.4844971297,15899.5294385383
560840441679,32459,-2,0,4605.2420612439,6784.5374007169,12833.3063422474,-529.8058550645,-8158.9760984428,-5463.5878982247,-8416.1525384925,-21738.6854668999,-10986.6880016104,-4466.2626281323,-6442.0532382416,-1756.1758501520,-23774.8156855542,7420.5672490458,9804.0852119950,15899.3347553891
560840441679,32459,-2,0,4601.7499322557,6778.3440430341,12820.3477451310,-539.0046338627,-8157.7593287605,-5474.9646947542,-8416.2498800671,-21735.4123564546,-10983.6095743142,-4467.7470871447,-6445.1316655378,-1750.6030450071,-23773.4042327228,7425.3369862004,9808.6480983037,15906.7327150575
560840450751,32460,-2,0,4603.6845960506,6782.9556001300,12820.0435527104,-537.1916470361,-8150.0450089748,-5470.7303362598,-8408.5355602814,-21728.4280984782,-10978.5843155263,-4465.8975972276,-6435.2758311112,-1742.1464957152,-23766.7119994702,7430.5325927438,9815.7540332482,15912.2811848088
560840450751,32460,-2,0,4608.5760101734,6787.6523311036,12831.2378337875,-529.1609671329,-8145.7741473899,-5455.8127399548,-8400.5292157719,-21724.9724725805,-10975.6640682888,-4460.6654875937,-6422.8526126550,-1740.8080490647,-23766.8093410447,7430.4474188660,9815.3768346467,15911.6119614835
560840450751,32460,-2,0,4609.6954382811,6788.7839269081,12839.4266937493,-522.2862184280,-8145.2266010329,-5446.6869673376,-8397.9739994390,-21724.9968079741,-10978.1584461375,-4461.3955494031,-6419.7863530556,-1742.9860667960,-23767.9531045461,7428.0625502887,9813.1866492186,15907.4992799573
560840450751,32460,-2,0,4607.3714081879,6787.9078527369,12837.6623777100,-523.8680190149,-8145.8958243582,-5451.8582384874,-8400.6873958306,-21726.0188945073,-10979.2778742453,-4462.4784744203,-6425.8093629830,-1742.3533465612,-23769.0725326538,7428.9751275504,9814.2695742359,15907.7913046811
560840450751,32460,-2,0,4604.2199747108,6784.3792206582,12828.6461143642,-531.0104570500,-8146.9909170722,-5463.1255257454,-8402.6342273222,-21723.5731874459,-10978.0732722598,-4460.9818477111,-6430.9197956486,-1739.3965962332,-23768.1599553921,7429.6686862693,9815.3524992531,15912.1473401437
560840450751,32460,-2,0,4604.9622042170,6784.2088729027,12824.1440665397,-530.7549354167,-8146.1635136883,-5466.2282884353,-8400.6508927401,-21720.3000770005,-10976.2116146459,-4458.5726437402,-6427.3424927827,-1737.0238953527,-23768.1112846048,7429.9242079026,9815.7296978546,15912.6218803198
560840450751,32460,-2,0,4606.1911415961,6787.0074431720,12828.3662573373,-526.3015583795,-8149.7651519479,-5458.1611054417,-8399.0934275468,-21722.1617346144,-10979.8862590864,-4458.2441159259,-6421.4898306108,-1739.4330993237,-23773.8544375052,7424.3027319704,9811.8116994776,15905.3942684070
560840450751,32460,-2,0,4603.8427761093,6784.8537608343,12834.4014349615,-524.2573853133,-8155.1554416404,-5451.2498536462,-8401.1376006130,-21725.9093852359,-10983.8407605539,-4458.2684513196,-6420.6745949237,-1744.3975196274,-23779.5854227088,7418.0120327129,9806.7621052961,15899.8823017462
560840465548,32461,-2,0,4600.5696656639,6780.8019177923,12835.0584905899,-527.2993095190,-8157.5768133082,-5454.9244980868,-8404.2403633029,-21727.6006950942,-10985.5077350186,-4458.1346066545,-6426.1987292813,-1745.2979291923,-23781.0577140244,7415.7366734071,9805.2654785869,15897.1567376578
560840465548,32461,-2,0,4599.2920574975,6777.1029379581,12824.0832280556,-533.4196610210,-8154.8877523103,-5463.6730721025,-8405.1772759582,-21724.0355599251,-10980.5554824117,-4457.4532156325,-6428.7904487046,-1740.1874965267,-23776.2028029921,7420.6524229235,9809.4755016876,15900.6123635556
560840465548,32461,-2,0,4602.4069878842,6777.6991551024,12822.1363965639,-534.6120953096,-8149.1324317131,-5464.3909662150,-8400.6995635274,-21719.2293196801,-10972.0745977261,-4450.2377714165,-6422.3902401757,-1735.5029332499,-23768.7075017491,7427.2838176920,9813.5516801233,15906.4650257274
560840465548,32461,-2,0,4607.8337806672,6785.2187917390,12834.1824164186,-524.8901055481,-8143.5596265682,-5449.8505685116,-8391.9874926022,-21713.5470052638,-10967.9497485031,-4446.0155806189,-6410.4293941988,-1733.3492509122,-23765.0085219149,7429.1089722155,9815.8027040355,15904.0071509692
560840465548,32461,-2,0,4610.7175248142,6790.0371996809,12844.6466356864,-517.1027795814,-8142.0021613748,-5435.6386986224,-8389.5296178439,-21714.6299302810,-10969.5923875742,-4444.1174199145,-6405.7691663156,-1734.5173498072,-23769.1698742284,7424.5095828164,9812.7486121330,15898.1788241910
560840465548,32461,-2,0,4608.6368486575,6787.6158280131,12845.3158590116,-516.3118792879,-8144.3626945585,-5438.8266351900,-8392.7418898052,-21717.7691960613,-10974.1796092764,-4446.7578101251,-6413.0697844093,-1738.0824849763,-23776.5069954126,7418.5717467668,9808.3317381863,15896.1103157311
560840465548,32461,-2,0,4605.5584213613,6781.7023273572,12836.8228066292,-523.9045221054,-8147.7088111848,-5453.1115112602,-8398.2173533755,-21719.5213444038,-10975.0313480540,-4450.1647652355,-6422.2320601170,-1737.4497647415,-23775.3267288208,7419.8615226300,9808.7332721814,15897.9719733450
560840465548,32461,-2,0,4606.3736570484,6780.2300360416,12829.9237225306,-527.0194524921,-8146.6867246516,-5459.5360551827,-8397.0735898741,-21717.4163328534,-10970.5049648359,-4451.0286717099,-6421.7453522441,-1733.1789031567,-23769.4740666490,7425.1057999607,9814.2817419327,15903.9706478787
560840489295,32462,-2,0,4611.6422697728,6787.7861757687,12837.7962223751,-520.7287532346,-8144.3626945585,-5451.2741890399,-8394.4818704509,-21717.4893390344,-10970.5293002296,-4449.8240697245,-6415.2356344438,-1735.1744054356,-23767.9652722429,7425.6533463178,9814.2817419327,15902.8877228614
560840489295,32462,-2,0,4611.5570958950,6788.9907777541,12846.9463303859,-515.6669913563,-8146.9057431945,-5443.0853290781,-8395.1389260793,-21722.8917964238,-10974.8366649049,-4450.9313301354,-6413.9701939742,-1741.1852476662,-23769.6687497981,7422.4167389628,9811.1668115460,15896.8768806309
560840489295,32462,-2,0,4610.1456430636,6786.6667476610,12846.3257778479,-517.9058475717,-8151.1035985984,-5448.6824696166,-8401.2957806717,-21727.4668504292,-10980.6649916831,-4457.5870602975,-6424.1058854277,-1746.0036556081,-23771.4695689279,7420.3847335934,9806.5917575406,15892.5816836524
560840489295,32462,-2,0,4604.4876640409,6779.6581542909,12834.9733167121,-526.3380614700,-8154.1576905009,-5463.3567119851,-8409.7401622668,-21730.2167499112,-10982.5631523874,-4462.2837912712,-6435.3731726858,-1747.9383194029,-23771.9197737104,7419.6911748745,9806.0685465772,15895.5627693740
560840489295,32462,-2,0,4602.2244724318,6776.9569255962,12824.7646190777,-533.8942011970,-8155.0215969754,-5474.7335085145,-8411.5774844871,-21730.8494701460,-10980.0079360546,-4463.6344056185,-6437.2469979965,-1745.9306494271,-23771.0436995391,7422.9764530167,9807.8206949197,15900.3081711350
560840489295,32462,-2,0,4604.8283595519,6780.5463961590,12827.7213694057,-529.2826441012,-8155.0824354595,-5469.3432188220,-8409.0709389416,-21730.1559114271,-10981.2125380401,-4465.1797031150,-6432.6841116879,-1746.9284005666,-23769.8634329473,7423.0007884104,9807.6746825578,15897.2662469292
560840489295,32462,-2,0,4607.5417559434,6785.3648041009,12836.0319063357,-522.1888768534,-8158.6354029318,-5459.4143782144,-8409.9348454160,-21733.4533572661,-10985.2643810821,-4465.7515848657,-6428.8147840982,-1752.1726778973,-23772.9418602435,7420.3847335934,9804.4259075061,15893.4455901268
560840489295,32462,-2,0,4606.6291786817,6780.7532470050,12838.2829302480,-523.5151558071,-8164.5367358909,-5461.8235821854,-8415.2277935340,-21739.1356716824,-10991.2143848286,-4469.1828753698,-6436.3952592189,-1756.0420054870,-23776.0446229334,7415.7975118912,9803.0266223715,15890.9512122781
560840512944,32463,-2,0,4602.6016710333,6778.4657200023,12829.5951947164,-530.7549354167,-8166.3740581112,-5472.2634660595,-8418.7564256126,-21737.0306601320,-10992.1999682712,-4471.7380917026,-6445.4236902615,-1753.5962984256,-23775.8134366937,7418.4622374954,9804.5962552616,15894.9057137456
560840512944,32463,-2,0,4601.2388889892,6774.7910755618,12820.2139004659,-538.1893981755,-8163.9891895339,-5481.4379094640,-8418.7320902190,-21735.6435426942,-10986.7488400945,-4469.9981110569,-6446.8716461835,-1749.5201199899,-23771.3843950502,7421.2243046742,9807.1879746849,15898.4708489147
560840512944,32463,-2,0,4602.8328572730,6777.5653104374,12822.0998934735,-536.2182312902,-8163.3199662086,-5472.6528323578,-8416.2863831576,-21736.7629708019,-10985.1062010234,-4467.3455531495,-6438.2690845297,-1749.2280952661,-23772.6255001261,7422.7209313834,9808.7941106655,15901.5371085141
560840512944,32463,-2,0,4602.3461494001,6775.8740005790,12829.5830270196,-532.0082081895,-8163.4659785705,-5462.4319670265,-8415.2886320181,-21739.1356716824,-10988.5374915275,-4469.1098691888,-6434.1198999130,-1754.1438447826,-23776.3731507476,7419.5573302095,9804.4502428997,15894.5893536282
560840512944,32463,-2,0,4597.2843875217,6769.4007858692,12827.6361955279,-535.0866354857,-8166.2037103556,-5461.7627437013,-8419.1701273046,-21743.5890487196,-10992.0296205157,-4471.0567006805,-6438.5246061629,-1758.3173647929,-23779.1108825327,7415.2986363214,9802.7711007382,15890.2211504688
560840512944,32463,-2,0,4591.2492098975,6763.4629498196,12821.6375209942,-543.9447187728,-8169.3673115296,-5472.3243045436,-8425.0227894764,-21745.5967186954,-10992.4554899045,-4471.3730607979,-6446.8473107898,-1758.3173647929,-23777.3952372807,7415.9800273435,9803.6106718190,15892.2653235350
560840512944,32463,-2,0,4588.9860182885,6758.6445418777,12811.2341402106,-551.4400200157,-8167.3231384634,-5480.7686861387,-8425.0836279606,-21742.2506020691,-10987.1382063929,-4469.8520986950,-6448.4412790736,-1753.5354599415,-23772.7836801848,7420.2265535347,9806.9567884453,15896.1589865184
560840512944,32463,-2,0,4592.8066750909,6762.2583478341,12811.5870034184,-547.5585247292,-8164.5002328004,-5476.2057998301,-8419.4743197252,-21737.1401694034,-10983.0376925635,-4466.8466775798,-6440.4349345641,-1750.3961941611,-23770.7638425122,7422.9642853199,9809.9013710764,15898.7263705480
560840542857,32464,-2,0,4595.9337731744,6770.3133631309,12825.6163578553,-536.2182312902,-8162.9914383944,-5460.0227630556,-8413.9258499739,-21736.7994738924,-10982.4779785097,-4462.6366544790,-6430.7859509835,-1752.0875040195,-23773.4164004196,7419.3626470603,9805.6913479757,15895.1977384693
560840542857,32464,-2,0,4595.9824439617,6768.4395378202,12829.9845610147,-534.9527908206,-8166.1307041747,-5456.6158079452,-8416.0308615243,-21740.4619506361,-10987.5032372976,-4465.1797031150,-6435.0324771748,-1755.9446639124,-23777.6629266108,7414.9336054167,9800.3862321609,15889.6371010213
560840542857,32464,-2,0,4592.1009486751,6763.8401484211,12824.7402836840,-540.0510557895,-8168.5520758425,-5465.4617235354,-8419.6324997839,-21742.4574529151,-10988.7200069799,-4468.4406458636,-6443.6837096159,-1755.0077512570,-23778.0279575155,7415.6514995293,9800.6660891878,15891.3162431828
560840542857,32464,-2,0,4592.1861225529,6762.3313540151,12817.8533672823,-544.1759050124,-8164.5610712846,-5475.1228748129,-8418.5617424635,-21736.6656292273,-10983.7190835856,-4464.6321567580,-6443.5742003445,-1747.9139840093,-23772.0414506786,7421.7840187281,9805.9955403962,15902.9850644360
560840542857,32464,-2,0,4595.0333636095,6764.7527256828,12816.6974360841,-543.3971724158,-8159.6331540713,-5471.6064104310,-8413.6703283406,-21732.3217614615,-10980.1782838102,-4463.3788839852,-6435.5435204413,-1744.0689918132,-23769.2063773189,7425.0206260830,9807.9788749784,15907.4019383828
560840542857,32464,-2,0,4595.1793759713,6768.5368793948,12824.3144142952,-536.4615852267,-8160.2780420029,-5460.5581417158,-8410.5188948635,-21732.3339291584,-10983.3540526809,-4464.4739766993,-6429.3744981521,-1746.6363758429,-23772.6255001261,7422.0152049677,9803.6958456967,15903.5812815804
560840542857,32464,-2,0,4591.8332593450,6767.0524203824,12830.1549087703,-535.7315234173,-8164.2203757735,-5456.4211247960,-8412.3197139933,-21736.0329089925,-10988.0021128673,-4465.9584357117,-6430.2870754138,-1751.4669514816,-23778.0157898187,7415.7123380134,9798.7679284834,15897.8989671640
560840542857,32464,-2,0,4589.9716017311,6761.7108014771,12826.5167674202,-539.8563726403,-8166.2280457493,-5464.5004754864,-8415.8726814656,-21736.7508031051,-10988.6226654053,-4467.3090500590,-6438.1474075614,-1751.6494669339,-23778.8675285963,7413.6559972503,9799.8630211975,15896.5970236040
560840595383,32465,-2,0,4588.7548320488,6761.2727643915,12817.7438580109,-544.1515696188,-8163.7215002038,-5474.2224652480,-8414.9601042039,-21733.8792266549,-10984.4248100014,-4466.6033236433,-6440.0577359626,-1745.4561092510,-23773.9396113830,7417.5253248400,9803.2213055206,15899.9674756239
560840595383,32465,-2,0,4590.8111728119,6763.7549745434,12817.7925287981,-543.4701785967,-8158.3068751176,-5472.0687829103,-8409.6793237827,-21730.4722715445,-10979.3752158198,-4463.4762255598,-6433.8887136734,-1743.2537561261,-23770.7151717249,7418.5717467668,9804.5110813839,15899.9431402303
560840595383,32465,-2,0,4593.8165939272,6768.3300285488,12826.8574629312,-536.8509515250,-8158.9517630492,-5460.6798186840,-8406.7225734547,-21732.2365875838,-10981.3707180988,-4462.2837912712,-6425.7850275893,-1744.3245134465,-23773.7327605370,7414.8605992358,9800.0942074371,15894.0418072712
560840595383,32465,-2,0,4586.4551373493,6764.7162225924,12828.2932511563,-535.8045295983,-8159.8765080077,-5453.6712253140,-8406.9172566039,-21734.4389407087,-10984.2909653363,-4463.2815424106,-6425.0184626895,-1747.8044747379,-23777.4804111585,7412.5730722331,9798.1108728550,15888.3959959453
560840595383,32465,-2,0,4579.2640285269,6757.6711261319,12822.3554151067,-543.0929799952,-8159.4019678316,-5457.8082422338,-8410.4215532889,-21735.3758533641,-10982.9525186858,-4462.6001513886,-6431.0414726168,-1747.6341269823,-23775.8864428747,7415.2134624437,9799.1329593881,15891.4500878479
560840595383,32465,-2,0,4584.1676103466,6756.9532320193,12818.9971307836,-546.0010595359,-8154.5713921929,-5466.7636670955,-8411.6504906680,-21731.8228858918,-10976.8078317902,-4460.0327673589,-6436.1397375856,-1743.3267623070,-23768.7683402332,7422.3559004787,9804.0122058141,15897.9111348609
560840595383,32465,-2,0,4600.4358209988,6768.6828917566,12822.8421229797,-539.6130187038,-8151.5173002904,-5467.1652010907,-8408.2070324671,-21728.0995706640,-10973.6685660099,-4460.0327673589,-6433.2073226513,-1741.3312600281,-23762.7088272154,7426.4807497017,9804.8152738044,15899.4442646606
560840595383,32465,-2,0,4611.9951329806,6780.0353528924,12834.0120686631,-528.9297808933,-8154.1820258946,-5460.3269554762,-8408.9492619733,-21732.0419044346,-10979.0345203088,-4462.7948345377,-6429.4961751203,-1745.9063140335,-23769.8147621600,7422.2585589042,9800.4957414323,15895.8669617946
560840615440,32466,-2,0,4610.6201832397,6780.6559054304,12844.0139154516,-527.2506387317,-8160.4240543648,-5456.1412677691,-8413.2444589518,-21737.8702312128,-10987.3328895420,-4466.8588452766,-6432.5015962356,-1753.7666461811,-23777.4682434616,7412.1472028443,9793.1586202480,15886.8263630552
560840615440,32466,-2,0,4603.5872544760,6773.0632626129,12837.3825206831,-532.6287607275,-8164.2447111672,-5463.2228673200,-8418.6712517349,-21741.9707450421,-10991.1170432540,-4470.6064958981,-6441.1163255862,-1755.1902667094,-23779.3177333787,7409.2756263941,9791.0292733040,15886.0232950648
560840615440,32466,-2,0,4601.1050443241,6766.1155077270,12827.1373199582,-540.2457389386,-8161.7746687121,-5472.5919938737,-8418.5495747666,-21738.1987590270,-10986.0917844661,-4467.6740809637,-6443.5620326476,-1750.7612250658,-23774.6453377987,7414.0940343360,9796.6750846299,15893.6037701855
560840615440,32466,-2,0,4602.2366401286,6767.2227681379,12824.5821036253,-542.0465580684,-8158.0391857875,-5473.1395402307,-8415.7266691037,-21734.6214561611,-10980.6041531990,-4463.4275547725,-6438.9261401581,-1747.3786053491,-23770.4839854853,7417.9755296225,9799.3033071436,15897.3879238975
560840615440,32466,-2,0,4606.3979924421,6772.0898468671,12831.3473430589,-535.8166972951,-8157.8445026383,-5461.7870790949,-8410.3607148048,-21734.2564252564,-10980.3242961720,-4462.0161019411,-6430.1288953551,-1748.4250272758,-23770.9706933582,7419.1314608207,9799.5588287769,15895.8426264010
560840615440,32466,-2,0,4604.6458440996,6774.0123429651,12839.4266937493,-531.8621958276,-8161.7138302280,-5454.9975042677,-8412.8429249567,-21738.5394545381,-10986.1647906470,-4462.4298036330,-6430.1775661424,-1754.5697141714,-23776.9693678919,7415.2377978373,9795.8233458523,15891.2432370019
560840615440,32466,-2,0,4597.3087229154,6767.1132588665,12834.5596150202,-538.2259012660,-8169.9635286739,-5464.4761400928,-8422.3337284786,-21745.1951847002,-10992.9056946869,-4468.0026087779,-6439.6562019675,-1760.3980409496,-23783.8197812032,7410.0665266876,9792.2947137736,15888.7975299405
560840615440,32466,-2,0,4590.3001295453,6760.1898393742,12818.5347583043,-548.0330649053,-8174.4047380143,-5480.5496675959,-8427.2129749046,-21746.8013206809,-10994.8646938754,-4472.5168242993,-6448.9523223402,-1758.9135819372,-23783.6007626604,7410.5897376509,9795.5191534317,15893.1535654031
560840639475,32467,-2,0,4590.3731357263,6761.1754228169,12812.5239160738,-550.1015733652,-8171.5818323514,-5484.9543738458,-8424.9862863860,-21742.5791298833,-10990.6181676842,-4469.3775585189,-6444.8031377236,-1754.0708386017,-23779.7314350707,7413.7533388249,9798.1352082486,15896.5483528167
560840639475,32467,-2,0,4596.4204810473,6767.5391282553,12822.9637999479,-542.2169058239,-8166.4348965953,-5473.6140804068,-8418.3427239207,-21738.2961006016,-10986.3351384026,-4465.3500508705,-6433.0856456831,-1751.5886284498,-23777.3709018871,7414.3130528788,9799.8873565911,15893.5794347919
560840639475,32467,-2,0,4599.6449207054,6770.7879033070,12833.7930501203,-535.2204801507,-8165.5101516367,-5461.5315574616,-8416.0308615243,-21739.3181871347,-10988.4279822561,-4466.2139573450,-6429.4718397267,-1755.4701237363,-23778.2348083615,7412.7434199886,9798.3055560042,15887.3130709281
560840639475,32467,-2,0,4596.9071889202,6767.4174512871,12832.1260756556,-538.8099507135,-8168.9536098376,-5464.0015999167,-8420.2652200187,-21743.9784150179,-10991.2143848286,-4470.1197880251,-6437.0523148474,-1758.5850541230,-23779.4272426501,7412.2445444189,9796.9184385663,15882.8718615877
560840639475,32467,-2,0,4589.1807014376,6755.7729654275,12819.3499939915,-551.2453368666,-8172.1050433148,-5478.9435316153,-8427.4441611442,-21745.8400726318,-10991.8106019729,-4473.0400352626,-6445.1560009314,-1758.4877125484,-23775.1685487621,7413.4248110107,9797.2713017742,15884.8795315635
560840639475,32467,-2,0,4590.6894958437,6758.7540511491,12815.1399708907,-553.5206961725,-8165.9238533287,-5483.2022255033,-8423.4166534958,-21739.7927273108,-10983.5244004365,-4470.2779680838,-6441.8585550924,-1751.6372992371,-23766.9796888003,7423.6700117356,9805.1803047091,15895.7574525232
560840639475,32467,-2,0,4596.2744686854,6765.2029304653,12820.1652296786,-545.9037179613,-8160.1320296410,-5471.5699073406,-8415.8848491624,-21736.9698216479,-10978.7911663723,-4465.7880879562,-6431.1753172819,-1747.9748224934,-23765.0085219149,7426.2008926748,9806.7134345088,15897.2662469292
560840639475,32467,-2,0,4598.2334678739,6766.7117248713,12828.9624744816,-540.3674159069,-8162.8575937293,-5462.7604948407,-8416.3228862480,-21740.7418076630,-10983.5000650428,-4466.1652865577,-6427.7075236873,-1753.8031492716,-23769.6930851918,7420.7254291045,9801.3474802099,15892.5451805619
560840675668,32468,-2,0,4591.5899054086,6763.5481236974,12828.2445803691,-544.1150665283,-8168.9657775345,-5466.3743007972,-8421.0196172217,-21746.5336313507,-10991.6037511269,-4472.5046566024,-6437.3686749648,-1760.4467117369,-23776.8355232268,7416.3450582482,9798.5367422438,15888.9070392119
560840675668,32468,-2,0,4586.2969572906,6756.5151949337,12817.5491748617,-553.3260130233,-8173.1514652415,-5479.2598917327,-8427.6875150807,-21748.2127735123,-10993.6600918900,-4476.4104872826,-6446.9689877581,-1760.3493701623,-23774.0004498671,7418.5230759795,9801.3353125131,15893.8227887284
560840675668,32468,-2,0,4587.7935839998,6755.8459716084,12813.0592947340,-557.2683467939,-8169.0874545027,-5485.5019202028,-8425.4973296525,-21743.8080672624,-10988.4523176498,-4471.8110978835,-6443.4890264667,-1755.0564220443,-23768.6709986587,7424.0837134276,9807.9910426752,15904.7007096881
560840675668,32468,-2,0,4593.2082090860,6760.7495534281,12817.2206470475,-552.2552557029,-8165.1572884289,-5476.4856568570,-8419.5838289966,-21740.4011121520,-10986.6514985200,-4468.5501551350,-6434.9594709938,-1751.9779947481,-23767.0161918907,7425.7750232860,9810.8382837318,15906.3920195465
560840675668,32468,-2,0,4594.3398048906,6761.6621306898,12823.6938617573,-546.7676244357,-8168.9414421408,-5466.8731763669,-8419.3526427570,-21744.0392535020,-10990.6059999874,-4470.7890113504,-6431.7837021230,-1755.9446639124,-23773.0757049086,7420.0440380824,9805.7400187630,15899.1157368463
560840675668,32468,-2,0,4589.7039124010,6756.9775674130,12825.8840471854,-549.3106730717,-8175.3781537601,-5470.6573300788,-8425.6433420144,-21747.8355749108,-10996.4951652497,-4474.4758234878,-6438.4881030725,-1762.3935432286,-23780.0599628849,7411.7091657587,9798.9017731485,15891.9854665081
560840675668,32468,-2,0,4585.9197586891,6751.1492406348,12816.0038773652,-557.4995330336,-8178.5539226309,-5480.7321830482,-8431.0457994038,-21749.8067417961,-10997.8092765066,-4477.3230645443,-6447.1393355136,-1760.1546870131,-23780.6926831197,7415.0796177786,9802.2113866843,15896.8647129341
560840675668,32468,-2,0,4584.7638274909,6749.6526139256,12805.3814780387,-560.7118049948,-8175.7675200585,-5489.4442539735,-8430.2183960198,-21745.7548987541,-10992.8935269901,-4474.5731650623,-6448.4534467705,-1754.7278942301,-23772.4551523706,7422.4532420533,9807.4069932277,15903.4474369153
560840701890,32469,-2,0,4587.2338699460,6755.3105929482,12809.9443643473,-558.7284704127,-8173.2488068161,-5484.2121443396,-8426.9696209681,-21744.9639984606,-10989.2188825496,-4469.4383970031,-6441.0919901926,-1754.5210433841,-23768.8900172015,7424.8016075401,9809.7310233209,15903.6299523676
560840701890,32469,-2,0,4590.0811110025,6757.0140705034,12819.4473355661,-552.1822495219,-8175.9743709045,-5474.3928130035,-8426.7262670317,-21749.1131830772,-10993.2707255916,-4471.4095638884,-6438.7436247057,-1761.4687982700,-23771.7372582580,7419.8615226300,9804.4380752029,15895.1977384693
560840701890,32469,-2,0,4588.7548320488,6757.0870766844,12821.2603223927,-550.9776475365,-8181.2186482352,-5473.2368818053,-8432.6519353844,-21754.3452927111,-10999.5005863650,-4477.7854370236,-6444.5111129998,-1768.1610315226,-23777.5047465521,7415.0674500818,9800.0942074371,15889.8561195641
560840701890,32469,-2,0,4585.4695539066,6752.8527181900,12817.6343487394,-556.1245832926,-8182.1312254969,-5484.0904673714,-8437.0809770280,-21755.6594039680,-11001.4960886439,-4479.2577283392,-6452.7486437490,-1767.6378205593,-23779.3664041660,7413.9236865804,9799.6683380483,15892.1071434763
560840701890,32469,-2,0,4583.8877533196,6751.8184639600,12809.2873087189,-562.0015808580,-8178.0793824548,-5493.3865877441,-8435.4261702601,-21751.7292378941,-10996.6533453084,-4478.5520019234,-6453.2596870155,-1761.3349536050,-23773.8787728989,7418.9611130651,9804.4015721124,15899.8944694430
560840701890,32469,-2,0,4586.1509449287,6754.9698974372,12808.2652221858,-559.2030105888,-8175.5850046061,-5490.9408806827,-8430.8997870419,-21748.4804628424,-10994.6821784231,-4479.3185668233,-6446.8351430930,-1758.9500850277,-23771.1288734169,7418.6325852509,9804.6692614425,15902.1698287489
560840701890,32469,-2,0,4585.7615786304,6755.3105929482,12814.7384368956,-555.7838877815,-8179.5881768609,-5482.9953746573,-8430.5469238341,-21751.2790331117,-11000.0724681157,-4480.5231688088,-6443.0631570779,-1765.8248337326,-23776.6530077745,7412.6460784140,9798.0378666740,15894.6258567187
560840701890,32469,-2,0,4582.8169959992,6754.5561957452,12817.9020380696,-554.8469751262,-8184.6742741329,-5481.6569280068,-8434.1607297905,-21756.3042918996,-11005.4992608987,-4485.6214337776,-6447.4070248437,-1771.8721790536,-23785.1095570664,7406.5013915184,9792.2217075927,15888.8583684246
560840776795,32470,-2,0,4583.5592255054,6753.9721462977,12814.9574554384,-556.0272417180,-8185.7571991501,-5489.1765646434,-8436.6429399424,-21754.6008143444,-11005.4262547178,-4488.3713332596,-6454.8171522089,-1771.4949804521,-23786.6061837757,7405.4184665012,9793.3654710940,15891.7907833589
560840776795,32470,-2,0,4584.8733367623,6753.8869724199,12807.5716634669,-558.1930917525,-8181.1334743574,-5498.6673681653,-8434.9516300840,-21748.6751459916,-10999.5370894555,-4484.6966888190,-6453.6733887075,-1763.8901699378,-23779.5854227088,7411.2589609762,9796.9792770505,15899.9066371398
560840776795,32470,-2,0,4589.1685337408,6759.9829885282,12811.1246309392,-554.1412487104,-8175.3173152760,-5492.3279981205,-8428.1377198631,-21745.3411970621,-10994.1467997629,-4478.4424926520,-6445.2655102028,-1761.3349536050,-23774.4263192559,7414.7145868739,9798.9504439358,15903.6786231549
560840776795,32470,-2,0,4593.6949169589,6764.4363655654,12820.0557204072,-545.1006499710,-8173.0784590606,-5477.1062093950,-8423.4774919799,-21745.7062279668,-10994.7551846040,-4476.3496487985,-6438.4881030725,-1762.5760586809,-23774.3654807718,7413.6925003408,9797.0279478377,15900.0769848953
560840776795,32470,-2,0,4595.0333636095,6765.3976136145,12827.3685061978,-543.6405263522,-8175.1713029142,-5469.3675542156,-8426.4342423079,-21749.8432448866,-10997.6997672352,-4476.9215305492,-6438.5489415566,-1768.0150191608,-23777.8941128504,7411.1494517048,9793.0126078862,15895.6479432518
560840776795,32470,-2,0,4592.1131163720,6762.0880000786,12825.1418176792,-547.3151707928,-8175.9987062981,-5475.6339180794,-8429.9020359024,-21751.7779086814,-10998.6366798906,-4478.6493434980,-6446.6161245502,-1769.3656335081,-23779.7192673739,7410.3707191081,9792.2095398959,15896.8403775404
560840776795,32470,-2,0,4588.6331550806,6756.2596733004,12812.2683944405,-557.2440114003,-8173.4799930558,-5485.9156218948,-8431.4473333990,-21749.0158415026,-10994.8768615723,-4478.0166232632,-6449.5242040909,-1764.2308654488,-23776.9815355887,7415.8705180721,9797.8918543122,15902.5956981377
560840776795,32470,-2,0,4588.5358135060,6757.6102876478,12808.5815823032,-559.4098614348,-8170.5354104246,-5484.2608151269,-8427.1278010268,-21745.8279049350,-10990.2288013859,-4474.3298111259,-6444.5232806966,-1760.4710471305,-23774.1221268353,7417.8903557447,9800.6782568846,15905.8566408862
560840785466,32471,-2,0,4589.5457323423,6759.7883053791,12816.3202374826,-554.1412487104,-8171.0099506007,-5473.3950618640,-8424.2440568798,-21747.2636931601,-10991.6159188237,-4472.1152903041,-6436.4195946126,-1762.5882263777,-23776.9328648014,7413.5586556757,9797.2713017742,15900.5393573746
560840785466,32471,-2,0,4588.2559564791,6756.2961763909,12818.1453920060,-553.6788762312,-8178.7729411737,-5469.8542620885,-8429.5126696041,-21753.5665601144,-10998.7826922524,-4478.0652940505,-6439.6927050579,-1769.2439565399,-23783.5520918731,7405.5158080758,9791.9418505658,15889.3085732070
560840785466,32471,-2,0,4584.7394920973,6752.7553766154,12814.8844492575,-557.0371605543,-8183.8590384457,-5479.6614257278,-8435.3896671696,-21757.4115523105,-11002.2991566343,-4481.8859508529,-6448.6116268292,-1772.4440608043,-23784.7688615554,7402.7415732002,9789.8855098027,15886.2666490013
560840785466,32471,-2,0,4585.0801876083,6751.3317560871,12807.4256511050,-562.1110901295,-8180.2574001861,-5489.8092848781,-8436.2170705536,-21753.5300570239,-10997.9431211716,-4477.6515923585,-6452.0550850300,-1768.2827084909,-23780.4006583960,7407.5234780516,9794.5579053827,15890.5131751925
560840785466,32471,-2,0,4590.5556511786,6754.3371772024,12807.7906820097,-559.0448305301,-8174.3438995302,-5489.0183845847,-8429.6100111787,-21747.9815872727,-10992.1026266966,-4472.7236751452,-6445.6913795916,-1762.9045864951,-23773.0757049086,7415.5784933484,9799.3884810214,15897.8016255895
560840785466,32471,-2,0,4596.3474748663,6764.4607009591,12819.2404847201,-548.0574002990,-8169.4524854074,-5473.8817697369,-8422.7230947769,-21743.7593964751,-10989.5960811511,-4467.9782733843,-6435.7747066810,-1762.4057109254,-23772.0657860723,7415.2621332310,9799.1937978722,15897.4852654721
560840785466,32471,-2,0,4597.1627105535,6763.5967944847,12828.8407975134,-544.6261097949,-8172.9567820924,-5467.2503749684,-8424.8281063273,-21747.9329164854,-10994.4144890930,-4470.3874773552,-6433.4871796782,-1766.6765725102,-23774.8886917352,7410.4315575923,9792.9274340084,15889.2112316325
560840785466,32471,-2,0,4593.2690475701,6759.8613115600,12826.2004073028,-547.3760092769,-8178.6390965087,-5473.4072295608,-8428.9529555503,-21750.2934496690,-10998.7461891620,-4476.7511827936,-6442.8928093224,-1769.3169627208,-23780.9360370562,7407.6451550198,9791.9053474753,15890.0508027132
560840794475,32472,-2,0,4591.5777377117,6756.7950519606,12816.5392560254,-553.7397147153,-8179.2718167435,-5486.9985469120,-8431.2404825530,-21746.8621591650,-10997.4320779051,-4479.0022067059,-6448.4412790736,-1764.7784118059,-23780.0477951881,7408.8862600957,9794.4727315049,15895.3315831344
560840794475,32472,-2,0,4593.2690475701,6758.4255233349,12814.6654307146,-553.7883855026,-8176.1082155695,-5490.4298374161,-8428.1012167727,-21741.2893540201,-10993.7574334646,-4477.3839030284,-6443.7080450095,-1759.6679791402,-23776.7990201364,7412.5609045363,9797.4659849234,15901.0260652475
560840794475,32472,-2,0,4597.6250830327,6765.3367751303,12822.9637999479,-544.8451283377,-8175.9013647235,-5481.6325926131,-8422.6500885960,-21740.7904784503,-10995.0958801151,-4478.3816541679,-6437.3443395711,-1761.3106182113,-23778.7336839312,7410.6019053478,9795.4096441603,15897.9111348609
560840794475,32472,-2,0,4599.0000327737,6768.6098855757,12830.2157472544,-539.1384785277,-8178.7607734769,-5474.1494590670,-8423.5139950704,-21744.2461043480,-11000.8877038028,-4481.1437213467,-6436.2979176443,-1766.5427278452,-23786.8373700153,7401.8533313321,9788.9485971473,15889.5884302340
560840794475,32472,-2,0,4594.1694571350,6763.3412728514,12829.3883438704,-542.0100549780,-8182.5449271889,-5478.9922024026,-8428.6609308265,-21750.3421204563,-11006.8133721556,-4485.0617197237,-6444.8761439045,-1773.2836318851,-23794.0406465345,7394.4797070574,9783.1446057628,15881.7037626927
560840794475,32472,-2,0,4591.6264084990,6761.0050750614,12819.8975403485,-549.3715115558,-8182.2650701619,-5491.2207377096,-8432.7736123527,-21751.7779086814,-11005.6939440479,-4488.0428054453,-6453.5030409520,-1772.8212594058,-23794.9532237962,7393.5184590084,9782.8160779485,15883.9669543018
560840794475,32472,-2,0,4594.9968605190,6760.4575287043,12811.2706433010,-551.5130261967,-8177.7143515502,-5494.9927237247,-8431.7271904259,-21747.5070470966,-11000.6200144727,-4484.7940303936,-6451.2885201302,-1767.7229944370,-23789.8792942210,7399.7969905690,9787.1234426239,15890.0629704101
560840794475,32472,-2,0,4598.4646541135,6766.4197001476,12819.8123664708,-546.6702828611,-8173.9423655350,-5483.0440454446,-8426.1300498873,-21747.3366993411,-10997.0670470004,-4480.0851317231,-6441.2014994640,-1767.5769820751,-23786.1681466900,7402.2913684177,9789.4839758075,15891.1093923368
560840827838,32473,-2,0,4600.5574979671,6767.9893330377,12829.9480579243,-541.0244715353,-8174.2343902588,-5470.5113177170,-8425.0106217796,-21750.0014249453,-10998.1378043208,-4479.8296100898,-6437.7702089599,-1771.5679866331,-23785.9977989345,7403.1066041048,9789.2406218711,15888.2864866739
560840827838,32473,-2,0,4596.9315243138,6764.0835023576,12830.8119643987,-542.1195642494,-8175.9987062981,-5471.0345286803,-8429.4031603327,-21753.3353738748,-11000.7295237441,-4482.6160126623,-6444.3285975475,-1775.3034695577,-23784.9148739173,7404.4815538458,9788.3767153966,15886.0476304585
560840827838,32473,-2,0,4596.2014625045,6759.2650944157,12824.0588926620,-550.6004489349,-8176.5340849583,-5483.2265608969,-8434.3067421524,-21755.0510191268,-10997.8944503844,-4481.0950505594,-6451.6292156412,-1773.6364950930,-23781.5930926846,7408.5942353720,9790.6034039152,15889.2599024197
560840827838,32473,-2,0,4596.4813195314,6758.9000635110,12817.1598085634,-554.7739689452,-8172.9811174860,-5488.2639873816,-8431.9218735751,-21750.9870083879,-10992.2364713617,-4478.7588527694,-6450.1569243257,-1767.9298452830,-23774.8643563415,7415.9435242530,9796.9792770505,15896.3901727580
560840827838,32473,-2,0,4599.9977839132,6764.2903532036,12818.4252490329,-549.4931885241,-8168.1018710600,-5480.0021212389,-8426.8114409094,-21748.6143075075,-10988.0507836546,-4473.4780723483,-6440.9459778307,-1766.0681876691,-23771.5304074120,7418.1093742875,9799.1329593881,15891.6812740875
560840827838,32473,-2,0,4602.3218140064,6769.1087611454,12832.1260756556,-542.0830611589,-8167.4691508252,-5466.9461825478,-8425.6190066208,-21749.7702387056,-10989.0607024909,-4470.6795020790,-6434.8256263288,-1768.5382301242,-23774.0491206544,7413.7046680376,9794.0955329034,15889.9777965323
560840827838,32473,-2,0,4602.2488078255,6767.6729729203,12836.5186142087,-540.6716083274,-8168.1870449378,-5464.6464878483,-8427.2981487823,-21751.3885423831,-10990.0097828431,-4470.3266388711,-6438.5489415566,-1769.6089874446,-23772.6255001261,7412.5365691426,9792.9517694021,15887.0332139011
560840827838,32473,-2,0,4600.3384794243,6765.7869799128,12830.1305733766,-546.1349042009,-8168.2843865124,-5475.0011978446,-8430.0115451739,-21749.3322016200,-10988.0386159578,-4471.4704023725,-6445.0343239632,-1766.9320941435,-23770.9220225709,7415.1526239596,9797.2956371678,15893.6524409728
560840855358,32474,-2,0,4598.2699709644,6761.4674475406,12821.1386454245,-552.7419635758,-8164.2447111672,-5483.1778901096,-8430.4252468658,-21746.9473330427,-10982.0642768177,-4468.6839998000,-6444.3285975475,-1762.4665494095,-23767.3812227954,7418.5352436763,9800.5687476132,15900.9165559761
560840855358,32474,-2,0,4598.1604616930,6762.5138694674,12820.6276021579,-551.3791815316,-8162.7967552452,-5479.5884195469,-8427.9552044108,-21746.7648175904,-10980.0566068419,-4466.3843051005,-6437.4295134489,-1761.3471213018,-23766.9188503161,7418.9489453683,9801.6273372368,15900.2473326509
560840855358,32474,-2,0,4599.2190513166,6765.6774706414,12827.9282202517,-544.6991159758,-8164.4637297100,-5467.5180642985,-8424.9497832955,-21747.7990718203,-10981.6384074289,-4466.2017896482,-6431.0779757073,-1764.7419087154,-23770.1919607615,7417.7078402924,9800.4227352513,15895.2220738630
560840855358,32474,-2,0,4596.5786611060,6763.0857512181,12829.5951947164,-544.9546376091,-8166.9337721650,-5464.6586555451,-8425.8501928604,-21747.7869041235,-10983.3175495905,-4465.2405415991,-6431.9540498785,-1766.2750385151,-23771.8589352263,7417.8416849574,9800.2037167085,15895.5384339804
560840855358,32474,-2,0,4593.0378613305,6758.3160140635,12823.9980541778,-550.4057657858,-8165.6926670891,-5472.2269629690,-8427.3954903569,-21746.5457990476,-10982.4779785097,-4463.6222379217,-6436.2979176443,-1762.1136862016,-23769.0725326538,7422.1490496327,9803.9513673300,15900.2716680445
560840855358,32474,-2,0,4591.8210916482,6757.4642752859,12815.0426293162,-554.9686520944,-8161.3001285360,-5477.8362712044,-8423.4774919799,-21740.0604166409,-10976.3211239173,-4462.2837912712,-6434.3875892431,-1752.8175658289,-23764.4974786484,7428.6344320394,9808.8914522401,15911.4537814248
560840855358,32474,-2,0,4592.7823396972,6758.0483247334,12812.9254500690,-554.4576088278,-8161.0202715091,-5475.8042658349,-8419.9610275981,-21738.3204359953,-10977.3432104504,-4460.7506614715,-6428.8634548855,-1753.3286090955,-23764.3027954992,7428.3180719220,9807.5165024991,15911.7214707549
560840855358,32474,-2,0,4594.0356124700,6761.0294104550,12823.0124707352,-550.7586289936,-8164.7192513432,-5466.1066114671,-8419.5229905125,-21741.9342419517,-10982.1251153018,-4464.1454488851,-6426.7219402447,-1758.7067310912,-23769.9729422187,7421.9056956963,9801.4448217845,15904.7493804754
560840886770,32475,-2,0,4593.7070846558,6760.3480194329,12825.1661530728,-550.5274427540,-8170.1582118231,-5466.4959777654,-8424.1467153052,-21745.4750417271,-10988.8173485544,-4471.3852284947,-6431.5768512770,-1765.1799458010,-23774.0369529576,7415.5419902579,9796.2248798474,15895.6722786454
560840886770,32475,-2,0,4589.9959371248,6754.4588541706,12818.5225906075,-557.1953406130,-8173.3704837844,-5477.4347372092,-8429.0989679121,-21750.2447788817,-10992.0904589998,-4475.7534316542,-6442.7102938700,-1769.2561242367,-23775.8986105715,7413.1571216806,9796.1883767570,15895.1125645916
560840886770,32475,-2,0,4590.6651604500,6753.5219415153,12812.7672700103,-561.4662021978,-8170.6814227865,-5486.2806527995,-8430.7172715896,-21747.5678855807,-10989.3770626083,-4475.1450468130,-6445.7643857726,-1767.6378205593,-23774.3046422877,7415.4446486833,9798.7557607866,15901.5614439077
560840886770,32475,-2,0,4593.3907245384,6756.5760334178,12811.6721772962,-559.6897184617,-8168.9536098376,-5484.2729828237,-8427.3589872665,-21744.1852658639,-10987.4789019039,-4475.0477052384,-6441.4813564909,-1768.7815840606,-23772.4673200674,7417.7930141701,9798.2933883073,15901.8534686315
560840886770,32475,-2,0,4597.0410335852,6762.1853416532,12820.6397698547,-552.5716158203,-8170.6449196960,-5472.8596832038,-8424.6577585718,-21744.6476383432,-10990.4599876255,-4474.5731650623,-6434.8986325097,-1773.4053088533,-23776.4096538380,7414.5199037248,9793.2802972163,15896.6821974817
560840886770,32475,-2,0,4596.7003380742,6762.6720495261,12828.7799590293,-549.1889961035,-8173.5164961462,-5467.2017041811,-8426.7506024253,-21749.8797479771,-10994.0737935820,-4474.9503636638,-6437.4781842362,-1777.6761704382,-23780.6805154229,7409.6406572988,9788.3888830935,15893.2144038872
560840886770,32475,-2,0,4595.6904192379,6760.0559947092,12825.0201407110,-552.5716158203,-8173.7963531732,-5473.7114219814,-8431.2161471593,-21750.4029589404,-10995.7894388340,-4477.4447415126,-6445.1803363251,-1776.4228976654,-23779.7801058580,7409.9448497193,9789.7760005313,15894.4311735695
560840886770,32475,-2,0,4596.9071889202,6759.3867713839,12817.2449824411,-556.0880802021,-8169.0509514122,-5482.1436358797,-8429.5126696041,-21746.2294389302,-10990.6181676842,-4475.4492392336,-6445.8130565599,-1770.8622602173,-23773.1243756959,7416.6614183656,9795.5799919158,15902.9850644360
560840919052,32476,-2,0,4600.9103611749,6763.3047697609,12819.3743293851,-552.5107773362,-8163.9526864434,-5479.1503824613,-8423.3314796181,-21738.6854668999,-10983.9989406126,-4469.8886017855,-6436.5047684903,-1764.3768778107,-23769.2550481062,7421.3824847329,9800.1307105276,15909.6529622950
560840919052,32476,-2,0,4605.7531045105,6770.4228724023,12829.2910022958,-542.9226322397,-8163.0887799690,-5466.4594746749,-8417.5883267176,-21736.2154244449,-10984.0354437030,-4468.0634472621,-6429.5326782108,-1764.8514179868,-23770.3501408202,7419.7885164491,9800.3862321609,15906.5258642115
560840919052,32476,-2,0,4604.0617946521,6770.5445493706,12832.8804728586,-540.7811175988,-8168.6615851139,-5462.0912715155,-8420.3017231091,-21742.1897635850,-10991.0075339826,-4472.7236751452,-6432.6476085975,-1771.8843467505,-23776.0811260238,7412.7069168981,9795.2514641016,15898.7872090321
560840919052,32476,-2,0,4597.9657785438,6763.1709250959,12826.9061337185,-548.6171143528,-8174.7819366158,-5473.4437326513,-8428.5149184646,-21747.4097055220,-10994.9133646627,-4476.9093628523,-6441.8098843051,-1775.3278049514,-23779.9017828262,7407.8520058658,9793.0004401893,15896.1711542152
560840919052,32476,-2,0,4592.9526874527,6756.1258286354,12813.3513194578,-558.5946257476,-8175.1834706110,-5487.1932300612,-8433.4793387684,-21746.7891529840,-10993.6600918900,-4478.3208156838,-6449.1226700957,-1773.1254518264,-23774.8400209479,7413.0111093187,9795.2514641016,15902.3645118981
560840919052,32476,-2,0,4592.4294764894,6756.7463811733,12809.0439547824,-560.1399232441,-8170.7179258770,-5488.0936396261,-8429.7438558437,-21742.0680866167,-10986.5298215517,-4474.8895251797,-6443.1848340461,-1768.1610315226,-23770.8246809963,7420.1048765665,9799.6318349579,15909.4947822363
560840919052,32476,-2,0,4594.1937925287,6759.7518022886,12817.1841439570,-555.2241737277,-8169.8418517057,-5475.0863717224,-8424.9254479019,-21742.2749374627,-10986.6758339136,-4470.8255144409,-6434.1685707003,-1768.3070438845,-23769.3280542871,7417.7078402924,9795.2879671921,15906.8178889353
560840919052,32476,-2,0,4594.9603574285,6761.5769568120,12824.3630850825,-550.4301011794,-8171.8981924688,-5467.5789027826,-8425.8015220731,-21745.1465139129,-10990.6303353811,-4473.4902400451,-6434.2172414876,-1772.9551040709,-23775.7282628160,7413.8263450059,9793.0004401893,15903.7151262454
560840949080,32477,-2,0,4591.5412346213,6758.2673432762,12820.5667636738,-552.8879759377,-8174.2952287429,-5472.0931183039,-8429.4396634232,-21747.1176807982,-10993.2828932885,-4476.2766426175,-6441.9437289702,-1774.1962091468,-23777.4925788553,7410.5897376509,9791.4308072992,15901.6222823919
560840949080,32477,-2,0,4589.1076952567,6756.9288966257,12814.5680891401,-558.1322532683,-8173.5164961462,-5483.8349457381,-8432.1165567242,-21746.6796437126,-10991.3360617968,-4475.7290962605,-6446.0077397090,-1773.1984580073,-23774.6210024051,7414.8849346294,9794.8620978033,15906.3920195465
560840949080,32477,-2,0,4592.8675135750,6761.8689815358,12812.0128728072,-556.9884897670,-8168.9292744440,-5486.5483421296,-8429.7195204501,-21742.7494776388,-10987.2355479675,-4475.4370715368,-6443.6958773127,-1769.5603166573,-23770.7030040281,7418.0363681066,9797.2713017742,15909.8963162315
560840949080,32477,-2,0,4595.6904192379,6765.5801290668,12817.7316903140,-551.4400200157,-8169.5133238915,-5479.7587673024,-8429.6951850565,-21746.1807681429,-10990.2896398700,-4478.4789957425,-6439.1938294882,-1774.6464139293,-23775.0955425812,7414.7510899644,9794.2415452653,15904.0071509692
560840949080,32477,-2,0,4596.2744686854,6766.3466939666,12826.3707550583,-547.4976862451,-8175.0739613396,-5475.5365765048,-8432.8831216241,-21753.0798522415,-10996.9575377290,-4482.6768511464,-6440.2889222023,-1783.2854786736,-23780.8265277848,7407.3287949024,9787.1112749270,15895.9278002787
560840949080,32477,-2,0,4595.8851023871,6764.9230734384,12827.2955000169,-548.9456421670,-8177.5075007042,-5480.6470091705,-8437.0079708470,-21756.3651303837,-10998.8435307365,-4486.3028247997,-6448.4412790736,-1785.7798565223,-23782.6030115209,7405.6983235281,9786.2473684526,15895.5749370709
560840949080,32477,-2,0,4596.3596425632,6761.6134599025,12818.8267830281,-553.9100624708,-8171.3871492022,-5487.8624533865,-8436.4360890964,-21751.9239210433,-10993.3072286821,-4483.0662174448,-6451.1668431620,-1777.2381333526,-23773.4772389037,7414.6902514803,9793.9860236320,15905.5159453752
560840949080,32477,-2,0,4598.5498279913,6762.1731739564,12816.2715666953,-556.7816389210,-8162.5412336119,-5485.8304480170,-8428.8556139757,-21742.6034652769,-10981.2125380401,-4472.0909549105,-6441.9802320607,-1766.5305601484,-23763.0616904233,7426.6754328509,9804.5110813839,15917.8783253473
560840976648,32478,5,0,4596.2014625045,6762.7693911007,12818.0845535219,-553.7275470184,-8160.7769175726,-5475.6582534731,-8423.9033613687,-21741.5448756533,-10980.9326810132,-4470.6795020790,-6435.6530297127,-1767.7716652243,-23763.6335721740,7425.0327937798,9802.6494237699,15915.4812890732
560840976648,32478,5,0,4591.1275329293,6763.1830927927,12819.0823046614,-552.9609821186,-8172.0685402243,-5473.7600927687,-8430.9484578292,-21750.8044929356,-10994.4144890930,-4481.1193859531,-6440.3740960800,-1779.1362940569,-23778.0157898187,7412.4635629617,9790.6155716121,15903.2040829788
560840976648,32478,5,0,4586.4551373493,6761.4917829343,12816.4054113603,-557.8158931510,-8184.7107772233,-5484.2851505205,-8444.7101229360,-21761.7919231667,-11007.8597940823,-4492.3380024238,-6453.7220594948,-1789.7830287770,-23789.1857355021,7400.0038414150,9780.2973647062,15895.5384339804
560840976648,32478,5,0,4585.3600446352,6757.3912691050,12807.5959988605,-562.1840963104,-8189.1154834732,-5499.3974299746,-8450.5749528046,-21761.9501032254,-11010.0621472073,-4496.0734853485,-6463.4197138627,-1788.3107374614,-23791.5827717763,7400.2836984419,9781.9156683836,15899.0183952717
560840976648,32478,5,0,4589.9959371248,6763.3047697609,12803.6780004835,-562.0015808580,-8184.3092432282,-5503.5952853785,-8445.4766878358,-21754.2722865301,-11003.4794232261,-4492.4840147857,-6457.8712441114,-1780.3895668297,-23784.6958553745,7406.2945406725,9787.2937903794,15900.7583759174
560840976648,32478,5,0,4593.4150599320,6766.9915818983,12810.5405814917,-555.6013723292,-8180.1235555211,-5492.8268736902,-8438.0178896833,-21750.7801575420,-10999.9872942379,-4486.5218433425,-6446.5552860661,-1778.6739215777,-23783.1627255748,7408.9470985799,9789.1067772060,15904.4938588421
560840976648,32478,5,0,4592.8188427877,6766.6752217809,12819.5811802311,-549.3715115558,-8180.1600586116,-5480.5253322022,-8434.7569469348,-21753.8220817477,-11000.3888282331,-4484.5263410635,-6441.3110087354,-1781.8496904484,-23786.4723391106,7403.8610013079,9785.7363251861,15897.7651224990
560840976648,32478,5,0,4591.3830545626,6765.6896383382,12821.6131856005,-549.5540270082,-8180.8171142400,-5479.5275810628,-8436.5942691551,-21754.8928390681,-11002.2018150597,-4485.7552784426,-6445.0586593569,-1782.4702429864,-23786.2776559615,7401.7438220607,9784.4587170196,15892.9102114666
560841010368,32479,5,0,4588.1586149045,6760.5548702789,12815.4319956145,-555.3093476054,-8181.1091389638,-5489.4442539735,-8439.9282180846,-21755.4282177283,-11000.1576419934,-4485.6336014744,-6450.6192968049,-1780.8397716121,-23784.3429921666,7403.0822687112,9789.2041187806,15896.5605205135
560841010368,32479,5,0,4588.8521736234,6759.4962806553,12809.3724825967,-560.1155878505,-8176.8626127725,-5496.1851580134,-8438.9304669451,-21752.1551072829,-10995.0715447214,-4484.1613101588,-6450.6557998954,-1776.5932454209,-23778.1861375742,7409.2634586972,9793.2924649131,15902.4740211695
560841010368,32479,5,0,4592.5389857608,6765.2272658589,12812.5117483770,-553.5937023534,-8174.5507503762,-5490.0526388146,-8433.8687050667,-21749.2105246518,-10993.3315640758,-4484.1369747652,-6443.8053865841,-1773.9041844231,-23775.4605734859,7412.0376935729,9794.8255947128,15904.1653310279
560841010368,32479,5,0,4594.7535065825,6767.3201097125,12820.3842482214,-547.5341893356,-8175.6945138775,-5478.8948608280,-8433.3333264065,-21752.3011196448,-10996.5560037338,-4484.3924963985,-6439.2181648818,-1779.0511201792,-23779.1838887137,7408.1075274991,9791.0049379104,15897.2662469292
560841010368,32479,5,0,4594.0964509541,6766.8212341427,12824.6551098063,-546.8041275262,-8180.3425740639,-5479.9899535420,-8436.6186045487,-21754.8685036745,-11000.6443498663,-4486.3393278901,-6443.8175542809,-1784.2345590257,-23782.3109867972,7405.0047648092,9787.3546288635,15892.7641991048
560841010368,32479,5,0,4591.1031975357,6763.3047697609,12818.4860875171,-551.5738646808,-8179.7950277069,-5488.4099997435,-8438.8331253705,-21756.0609379631,-10999.9142880570,-4486.9720481249,-6451.2641847366,-1781.4116533628,-23779.2568948946,7405.3211249266,9787.3424611667,15892.3261620191
560841010368,32479,5,0,4594.2302956191,6765.6287998541,12814.2152259322,-553.0704913900,-8173.2974776034,-5492.6930290252,-8434.3310775460,-21748.1154319377,-10990.7276769556,-4479.4889145788,-6447.6138756897,-1771.7018312981,-23770.9828610550,7414.1913759105,9797.0157801409,15904.7615481722
560841010368,32479,5,0,4600.4479886957,6772.6738963146,12818.9727953900,-548.4711019909,-8167.3353061602,-5485.0760508140,-8428.6609308265,-21744.3921167099,-10986.1647906470,-4474.5001588814,-6439.1694940946,-1768.9519318161,-23770.4474823948,7419.3139762730,9802.0897097161,15911.2347628820
560841046102,32480,5,0,4599.3772313753,6773.0632626129,12825.2026561633,-543.3485016285,-8169.6836716470,-5474.9281916637,-8428.4540799805,-21748.3952889647,-10989.2797210337,-4476.8363566714,-6436.0058929206,-1774.1110352691,-23774.4506546496,7415.0796177786,9798.6219161215,15905.1509144705
560841046102,32480,5,0,4595.6660838443,6769.9970030135,12826.2490780901,-545.2588300297,-8173.4434899653,-5474.1859621575,-8434.3919160301,-21755.0875222173,-10996.3978236751,-4480.4744980215,-6441.7003750337,-1780.2192190742,-23781.4227449291,7408.9592662767,9793.7548373924,15901.0138975507
560841046102,32480,5,0,4589.4970615550,6762.9762419467,12820.0800558009,-554.6401242802,-8178.7364380833,-5485.3559078410,-8440.9016338304,-21757.1560306772,-11000.8025299250,-4485.0738874205,-6451.9455757586,-1782.6162553483,-23785.3164079124,7406.6960746676,9792.6719123751,15902.0846548711
560841046102,32480,5,0,4586.5159758334,6758.2673432762,12806.5739123274,-561.1255066868,-8178.1888917262,-5496.8057105513,-8440.3297520797,-21754.0045972000,-10997.6875995384,-4486.4731725552,-6455.0118353580,-1776.8852701447,-23782.8341977606,7410.0543589907,9796.2005444538,15907.9494847398
560841046102,32480,5,0,4589.8620924597,6761.5647891152,12806.6712539020,-559.1543398015,-8175.9500355108,-5492.7538675093,-8434.7326115412,-21749.9405864612,-10996.2274759196,-4482.9688758702,-6447.1880063009,-1773.1862903105,-23780.6075092420,7412.8894323505,9798.7435930898,15909.3731052681
560841046102,32480,5,0,4592.1252840688,6764.7527256828,12816.5027529349,-551.8050509204,-8175.3173152760,-5479.1868855517,-8428.6852662202,-21748.6264752043,-10996.8480284576,-4480.2676471755,-6437.8797182313,-1774.8654324721,-23780.8630308752,7412.5487368394,9798.4880714565,15907.7791369843
560841046102,32480,5,0,4591.0910298388,6764.5945456241,12821.4550055419,-548.7266236242,-8176.3394018092,-5471.4969011596,-8428.3202353155,-21750.1474373072,-10998.6245121937,-4478.6371758012,-6437.6363642949,-1774.9627740467,-23777.9184482441,7412.7920907759,9798.8531023612,15904.7007096881
560841046102,32480,5,0,4591.3222160785,6764.4850363527,12820.6154344611,-550.1502441525,-8172.0198694370,-5476.0354520746,-8428.7217693106,-21747.0933454046,-10995.4487433229,-4477.3473999380,-6441.5178595814,-1772.1277006869,-23775.2537226399,7418.8881068842,9805.2533108900,15911.6362968771
560841078002,32481,5,0,4591.8940978291,6762.5138694674,12815.0669647098,-555.5283661482,-8168.1383741505,-5483.8349457381,-8429.6951850565,-21743.8567380497,-10987.5884111753,-4474.1229602799,-6441.7855489115,-1765.3746289502,-23768.5979924777,7426.9917929683,9811.5075070570,15922.0031745703
560841078002,32481,5,0,4593.9991093795,6764.5702102305,12811.3801525725,-555.9542355370,-8164.3663881354,-5481.3284001926,-8426.5559192761,-21740.6079629980,-10982.6483262652,-4471.2392161329,-6435.6530297127,-1762.8315803142,-23765.1301988832,7432.3455795704,9816.6787782068,15926.6390670598
560841078002,32481,5,0,4595.7755931157,6767.0889234728,12819.0214661773,-550.7951320841,-8164.0135249275,-5470.0489452377,-8424.8646094177,-21742.7129745483,-10984.4004746077,-4469.8764340887,-6430.2262369297,-1765.7031567644,-23767.3082166145,7431.0679714040,9813.1866492186,15919.5331321152
560841078002,32481,5,0,4593.0500290273,6765.1907627685,12825.0201407110,-549.6635362796,-8168.5642435393,-5465.2670403863,-8427.3833226601,-21747.8964133949,-10988.9390255227,-4470.8011790472,-6430.9197956486,-1771.9451852346,-23772.6985063070,7423.9985395498,9808.1735581276,15912.5002033516
560841078002,32481,5,0,4590.5799865723,6760.6643795503,12821.9295457179,-554.2142548914,-8171.2289691435,-5475.3905641430,-8434.3432452428,-21751.8995856497,-10993.2098871075,-4475.9359471065,-6441.8585550924,-1775.8631836116,-23776.4826600190,7419.0949577302,9805.1681370123,15910.3100179234
560841078002,32481,5,0,4590.5556511786,6758.1821693984,12810.7596000345,-560.1520909410,-8172.1293787084,-5489.5415955480,-8435.7425303775,-21749.2470277423,-10991.7862665792,-4479.0752128868,-6447.4800310246,-1772.5779054694,-23773.6962574465,7421.9908695740,9806.5430867533,15916.7467295428
560841078002,32481,5,0,4591.9671040101,6758.8513927237,12808.2652221858,-561.5027052883,-8169.5619946788,-5490.8070360176,-8433.3211587097,-21747.3245316442,-10991.0927078603,-4478.1626356251,-6442.4182691463,-1769.4386396890,-23772.7593447912,7423.8768625816,9807.2123100785,15923.1834411621
560841078002,32481,5,0,4592.9283520591,6763.4994529101,12815.5415048859,-556.1610863830,-8172.7499312464,-5482.9832069605,-8433.4793387684,-21751.2181946276,-10995.2783955674,-4481.0463797721,-6438.9869786422,-1774.5125692642,-23778.0644606060,7419.2409700921,9801.7733495987,15917.6958098950
560841133322,32482,5,0,4593.0500290273,6762.3313540151,12820.4085836151,-554.5549504024,-8176.5219172615,-5475.8164335318,-8435.9980520107,-21755.2822053664,-10999.9264557538,-4484.8183657873,-6441.0311517085,-1779.4161510839,-23782.1041359512,7415.8096795880,9796.9062708695,15911.3442721534
560841133322,32482,5,0,4591.4682284403,6760.5061994916,12821.2846577863,-554.5671180992,-8174.8792781904,-5479.0530408867,-8438.3464174976,-21754.8320005840,-11000.3766605362,-4484.5141733667,-6446.1902551614,-1780.4990761011,-23782.2136452226,7414.0088604582,9794.6065761700,15911.5511229994
560841133322,32482,5,0,4592.6971658195,6757.9388154620,12814.9331200448,-559.5315384030,-8169.8418517057,-5484.9787092394,-8437.2999955708,-21750.7436544515,-10994.1711351565,-4481.5209199482,-6450.2664335971,-1776.8487670542,-23775.9716167524,7418.6447529477,9798.3055560042,15917.4402882617
560841133322,32482,5,0,4596.3353071695,6762.0271615945,12812.5604191643,-558.0592470874,-8162.4195566437,-5485.3072370537,-8431.5933457608,-21745.1951847002,-10986.2621322216,-4476.7146797032,-6445.3871871711,-1770.3147138603,-23768.7561725364,7423.7916887038,9801.5421633591,15919.2654427851
560841133322,32482,5,0,4602.2001370382,6769.0479226613,12824.0102218747,-550.2962565144,-8159.3167939539,-5471.9592736389,-8426.4585777016,-21744.9761661574,-10984.0354437030,-4472.4316504215,-6435.3366695953,-1770.4485585254,-23767.8922660620,7422.4410743565,9800.4105675545,15916.2600216699
560841133322,32482,5,0,4603.3073974491,6770.5567170674,12831.8948894159,-545.3196685138,-8161.7746687121,-5463.6730721025,-8425.7528512858,-21747.0446746173,-10986.8705170628,-4474.0134510085,-6433.3289996195,-1775.0114448340,-23772.3943138865,7416.0165304340,9796.5169045712,15908.3753541286
560841133322,32482,5,0,4597.9901139374,6765.7504768223,12828.0864003104,-549.7365424605,-8165.9360210255,-5469.8542620885,-8431.3378241276,-21750.2082757913,-10991.5429126428,-4478.3451510774,-6442.4304368431,-1777.1042886875,-23775.1807164589,7411.2467932794,9793.1829556417,15902.3280088076
560841133322,32482,5,0,4597.8684369692,6762.4651986801,12819.1309754487,-556.3192664417,-8166.4105612016,-5482.3504867257,-8434.6231022697,-21750.4394620309,-10990.1557952050,-4477.9314493855,-6448.0762481689,-1774.6707493229,-23774.0977914417,7413.6438295535,9796.6385815394,15909.5434530236
560841145745,32483,5,0,4596.8341827393,6759.1312497506,12813.0714624308,-560.6022957234,-8163.9648541402,-5487.0107146089,-8433.9782143381,-21746.5457990476,-10985.4833996250,-4476.9215305492,-6445.3385163838,-1770.8500925205,-23771.5304074120,7418.7420945223,9799.5101579896,15914.2766870877
560841145745,32483,5,0,4599.9126100355,6764.2295147194,12816.7704422650,-555.6378754196,-8162.7359167611,-5476.8141846712,-8430.3765760785,-21745.5723833017,-10985.6415796837,-4477.0067044269,-6438.3664261042,-1772.0668622028,-23770.8976871773,7418.5474113732,9800.3862321609,15910.6507134345
560841145745,32483,5,0,4599.8639392482,6766.9185757173,12825.5798547648,-551.0384860206,-8163.8066740815,-5466.8366732764,-8429.3666572422,-21748.1641027250,-10988.0629513514,-4475.9116117129,-6435.1906572335,-1775.6198296751,-23774.5601639210,7413.6316618567,9796.2978860284,15905.0170698055
560841145745,32483,5,0,4596.4813195314,6765.4462844017,12825.3121654347,-551.5373615903,-8167.7490078522,-5470.8033424407,-8434.0755559127,-21751.0356791752,-10991.0440370730,-4477.6637600554,-6440.6052823197,-1778.1507106143,-23778.4173238138,7411.0156070398,9795.7503396713,15903.7029585486
560841145745,32483,5,0,4594.9846928222,6762.3556894087,12815.7240203382,-557.3778560653,-8168.5277404488,-5483.3360701683,-8437.3486663581,-21751.0113437816,-10991.3360617968,-4481.3627398895,-6449.2443470639,-1776.0456990639,-23776.8111878332,7411.3441348540,9797.0887863219,15907.4019383828
560841145745,32483,5,0,4594.8995189444,6762.5017017706,12808.1313775207,-561.0403328090,-8167.2988030697,-5489.8944587559,-8436.9106292725,-21747.6165563680,-10988.4036468625,-4480.2798148723,-6447.7233849611,-1772.3223838361,-23776.1784675984,7412.4392275680,9798.8774377548,15911.8431477231
560841145745,32483,5,0,4595.8485992966,6763.2804343673,12811.7938542644,-557.9132347255,-8169.3551438328,-5485.7452741393,-8435.4261702601,-21748.4926305392,-10991.5185772491,-4480.5110011119,-6441.2380025545,-1774.8045939880,-23779.5854227088,7410.2733775336,9797.0644509282,15910.0058255029
560841145745,32483,5,0,4595.8364315998,6766.3831970571,12819.1066400550,-553.5085284756,-8175.4268245474,-5478.5176622265,-8436.4239213995,-21751.6318963196,-10999.9264557538,-4485.4267506284,-6440.1550775372,-1780.1218774996,-23786.5331775947,7404.3842122712,9790.4087207661,15903.3257599471
560841168060,32484,5,0,4593.2690475701,6763.5602913942,12819.3378262947,-554.8713105198,-8180.8779527241,-5481.4744125544,-8441.9358880603,-21755.9149256012,-11005.6696086542,-4489.6002706387,-6446.5917891565,-1783.5531680037,-23790.7188653018,7400.2228599578,9787.3424611667,15901.1112391253
560841168060,32484,5,0,4591.2127068071,6760.6157087630,12814.9696231352,-560.1764263346,-8180.9996296923,-5493.5691031964,-8446.4622712785,-21756.2069503250,-11005.8886271970,-4492.6421948444,-6455.1700154167,-1783.2246401894,-23788.5408475705,7402.3887099923,9790.1288637391,15904.5181942357
560841168060,32484,5,0,4591.6020731054,6760.4818640980,12806.0993721513,-562.4517856405,-8176.5584203520,-5500.3951811141,-8444.1869119726,-21753.0920199383,-11000.7416914409,-4493.1410704141,-6454.9509968739,-1778.9294432109,-23781.8364466211,7406.1241929169,9792.7327508592,15907.7791369843
560841168060,32484,5,0,4593.3298860543,6763.6698006656,12808.2652221858,-557.7185515764,-8175.3903214570,-5494.3721711868,-8440.1229012337,-21751.6927348037,-10999.8047787856,-4494.1509892505,-6448.8671484624,-1778.9416109078,-23782.5300053400,7406.4162176407,9792.4650615291,15905.0049021086
560841168060,32484,5,0,4595.6904192379,6767.7459791013,12819.4716709597,-550.6126166318,-8175.9622032076,-5483.8836165254,-8439.2224916688,-21753.2988707843,-11001.7394425804,-4494.9905603312,-6444.3529329411,-1782.4580752896,-23785.3772463966,7402.3887099923,9789.7394974408,15899.1400722400
560841168060,32484,5,0,4594.7535065825,6767.0037495951,12820.9439622753,-550.2354180303,-8178.9432889293,-5484.2121443396,-8442.6537821729,-21757.4602230977,-11006.4361735541,-4500.2348376619,-6451.7022218222,-1787.1183031728,-23788.4313382991,7396.9254141188,9784.9819279830,15890.7930322194
560841168060,32484,5,0,4591.9792717069,6762.3678571055,12813.3391517609,-557.1223344320,-8181.8270330763,-5496.5015181308,-8447.4721901148,-21758.8108374451,-11007.9571356569,-4504.9194009388,-6460.7549882585,-1787.1304708696,-23787.6526057024,7398.7140655518,9787.0382687461,15895.4654277994
560841168060,32484,5,0,4592.7093335163,6763.9983284798,12808.5085761222,-559.0204951364,-8177.6656807629,-5504.7025457894,-8446.3284266134,-21756.4259688678,-11002.7006906294,-4503.1672525963,-6460.5238020188,-1782.8961123752,-23784.6471845872,7405.6861558313,9792.5015646196,15899.9918110176
560841204380,32485,5,0,4597.3573937026,6770.3376985246,12812.2927298342,-554.8591428230,-8174.2222225620,-5499.0080636763,-8440.8164599526,-21753.0068460606,-10998.5271706191,-4499.2370865224,-6453.4178670742,-1778.9416109078,-23781.8607820147,7408.1805336800,9794.0346944193,15900.4785188905
560841204380,32485,5,0,4602.8450249698,6778.2467014595,12823.1219800066,-545.2953331201,-8175.1834706110,-5486.5118390391,-8439.7822057227,-21755.6715716648,-11001.1432254361,-4497.7769629037,-6447.6138756897,-1782.0930443849,-23784.8905385236,7404.9439263251,9790.9197640326,15895.1977384693
560841204380,32485,5,0,4601.3849013510,6776.3850438456,12827.4050092883,-543.8473771982,-8180.4764187290,-5486.6335160074,-8445.0143153565,-21760.1371163988,-11006.7281982778,-4496.9373918229,-6452.4322836316,-1787.6293464393,-23789.7576172528,7399.4806304516,9786.9165917779,15892.6425221365
560841204380,32485,5,0,4596.2623009886,6771.9073314147,12820.0922234977,-552.0970756442,-8184.1997339568,-5496.9882260037,-8451.1955053426,-21763.1547052109,-11008.1396511093,-4499.5656143367,-6462.3002857550,-1789.5031717501,-23790.8648776637,7399.5049658452,9787.3302934699,15894.7718690805
560841204380,32485,5,0,4595.8607669934,6768.7558979376,12809.1169609634,-558.2904333270,-8180.8779527241,-5504.6052042148,-8451.2563438267,-21759.8207562814,-11002.7615291135,-4495.5137712946,-6461.8379132757,-1785.0011239256,-23784.6350168904,7406.8907578168,9791.5524842674,15901.9021394188
560841204380,32485,5,0,4595.9946116585,6771.2137726958,12810.4797430076,-556.7694712242,-8176.8017742884,-5500.1274917840,-8447.3383454497,-21756.9613475280,-10998.4054936509,-4489.9409661497,-6452.9676622918,-1782.9691185562,-23781.9824589830,7409.5798188146,9795.5191534317,15906.4406903337
560841204380,32485,5,0,4598.4159833262,6774.6207278062,12817.6708518299,-551.6225354681,-8179.6125122545,-5489.3225770052,-8446.6934575181,-21759.5287315576,-11001.3987470694,-4491.0725619542,-6448.7819745847,-1786.3395705761,-23786.3871652329,7405.5888142567,9790.3235468883,15899.9431402303
560841204380,32485,5,0,4595.8485992966,6771.6274743878,12820.6762729452,-551.2696722602,-8183.4088336633,-5486.8890376406,-8450.8304744379,-21765.2353813676,-11008.1761541997,-4495.1730757836,-6453.0893392600,-1792.5937667431,-23788.9302138689,7397.4121219917,9786.4907223891,15893.9688010902
560841231936,32486,5,0,4590.3366326358,6764.1321731449,12814.5072506559,-557.8402285446,-8187.6918629450,-5495.7836240182,-8457.5957138715,-21766.6955049864,-11011.0112275595,-4497.4849381799,-6463.0181798675,-1793.7983687286,-23790.0739773702,7398.9087487009,9784.5317232006,15895.1490676821
560841231936,32486,5,0,4587.8179193935,6762.5747079515,12803.7023358772,-563.8632384720,-8185.5503483041,-5506.5155326160,-8457.6687200524,-21765.5152383945,-11006.9107137302,-4498.7017078622,-6466.1574456478,-1790.8902891879,-23785.0122154919,7403.1674425890,9787.3424611667,15898.8358798194
560841231936,32486,5,0,4587.7084101221,6763.5481236974,12800.6360762778,-563.5103752641,-8184.7229449202,-5504.9093966354,-8455.0526652355,-21763.6779161743,-11005.3045777495,-4498.5070247131,-6461.7892424884,-1790.7321091292,-23783.1505578780,7404.6032308141,9787.5614797095,15898.6168612766
560841231936,32486,5,0,4587.7084101221,6764.3268562940,12809.2751410221,-559.8965693077,-8185.8667084215,-5495.6132762627,-8454.1157525801,-21766.0992878420,-11007.2635769380,-4497.8012982973,-6455.7175617738,-1795.2463246505,-23787.2997424946,7400.7217355275,9785.2982881004,15893.4699255205
560841231936,32486,5,0,4588.2437887823,6763.9496576925,12820.0435527104,-555.9907386275,-8186.8036210769,-5487.7042733278,-8453.7142185849,-21768.3016409670,-11008.6628620727,-4498.2758384734,-6454.5494628788,-1796.3170819709,-23789.7332818592,7399.0182579723,9783.3149535183,15890.1846473783
560841231936,32486,5,0,4588.6939935647,6763.0249127340,12817.3909948030,-559.5437060998,-8185.6720252724,-5493.3135815632,-8454.8336466927,-21765.1867105803,-11008.3586696521,-4498.3123415639,-6460.7671559553,-1793.7618656381,-23788.1636489690,7401.2449464909,9786.5272254795,15892.0706403858
560841231936,32486,5,0,4587.7084101221,6760.6643795503,12810.4189045234,-565.5180452399,-8180.9509589051,-5502.0013170947,-8452.6434612645,-21759.4313899831,-11002.1653119692,-4494.7107033043,-6460.0127587523,-1786.3395705761,-23782.6273469146,7407.6329873230,9790.9927702136,15900.5515250714
560841231936,32486,5,0,4590.1662848803,6761.3944413597,12808.6424207873,-564.1430954989,-8176.1325509632,-5501.0035659553,-8447.3748485402,-21755.9635963885,-10997.4807486924,-4492.3988409079,-6455.6323878960,-1782.2390567468,-23779.4880811342,7411.1981224921,9794.8864331969,15903.5326107931
560841264382,32487,5,0,4590.9936882642,6761.8811492326,12814.4950829591,-560.0669170632,-8177.0816313154,-5491.2450731033,-8444.6006136646,-21757.8495893961,-11000.3279897489,-4496.4506839500,-6450.3759428685,-1786.4977506348,-23781.7999435306,7408.2535398609,9791.1874533627,15898.2396626751
560841264382,32487,5,0,4590.7259989341,6762.9154034626,12821.1629808181,-555.4553599673,-8179.7220215259,-5485.0395477236,-8446.6326190340,-21762.4124757047,-11005.7669502288,-4501.2812595887,-6453.7463948884,-1792.0340526893,-23786.8495377121,7401.8046605448,9787.0382687461,15891.8759572367
560841264382,32487,5,0,4585.7129078431,6755.7729654275,12815.7848588224,-561.0281651122,-8184.3457463187,-5494.2626619153,-8451.7552193965,-21766.1844617198,-11009.2834146106,-4507.2799341224,-6464.3201234276,-1795.5140139806,-23789.3560832577,7399.5414689357,9785.6389836115,15891.0607215495
560841264382,32487,5,0,4582.8413313929,6750.5408557936,12802.0475291093,-568.5478017488,-8183.3114920887,-5507.2090913350,-8453.3005168930,-21764.0429470790,-11007.5312662681,-4511.4899572231,-6470.2336240835,-1791.0363015498,-23785.2068986410,7403.6784858555,9789.7151620472,15896.2563280929
560841264382,32487,5,0,4585.7737463272,6753.1934137010,12800.0641945271,-568.5112986583,-8177.3736560391,-5505.4204399020,-8447.1679976942,-21758.5918189023,-11001.5447594312,-4507.9734928413,-6462.6409812660,-1784.8186084732,-23780.0842982786,7407.2801241151,9793.2316264290,15898.4830166115
560841264382,32487,5,0,4588.1464472077,6756.7950519606,12809.1291286602,-563.5833814450,-8177.6778484597,-5495.0535622088,-8441.9480557572,-21757.6184031564,-11002.3356597247,-4506.0874998338,-6454.3426120328,-1786.0597135492,-23781.7512727433,7405.4306341980,9792.6354092847,15900.5636927683
560841264382,32487,5,0,4589.5700677360,6757.0992443812,12814.2030582354,-557.8767316351,-8180.4155802448,-5488.4343351372,-8443.2499993172,-21758.9568498070,-11007.5190985713,-4506.5498723130,-6453.4908732552,-1789.4545009628,-23786.2776559615,7400.3323692292,9787.9995167951,15896.6335266945
560841264382,32487,5,0,4587.0391867968,6753.6436184835,12812.9376177658,-560.0912524568,-8182.0460516191,-5490.2473219638,-8445.0629861438,-21760.4656442130,-11009.2712469138,-4506.3673568607,-6459.4530446984,-1789.7708610802,-23790.4025051844,7399.4197919675,9787.8778398269,15896.8282098436
560841310751,32488,5,0,4585.6642370558,6751.0518990602,12805.9655274862,-565.0435050638,-8179.2961521371,-5498.2049956860,-8444.6127813614,-21756.8761736502,-11003.7957833435,-4501.0987441364,-6461.2295284345,-1784.6969315050,-23787.0442208613,7402.8997532589,9791.4429749960,15904.7128773849
560841310751,32488,5,0,4592.0157747974,6756.2475056036,12805.7830120339,-560.6022957234,-8170.4624042437,-5495.3577546294,-8436.8376230915,-21749.0645122899,-10994.2441413375,-4493.5669398029,-6453.1623454409,-1775.4129788291,-23778.5876715694,7409.7745019638,9797.7823450408,15910.1396701679
560841310751,32488,5,0,4596.6881703774,6762.6598818293,12816.2350636048,-551.4400200157,-8164.7192513432,-5479.3694010041,-8427.0912979363,-21744.0635888957,-10990.4478199287,-4486.6921910980,-6441.3231764322,-1772.6995824376,-23775.3267288208,7411.2589609762,9799.9603627721,15908.9837389697
560841310751,32488,5,0,4598.7323434436,6765.1299242843,12826.1030657282,-545.7455379026,-8166.9459398618,-5468.1507845333,-8426.7019316380,-21745.5480479081,-10992.3216452394,-4484.0639685842,-6438.2569168328,-1778.2237167952,-23777.5534173394,7406.8420870295,9795.6895011872,15903.6542877613
560841310751,32488,5,0,4597.1748782503,6764.0956700544,12827.5631893470,-545.7942086899,-8171.0221182975,-5471.1197025581,-8430.7902777705,-21750.6949836642,-10996.2153082228,-4487.8116192057,-6446.7378015184,-1782.4702429864,-23780.9360370562,7403.8244982174,9792.1730368054,15898.9088860003
560841310751,32488,5,0,4593.7192523526,6758.4863618190,12818.9971307836,-553.6058700502,-8171.5088261705,-5482.8493622954,-8436.3995860059,-21752.0334303147,-10994.8038553913,-4488.5416810151,-6453.2110162282,-1780.6450884630,-23780.2059752468,7403.3621257381,9793.0856140671,15900.0283141081
560841310751,32488,5,0,4595.3862268173,6758.8027219364,12816.8434484460,-555.0903290626,-8169.9756963708,-5485.7939449266,-8434.0633882159,-21747.2028546760,-10989.7907643003,-4484.0031301001,-6448.4047759832,-1775.6076619783,-23774.0856237449,7410.7844208001,9798.7679284834,15907.2315906272
560841310751,32488,5,0,4599.0487035610,6764.7162225924,12823.0368061288,-550.0529025779,-8167.6273308839,-5477.1305447886,-8430.4860853499,-21746.9351653459,-10989.5960811511,-4482.9688758702,-6440.6174500165,-1776.3012206972,-23774.1342945322,7410.4558929859,9798.0135312804,15904.0679894533
560841325793,32489,5,0,4599.6084176149,6766.6143832967,12831.6150323890,-543.4458432031,-8169.7323424343,-5468.5036477412,-8431.6176811545,-21750.2204434881,-10993.5384149217,-4484.4411671857,-6439.5223573024,-1782.1660505658,-23778.7458516280,7405.1751125647,9792.3433845609,15896.6456943913
560841325793,32489,5,0,4597.8562692724,6764.3633593845,12834.8759751376,-544.0177249537,-8173.9058624446,-5473.0908694434,-8437.2513247835,-21754.4791373761,-10998.0282950494,-4486.7895326726,-6447.0541616358,-1786.0475458524,-23782.8098623669,7400.5270523784,9788.8999263600,15894.2243227235
560841325793,32489,5,0,4595.5322391792,6759.0339081761,12825.5798547648,-549.7852132478,-8173.6746762049,-5485.0395477236,-8440.5852737130,-21754.1992803492,-10997.5294194797,-4488.9432150102,-6453.6612210107,-1783.5288326100,-23780.6318446356,7403.7879951269,9791.3456334214,15898.0328118291
560841325793,32489,5,0,4595.6660838443,6759.2772621125,12817.1963116538,-553.1921683582,-8170.1460441263,-5490.7705329272,-8436.8741261820,-21749.5998909501,-10991.1048755572,-4486.1568124378,-6450.4611167462,-1777.9438597683,-23775.6674243318,7408.4847261006,9796.2857183315,15905.0414051991
560841325793,32489,5,0,4600.3263117274,6764.7405579860,12824.0223895715,-547.5220216387,-8166.7512567127,-5482.7033499336,-8432.3964137512,-21746.7039791063,-10987.8804358991,-4482.6038449655,-6442.3939337526,-1776.6784192987,-23774.5723316178,7410.1395328685,9796.3222214220,15903.7151262454
560841325793,32489,5,0,4601.2145535955,6766.1398431206,12832.7344604967,-541.7058625574,-8167.1771261015,-5472.9083539911,-8431.8366996973,-21748.1154319377,-10990.0949567208,-4483.4677514399,-6438.6584508280,-1778.6252507904,-23778.0766283028,7407.9858505308,9794.4605638081,15904.3478464802
560841325793,32489,5,0,4600.3628148179,6764.9595765288,12833.4645223061,-543.3850047189,-8172.3362295544,-5474.7578439082,-8436.2170705536,-21753.2623676938,-10994.8525261786,-4488.8823765261,-6445.8130565599,-1783.6991803655,-23782.8341977606,7402.3278715082,9790.3235468883,15901.0504006412
560841325793,32489,5,0,4595.9702762648,6758.8392250269,12824.7524513809,-552.4134357616,-8175.1956383078,-5487.7772795087,-8441.7168695175,-21755.1240253077,-10995.8502773181,-4491.1090650447,-6455.7053940769,-1783.4558264291,-23782.4813345527,7403.1187718017,9791.3091303310,15903.9706478787
560841355552,32490,5,0,4596.2623009886,6758.3160140635,12816.7582745682,-556.4896141973,-8170.4259011532,-5493.4717616219,-8439.0764793069,-21749.1131830772,-10990.2044659923,-4489.5150967609,-6453.3205254996,-1777.3233072303,-23776.3731507476,7407.1219440564,9797.3199725615,15911.0522474296
560841355552,32490,5,0,4601.1415474146,6764.9839119225,12821.4550055419,-550.5396104508,-8167.1649584047,-5485.1855600854,-8433.2724879224,-21744.5381290718,-10985.8362628328,-4487.1058927900,-6444.4502745157,-1774.3178861150,-23773.3068911482,7410.5288991668,9799.4614872023,15912.8165634690
560841355552,32490,5,0,4603.6115898696,6766.1641785143,12832.8926405554,-544.0663957410,-8168.4303988742,-5473.2125464117,-8430.9606255260,-21747.6408917616,-10987.7222558404,-4484.5628441540,-6436.3465884316,-1776.4472330591,-23774.9860333098,7408.1805336800,9797.2104632901,15908.4605280063
560841355552,32490,5,0,4600.4966594830,6764.8135641669,12834.4136026583,-544.9546376091,-8172.5552480972,-5473.4437326513,-8436.9349646661,-21752.2402811607,-10991.8471050634,-4489.0648919785,-6442.9414801097,-1781.2413056073,-23778.7701870217,7406.1120252201,9794.6187438668,15904.4451880548
560841355552,32490,5,0,4598.7566788373,6761.2605966946,12825.9813887600,-550.0529025779,-8175.3538183665,-5485.4289140219,-8442.9579745935,-21753.6395662953,-10992.7231792346,-4491.9851392160,-6453.6855564043,-1781.7888519643,-23778.1009636964,7407.0002670882,9794.0955329034,15902.3280088076
560841355552,32490,5,0,4598.2456355707,6759.9221500441,12817.3909948030,-554.4211057374,-8171.7643478037,-5493.8002894361,-8443.7975456742,-21753.5057216303,-10988.4158145593,-4489.5272644577,-6455.3160277786,-1778.5887476999,-23773.0148664244,7410.1273651717,9797.7701773439,15912.7557249848
560841355552,32490,5,0,4602.3218140064,6765.3611105240,12820.4450867055,-551.1236598983,-8169.0874545027,-5487.9476272642,-8440.1594043242,-21750.2569465786,-10984.7411701188,-4485.4510860220,-6446.3362675233,-1776.1552083353,-23770.0094453092,7413.9236865804,9800.8486046401,15913.8143146084
560841355552,32490,5,0,4603.8427761093,6768.3908670329,12828.8164621197,-543.7865387141,-8169.7931809184,-5476.6925077030,-8436.9714677566,-21751.5223870481,-10987.8439328086,-4486.9720481249,-6441.1041578894,-1778.4062322476,-23772.5768293388,7410.9547685556,9798.3542267914,15908.5822049746
560841385684,32491,5,0,4602.1758016445,6763.9983284798,12831.7610447509,-544.3340850711,-8174.9401166745,-5474.0764528861,-8439.7943734195,-21755.1848637919,-10994.5605014549,-4487.9211284771,-6443.6593742222,-1782.6770938324,-23778.8310255058,7404.5423923299,9795.4826503412,15904.1166602406
560841385684,32491,5,0,4598.0266170279,6758.9609019951,12826.0422272441,-551.6468708617,-8178.4930841468,-5485.1977277823,-8445.1603277184,-21755.9757640853,-10997.6145933574,-4491.1334004384,-6452.6878052648,-1783.8816958179,-23781.6417634719,7402.0115113908,9794.9837747715,15906.6840442702
560841385684,32491,5,0,4594.5588234334,6754.2885064151,12813.4851641228,-559.3733583443,-8178.6269288119,-5496.4285119498,-8446.2067496452,-21753.2867030875,-10996.1423020419,-4492.4231763016,-6455.7905679547,-1779.9880328345,-23780.5588384547,7404.8587524473,9798.0865374613,15912.6827188039
560841385684,32491,5,0,4595.2402144555,6754.8968912563,12810.3824014330,-559.7140538553,-8176.4854141710,-5492.4131719983,-8444.3572597281,-21751.4615485640,-10993.5262472249,-4488.5660164087,-6448.0397450785,-1778.0898721302,-23779.9626213103,7405.7956651027,9798.9017731485,15914.9459104130
560841385684,32491,5,0,4596.2623009886,6759.8613115600,12818.8997892090,-554.8713105198,-8177.1424697995,-5481.2310586180,-8441.1814908573,-21752.7148213368,-10993.8304396455,-4486.7408618853,-6440.4836053514,-1779.8420204727,-23781.8607820147,7405.9903482519,9796.4804014807,15911.9648246914
560841385684,32491,5,0,4593.5732399907,6757.6711261319,12823.1706507939,-551.5373615903,-8180.3060709734,-5476.1814644365,-8442.2887512682,-21755.5012239093,-10996.6290099148,-4488.2496562913,-6441.3961826132,-1782.4580752896,-23782.1771421321,7404.4328830585,9796.8941031727,15908.3266833413
560841385684,32491,5,0,4594.8995189444,6757.8414738874,12821.1386454245,-554.2872610723,-8179.3691583181,-5482.9102007795,-8444.8683029947,-21754.6251497380,-10996.1788051323,-4486.0716385600,-6447.0298262422,-1781.1926348200,-23779.9261182199,7405.5766465599,9798.2812206105,15910.4195271948
560841385684,32491,5,0,4595.3862268173,6755.9433131830,12814.1422197513,-558.2539302366,-8176.8747804694,-5493.4474262282,-8443.8705518552,-21752.2281134639,-10991.7862665792,-4486.0838062568,-6448.8306453720,-1777.2381333526,-23775.9351136619,7412.0011904824,9802.8076038286,15921.3461189418
560841416746,32492,5,0,4599.0730389547,6759.6301253204,12811.5383326312,-555.5527015419,-8173.3096453002,-5492.8268736902,-8439.9038826909,-21748.5291336297,-10989.3770626083,-4486.7043587948,-6445.1925040219,-1773.7581720612,-23773.6719220529,7414.3373882724,9804.9126153790,15923.0982672843
560841416746,32492,5,0,4604.0374592584,6766.7238925682,12826.5167674202,-546.1714072914,-8173.0054528797,-5482.4843313907,-8437.3608340549,-21751.2303623244,-10991.2508879190,-4486.1933155282,-6438.9991463390,-1777.7491766191,-23774.7913501606,7411.6726626682,9800.4349029482,15918.4623747948
560841416746,32492,5,0,4603.1492173904,6765.9816630620,12832.2112495333,-543.9082156823,-8179.3326552276,-5479.7100965151,-8440.6582798939,-21756.5476458360,-10997.1157177877,-4491.0968973479,-6441.7247104274,-1785.7433534318,-23779.7070996771,7405.0169325060,9794.5944084732,15910.8210611900
560841416746,32492,5,0,4598.4403187199,6761.5526214184,12827.2711646232,-549.7000393701,-8182.5935979762,-5489.3469123989,-8446.3527620071,-21758.6404896896,-11001.1553931329,-4497.9473106592,-6452.9189915045,-1787.2399801410,-23780.6561800293,7403.1552748921,9793.6696635146,15907.4384414732
560841416746,32492,5,0,4594.2181279223,6755.3957668260,12816.1985605143,-558.6311288381,-8181.6080145335,-5500.8575535934,-8448.0805749559,-21757.9956017580,-10999.2694001253,-4498.9328941019,-6457.5305486004,-1784.6725961114,-23777.5290819458,7406.6717392740,9795.3488056762,15909.6772976886
560841416746,32492,5,0,4593.2082090860,6755.5417791879,12812.9132823721,-560.5171218456,-8179.6125122545,-5502.5366957549,-8444.8317999042,-21753.9437587159,-10996.0449604673,-4497.7282921164,-6451.7752280031,-1781.5211626342,-23776.1176291143,7408.7037446434,9796.7480908108,15911.8188123295
560841416746,32492,5,0,4599.2920574975,6762.2826832278,12821.7835333561,-551.7077093458,-8178.7851088706,-5491.0017191668,-8439.4293425148,-21753.6395662953,-10997.5415871765,-4498.3245092607,-6445.4966964425,-1781.4238210596,-23778.5998392662,7403.8123305206,9793.5601542432,15904.8102189595
560841416746,32492,5,0,4599.5962499181,6761.8081430517,12827.7700401930,-549.1646607098,-8181.9487100445,-5484.6258460316,-8441.5465217620,-21757.5819000660,-11002.6033490548,-4500.2835084492,-6446.7012984280,-1786.3274028793,-23787.1780655263,7400.5392200752,9789.8125036217,15901.9873132965
560841447891,32493,5,0,4593.3055506606,6756.5638657210,12824.6551098063,-554.6522919770,-8185.9762176929,-5491.6952778857,-8448.6281213130,-21761.6945815921,-11004.2094850355,-4500.6972101412,-6454.4277859105,-1789.1016377549,-23789.5507664068,7399.4197919675,9789.9585159836,15903.1919152820
560841447891,32493,5,0,4591.3343837753,6752.6093642535,12814.8479461670,-561.9042392835,-8182.7639457317,-5502.8165527819,-8451.8160578806,-21760.2101225797,-11000.8390330155,-4500.2105022683,-6459.6233924539,-1785.0376270161,-23784.8662031300,7405.2967895330,9794.7890916223,15909.1784221189
560841447891,32493,5,0,4591.4925638340,6753.3272583661,12807.0849555940,-564.0457539243,-8177.6413453692,-5501.6849569773,-8446.3892650975,-21755.3917146378,-10994.8038553913,-4495.5137712946,-6454.2452704582,-1780.2678898615,-23777.7237650949,7412.0985320570,9800.5930830069,15916.1870154889
560841447891,32493,5,0,4596.9801951011,6760.8955657900,12817.5735102553,-555.7960554783,-8176.6679296234,-5489.4320862766,-8442.9823099871,-21755.6472362711,-10994.0616258851,-4491.9364684287,-6446.2267582519,-1781.8010196612,-23775.9472813588,7411.9525196951,9799.2303009627,15914.9580781098
560841447891,32493,5,0,4597.8806046660,6762.3313540151,12825.2026561633,-550.7099582064,-8178.3227363913,-5479.5884195469,-8442.1914096936,-21759.0663590784,-10997.3225686337,-4492.2406608492,-6444.8274731172,-1785.6825149477,-23778.1618021805,7407.9371797435,9794.7525885319,15909.7138007791
560841447891,32493,5,0,4595.1672082745,6759.4354421712,12823.7547002414,-552.5837835171,-8181.5593437462,-5483.8227780413,-8445.0143153565,-21758.9081790197,-10999.7682756951,-4493.2019088983,-6451.2033462524,-1787.0696323855,-23779.6584288898,7405.0777709902,9792.9030986148,15909.1662544221
560841447891,32493,5,0,4595.1063697904,6757.9144800683,12819.1066400550,-557.5725392145,-8178.7729411737,-5490.9287129859,-8446.0242341928,-21757.9225955770,-10996.7385191862,-4490.6345248686,-6454.6103013629,-1784.2223913289,-23776.9572001951,7406.1120252201,9793.6453281210,15912.4028617770
560841447891,32493,5,0,4596.3596425632,6758.1700017016,12813.3513194578,-558.7528058063,-8174.8671104936,-5494.4451773677,-8441.7777080016,-21753.4205477525,-10990.5694968969,-4488.0184700517,-6450.8018122573,-1778.3210583698,-23775.4605734859,7411.3806379444,9798.4759037597,15917.6106360172
560841500799,32494,5,0,4598.7931819278,6762.6720495261,12818.2549012774,-552.7662989694,-8172.7134281559,-5482.5938406621,-8436.2535736440,-21753.0555168478,-10989.3162241242,-4485.7552784426,-6442.9658155033,-1778.5644123063,-23776.9815355887,7409.6406572988,9796.9306062632,15915.7489784033
560841500799,32494,5,0,4601.9567831017,6766.3831970571,12831.4325169367,-546.4877674088,-8172.2875587671,-5470.5721562011,-8435.4991764410,-21755.4525531220,-10992.6988438410,-4483.5650930145,-6439.5223573024,-1782.3242306245,-23780.3154845182,7406.6839069708,9794.2415452653,15911.8066446327
560841500799,32494,5,0,4600.3263117274,6762.9884096435,12833.0994914014,-547.5950278197,-8175.3173152760,-5473.1517079275,-8438.5532683436,-21756.8761736502,-10994.7551846040,-4486.6435203107,-6446.5431183693,-1783.3098140672,-23782.6638500050,7405.8321681932,9793.1829556417,15909.7868069601
560841500799,32494,5,0,4598.2821386612,6760.7860565186,12823.5113463049,-553.8735593803,-8174.3804026207,-5485.0152123299,-8441.3518386128,-21754.5156404666,-10993.0517070488,-4489.7949537878,-6452.2132650887,-1780.5842499789,-23780.4979999706,7409.0931109417,9796.0180290014,15913.0355820118
560841500799,32494,5,0,4598.5011572040,6761.0659135455,12818.6686029694,-556.8424774051,-8170.0365348549,-5490.5515143843,-8438.1517343484,-21749.7215679184,-10986.1891260407,-4487.1545635773,-6447.6990495674,-1773.3079672787,-23774.3046422877,7414.4590652406,9801.8950265669,15918.5353809757
560841500799,32494,5,0,4602.1636339477,6764.8135641669,12823.6573586668,-550.8316351746,-8165.8751825414,-5481.4500771608,-8431.4229980053,-21744.5502967686,-10983.6947481920,-4485.1103905110,-6439.2059971850,-1770.0470245302,-23772.8323509721,7415.9191888594,9803.0144546746,15918.7300641249
560841500799,32494,5,0,4607.0428803737,6770.6662263388,12835.0949936804,-541.6936948606,-8166.1672072652,-5469.0755294919,-8428.0525459854,-21746.3267805048,-10986.7975108818,-4486.1811478314,-6434.6431108764,-1772.9064332836,-23776.3366476571,7410.8087561938,9799.8386858038,15913.3154390387
560841500799,32494,5,0,4605.6679306327,6769.5833013215,12837.8570608592,-542.3264150953,-8171.1681306594,-5472.0079444262,-8431.3499918244,-21751.0478468721,-10991.2873910095,-4488.4565071373,-6441.3110087354,-1777.8221828001,-23783.0410486065,7405.8321681932,9795.5556565222,15910.1031670774
560841509221,32495,5,0,4601.1902182019,6764.6067133210,12829.4856854450,-548.7996298052,-8173.6868439018,-5485.2707339632,-8437.7136972628,-21753.2745353907,-10993.0152039584,-4490.5980217782,-6450.7288060763,-1777.2259656557,-23782.9072039415,7406.5987330930,9796.0788674856,15913.8264823053
560841509221,32495,5,0,4598.4646541135,6760.0924977996,12817.3666594093,-554.6157888865,-8171.6913416228,-5493.0823953235,-8436.7159461233,-21751.5102193513,-10990.0341182367,-4490.0869785116,-6449.9865765701,-1774.3300538119,-23777.3222310998,7410.5288991668,9797.7336742535,15919.0220888487
560841509221,32495,5,0,4598.5376602945,6759.8248084695,12817.4153301966,-554.2142548914,-8173.6990115986,-5488.2274842912,-8434.2702390619,-21753.1650261192,-10990.9588631953,-4488.8215380420,-6443.5011941635,-1776.8852701447,-23775.3875673049,7410.3828868050,9796.1762090601,15916.0166677334
560841509221,32495,5,0,4598.0752878152,6761.4552798438,12825.1053145887,-550.7707966905,-8176.7774388948,-5479.2477240358,-8435.2436548077,-21756.8640059534,-10994.8890292691,-4490.1599846925,-6441.7368781242,-1781.5211626342,-23778.8310255058,7407.3287949024,9791.0536086977,15910.8210611900
560841509221,32495,5,0,4598.0509524216,6759.3259328998,12827.8795494644,-549.3106730717,-8177.9212023961,-5476.1692967396,-8437.5798525977,-21757.8009186088,-10996.9575377290,-4491.0968973479,-6443.5620326476,-1783.1516340085,-23779.7436027675,7406.6595715771,9789.9463482868,15909.9206516251
560841509221,32495,5,0,4596.1041209299,6756.5151949337,12826.6749474789,-553.5937023534,-8173.1271298479,-5479.8317734833,-8436.6186045487,-21752.1429395861,-10990.6790061684,-4483.7232730732,-6443.8175542809,-1776.2403822131,-23774.3776484686,7411.5753210936,9796.5169045712,15918.8517410931
560841509221,32495,5,0,4595.4470653014,6756.0163193640,12821.8443718402,-556.5626203782,-8164.2690465608,-5480.1237982071,-8430.3279052912,-21744.1730981671,-10980.5798178053,-4476.7146797032,-6440.0455682658,-1766.9199264467,-23768.0261107270,7419.1801316079,9804.9004476822,15930.2528730162
560841509221,32495,5,0,4599.6814237958,6761.8811492326,12822.2824089258,-551.0263183238,-8162.4317243405,-5474.7821793018,-8427.3224841760,-21743.4430363577,-10979.9349298737,-4476.3618164953,-6436.6629485490,-1767.4309697133,-23769.5835759204,7418.0607035002,9804.5354167775,15927.1866134169
560841537970,32496,5,0,4602.3948201873,6768.9870841772,12832.0409017778,-544.7964575504,-8169.2212991677,-5469.3067157315,-8431.4229980053,-21750.7071513610,-10988.7200069799,-4481.8616154593,-6436.9063024855,-1778.0533690397,-23780.1086336722,7408.7037446434,9795.3244702825,15915.1892643494
560841537970,32496,5,0,4602.2001370382,6768.2326869742,12834.6812919884,-544.6991159758,-8177.4466622200,-5472.6893354483,-8439.3806717275,-21759.1637006530,-10998.3446551668,-4487.9697992644,-6444.8396408140,-1786.0475458524,-23787.1780655263,7401.4396296401,9787.7439951618,15906.2216717909
560841537970,32496,5,0,4597.8562692724,6762.7815587975,12824.9349668332,-552.4499388520,-8182.9464611840,-5485.5140878996,-8444.3207566376,-21761.0375259637,-11001.7029394899,-4492.7273687222,-6454.0749227027,-1785.8041919159,-23787.7499472770,7401.9020021194,9788.1211937633,15908.0589940112
560841537970,32496,5,0,4596.3839779568,6759.4111067776,12816.8312807491,-556.4652788036,-8179.6490153450,-5494.0679787662,-8442.4225959333,-21753.8950879286,-10996.4221590688,-4488.7363641642,-6452.0672527269,-1778.4062322476,-23781.6052603814,7406.1971990979,9794.3997253240,15914.4835379337
560841537970,32496,5,0,4597.6372507296,6761.7108014771,12818.9241246027,-555.7230492974,-8175.0617936427,-5488.3126581689,-8436.1318966758,-21749.8310771898,-10991.2752233127,-4485.6822722617,-6442.2844244812,-1773.4539796406,-23780.5953415451,7410.2125390494,9796.5290722680,15915.9436615525
560841537970,32496,5,0,4597.9901139374,6763.7671422402,12825.5433516744,-548.3372573259,-8175.0617936427,-5476.9967001236,-8433.1994817415,-21750.1961080944,-10993.4289056503,-4486.3028247997,-6438.2082460455,-1775.8145128243,-23782.2988191003,7406.6717392740,9794.9837747715,15913.2667682514
560841537970,32496,5,0,4596.4934872282,6763.1830927927,12830.2644180417,-547.3881769737,-8179.6246799514,-5476.2788060110,-8435.6573564997,-21752.5201381876,-10998.3689905604,-4489.7219476069,-6441.4813564909,-1780.8154362185,-23787.3484132819,7403.3864611318,9792.3920553482,15910.3343533171
560841537970,32496,5,0,4594.4128110715,6759.7639699854,12826.0665626377,-552.6932927885,-8182.1068901032,-5486.2928204963,-8441.1084846764,-21756.4868073519,-11001.7029394899,-4492.9707226586,-6450.5097875335,-1781.9348643262,-23789.0640585339,7403.3134549508,9790.1166960423,15911.2225951852
560841577028,32497,5,0,4596.4569841377,6759.7396345918,12817.0624669888,-554.8834782166,-8180.2452324893,-5498.0103125368,-8440.9989754050,-21754.9050067649,-10997.5172517828,-4494.8445479694,-6454.0140842185,-1776.8000962669,-23784.3673275602,7408.6307384625,9794.3267191430,15917.6349714108
560841577028,32497,5,0,4601.7377645589,6765.0325827098,12818.6564352726,-551.0141506269,-8176.0230416918,-5495.2969161453,-8438.3099144071,-21751.0843499625,-10992.9300300806,-4490.6710279591,-6446.4579444915,-1773.8433459390,-23780.5831738483,7411.7091657587,9797.7458419503,15920.4578770738
560841577028,32497,5,0,4605.9721230533,6768.1110100060,12827.9038848580,-545.1858238487,-8176.8747804694,-5483.2873993811,-8435.9615489203,-21751.6318963196,-10993.3315640758,-4491.2064066193,-6439.4371834247,-1778.2602198857,-23782.9680424256,7409.3729679687,9794.3875576272,15918.3528655234
560841577028,32497,5,0,4603.8306084124,6770.0213384072,12834.2554225996,-543.0686446015,-8181.1699774479,-5479.2233886422,-8438.7236160991,-21755.7932486330,-10999.6222633332,-4495.5259389914,-6444.2312559729,-1782.4945783801,-23786.2289851742,7403.6784858555,9789.5813173821,15912.2690171119
560841577028,32497,5,0,4598.0631201184,6762.4651986801,12826.1639042123,-548.7874621083,-8186.2074039326,-5489.3469123989,-8444.8196322074,-21759.2610422275,-11002.9075414754,-4501.9626506108,-6453.1623454409,-1785.5851733731,-23787.8837919421,7401.0502633418,9789.0581064187,15913.9116561830
560841577028,32497,5,0,4593.7192523526,6757.8049707969,12817.0746346856,-557.4265268526,-8186.1343977516,-5502.7557142978,-8448.5186120415,-21759.2367068339,-11000.1819773871,-4502.0843275790,-6459.1610199746,-1783.0907955244,-23784.1118059270,7401.5126358210,9790.8224224580,15917.9878346187
