timestamp,sequence,battery,flags,EEG-ch1,EEG-ch2,EEG-ch3,EEG-ch4,EEG-ch5,EEG-ch6,EEG-ch7,EEG-ch8,EEG-ch9,EEG-ch10,EEG-ch11,EEG-ch12,EEG-ch13,EEG-ch14,EEG-ch15,EEG-ch16
560729874506,29660,-2,0,3368.7728777934,6034.3015500080,11630.8215360233,-1142.6562409457,-8792.6210781943,-6249.2439143853,-9014.4503589734,-22354.1397399012,-11813.4708330325,-4937.5296937816,-6919.7083447230,-2347.2825618106,-24328.6527418441,6374.0358130013,8982.9360242020,13830.3274199193
560729874506,29660,-2,0,3374.2483413637,6041.0181186542,11637.8788001806,-1133.3479528761,-8788.6422413332,-6236.1149695133,-9008.3056720778,-22350.8057909717,-11809.6380085333,-4933.4778507396,-6907.6014863842,-2345.7859351013,-24327.1439474380,6377.6739543514,8982.3033039672,13830.4612645843
560729874506,29660,-2,0,3376.0978312808,6044.6562600043,11647.9171500596,-1123.8814847479,-8792.3168857738,-6223.8864342062,-9008.3056720778,-22353.4218457886,-11815.8313662162,-4936.3737625835,-6903.9390096405,-2350.3853245004,-24332.4125601624,6371.0425595829,8979.5777398789,13823.6595220603
560729874506,29660,-2,0,3369.7827966297,6038.8766040134,11645.2037536680,-1130.4763764259,-8800.4449072515,-6229.1672146274,-9015.3020977510,-22358.2889245178,-11822.8642949798,-4939.8780592685,-6912.2617142674,-2354.6805214789,-24340.1512153418,6365.1898974111,8978.5556533457,13825.0831425886
560729874506,29660,-2,0,3362.5186816264,6029.7629990930,11631.1378961407,-1142.3155454346,-8806.3827433011,-6249.2560820821,-9021.3372753752,-22360.1627498285,-11825.5411882809,-4945.6455475625,-6925.8043608313,-2354.6805214789,-24343.1323010634,6365.2750712888,8982.7413410528,13832.2134129268
560729874506,29660,-2,0,3360.5596824379,6026.1491931366,11618.6538392004,-1149.2267972300,-8807.0154635359,-6260.2070092227,-9022.0308340941,-22357.7657135544,-11824.0810646621,-4947.6653852351,-6925.9503731932,-2349.8864489307,-24339.5184951070,6369.5946036610,8989.0198726135,13840.0859127713
560729874506,29660,-2,0,3360.7421978902,6028.6557386821,11621.6592603157,-1145.8928483006,-8804.4480795062,-6249.1587405075,-9015.2412592669,-22353.2028272458,-11821.1608174246,-4942.2507601489,-6911.9210187563,-2347.0513755709,-24335.9533599379,6373.2084096174,8992.2808153620,13843.3833586103
560729874506,29660,-2,0,3362.6768616851,6032.6224078464,11634.3136650115,-1138.7625779623,-8803.7666884842,-6233.7909394201,-9012.1871673643,-22353.6165289378,-11823.5821890924,-4939.6955438161,-6903.8416680659,-2350.0446289894,-24337.3039742852,6372.1376522970,8991.2465611321,13839.9277327126
560729907033,29661,-2,0,3361.4114212155,6030.9310979880,11637.0513967967,-1139.4318012876,-8804.6305949586,-6230.1162949796,-9014.3043466115,-22354.8089632264,-11825.9548899729,-4940.5351148969,-6907.4919771128,-2351.4317464272,-24337.3283096788,6370.8113733433,8991.4534119780,13837.0196531719
560729907033,29661,-2,0,3358.0166338019,6022.9977596595,11627.4875870938,-1146.9757733178,-8805.7500230663,-6244.0969786291,-9019.9014871501,-22357.3033410751,-11824.8597972588,-4942.1655862712,-6918.4185688598,-2351.5169203049,-24336.9146079869,6371.2980812162,8991.7454367018,13839.3436832651
560729907033,29661,-2,0,3356.7025225450,6020.5763879917,11619.2257209511,-1150.9424424821,-8802.1483848067,-6253.9771484494,-9020.9844121673,-22354.6507831677,-11819.2991598107,-4941.6545430046,-6921.4361576719,-2348.8156916103,-24333.2399635463,6376.5423585469,8992.5850077826,13842.1544212312
560729907033,29661,-2,0,3360.4380054697,6025.4678021145,11620.8926954158,-1147.3408042225,-8799.8365224104,-6246.9198842921,-9017.1515876681,-22353.6286966346,-11818.0458870379,-4940.5594502905,-6914.1112041844,-2349.6552626910,-24330.1128654628,6378.2215007084,8993.3394049856,13841.4365271186
560729907033,29661,-2,0,3363.6624451277,6032.6589109369,11631.7097778914,-1139.2006150479,-8802.8176081320,-6234.0464610534,-9016.9812399126,-22358.2645891242,-11822.3532517133,-4941.0339904666,-6907.9056788047,-2355.1793970487,-24334.8704349206,6373.8411298522,8988.5088293469,13835.4378525849
560729907033,29661,-2,0,3362.3361661740,6034.7152517000,11636.4673473492,-1137.0469327103,-8806.9911281422,-6233.1582191853,-9021.5076231307,-22362.3772706503,-11825.6993683396,-4943.5040329217,-6913.3203038910,-2360.5940221349,-24338.1800484565,6370.7383671623,8986.4159854933,13832.9678101298
560729907033,29661,-2,0,3360.6205209220,6029.6899929121,11627.5970963653,-1142.8874271853,-8806.0907185773,-6244.6445249862,-9024.1601810381,-22361.8905627774,-11824.2027416303,-4947.6653852351,-6924.2712310316,-2359.0730600320,-24333.4833174828,6375.8609675248,8991.2587288289,13838.4676090938
560729907033,29661,-2,0,3360.2189869268,6024.6282310337,11618.7876838654,-1146.3065499925,-8801.1506336672,-6254.3665147477,-9022.9312436590,-22359.2866756573,-11818.3987502458,-4945.0493304182,-6926.3640748851,-2353.3420748284,-24328.2147047585,6382.5775361710,8996.9897140325,13847.1796800190
560729954515,29662,-2,0,3361.5330981837,6023.4114613514,11621.1238816554,-1142.7170794298,-8798.0722063710,-6250.0591500724,-9018.2345126853,-22359.2866756573,-11815.7948631257,-4942.8104742028,-6918.9782829136,-2353.9991304568,-24327.8740092474,6381.5797850316,8996.0162982866,13844.8556499259
560729954515,29662,-2,0,3362.6890293819,6030.8215887166,11628.9477107126,-1138.9085903242,-8800.1285471341,-6235.5552554594,-9017.2732646363,-22362.4746122249,-11819.9318800455,-4944.2584301247,-6912.3225527515,-2359.6327740859,-24334.9191057079,6374.6320301457,8988.2046369263,13833.7343750297
560729954515,29662,-2,0,3359.3915835429,6034.7030840031,11634.3623357988,-1140.9770987841,-8806.3949109979,-6232.9392006425,-9023.0894237177,-22369.2398516584,-11828.7169571517,-4948.8578195238,-6918.1873826201,-2367.0063983606,-24343.6555120268,6366.7473626044,8980.9770250135,13826.9569678993
560729954515,29662,-2,0,3355.5222559532,6030.0063530295,11627.4389163066,-1148.6305800857,-8811.0916419716,-6247.8689646443,-9030.3048679337,-22373.4133716687,-11832.4402723795,-4953.7979044339,-6930.9756319810,-2367.6147832017,-24345.2616480074,6365.1290589270,8981.6219129451,13830.6194446430
560729954515,29662,-2,0,3353.3564059187,6025.9180068970,11614.8575177916,-1155.8703596954,-8809.0596366021,-6263.9546598442,-9033.2981213521,-22369.5562117758,-11828.9359756945,-4956.5234685222,-6937.4366789940,-2363.0640645899,-24338.2165515469,6370.1299823212,8987.0243703345,13838.7718015144
560729954515,29662,-2,0,3356.4348332149,6026.0031807747,11613.1418725396,-1154.7387638908,-8808.0497177658,-6262.6405485873,-9030.8037435034,-22369.1425100839,-11827.6461998312,-4955.7447359256,-6931.0851412525,-2360.8738791618,-24336.7077571409,6374.2304961505,8991.9887906383,13844.9773268941
560729954515,29662,-2,0,3356.9580441783,6027.9500122664,11621.7079311029,-1148.9712755968,-8811.0794742748,-6249.9496408010,-9028.8447443149,-22370.7973168518,-11830.6881240370,-4954.7226493925,-6922.4217411145,-2364.3295050595,-24340.2363892195,6370.8235410401,8988.6548417088,13838.4311060033
560729954515,29662,-2,0,3357.5664290194,6028.4975586234,11629.9819649425,-1143.0212718503,-8812.0407223238,-6242.0406378661,-9029.0150920705,-22370.7851491550,-11833.8030544236,-4954.9538356321,-6922.0810456035,-2368.0528202873,-24340.5284139433,6366.8447041790,8983.4592351654,13830.6437800367
560729971932,29663,-2,0,3358.0774722860,6026.2343670144,11627.6335994557,-1145.6616620609,-8811.9068776587,-6248.2339955489,-9028.2120240802,-22367.2200139858,-11831.6858751765,-4954.7104816956,-6928.2744032864,-2365.0230637784,-24338.8006009944,6371.6631121209,8987.5962520852,13836.1314113038
560729971932,29663,-2,0,3359.5010928143,6025.0419327257,11621.8782788585,-1147.5841581590,-8807.3561590469,-6257.6396251931,-9025.9610001679,-22361.8297242933,-11824.6164433223,-4951.1210111329,-6931.1459797366,-2358.7201968241,-24332.0718646513,6377.7347928355,8992.2443122715,13843.6997187277
560729971932,29663,-2,0,3361.9346321789,6028.8990926186,11620.7831861444,-1146.3673884767,-8802.7080988606,-6256.4836939949,-9020.5220396881,-22358.7999677844,-11820.1995693756,-4949.8190675728,-6925.1351375060,-2354.7656953567,-24330.2467101279,6377.8686375006,8995.0185471472,13846.9971645667
560729971932,29663,-2,0,3362.3726692645,6032.7075817242,11626.2221466243,-1141.3908004761,-8803.8518623619,-6241.4079176313,-9016.5553705238,-22358.0455705813,-11822.6939472243,-4947.9574099589,-6913.0404468640,-2355.8851234644,-24333.7631745097,6373.4274281602,8992.3051507556,13843.4563647912
560729971932,29663,-2,0,3361.5330981837,6032.3182154258,11633.2794107816,-1138.2393669989,-8805.1903090124,-6231.0775430286,-9015.7279671398,-22359.5787003810,-11824.0688969653,-4943.4431944376,-6908.2950451031,-2358.6228552495,-24335.7708444855,6375.2282472900,8991.2708965257,13839.7573849570
560729971932,29663,-2,0,3357.6394352004,6029.3614650979,11629.2762385268,-1141.9140114395,-8805.7986938536,-6237.6846024035,-9017.8938171743,-22358.4592722733,-11823.6308598797,-4943.8203930391,-6915.8876879206,-2355.8729557676,-24330.7212503040,6380.0101521414,8993.6070943157,13840.9984900330
560729971932,29663,-2,0,3356.2523177626,6026.8914226428,11618.9215285305,-1147.9005182763,-8802.3309002591,-6251.6044475689,-9019.3052700058,-22355.2470003121,-11817.2793221381,-4943.1755051075,-6921.8011885765,-2350.4218275909,-24323.6031476626,6388.5032045238,8997.8049497196,13846.0359165177
560729971932,29663,-2,0,3358.3208262225,6031.0527749563,11619.0797085892,-1146.8419286528,-8797.9505294028,-6252.1763293196,-9015.1560853891,-22350.6841140035,-11812.3635726216,-4939.1723328527,-6916.2527188253,-2346.4429907298,-24319.4174599555,6391.0584208566,8999.7882843018,13851.8520755990
560730006728,29664,-2,0,3360.9125456457,6033.7418359541,11626.2708174115,-1139.0180995956,-8798.0600386742,-6238.1956456700,-9010.9095591979,-22351.1099833923,-11815.3446583432,-4939.1479974591,-6906.5428967606,-2348.6210084611,-24325.6716561225,6385.9479881910,8996.7098570056,13847.8002325570
560730006728,29664,-2,0,3360.5231793474,6035.0559472110,11632.6345228499,-1135.2826166710,-8801.0046213054,-6227.5732463436,-9011.4206024645,-22354.7967955296,-11820.0292216201,-4941.2043382222,-6904.2432020610,-2352.2469821143,-24331.3783059324,6381.1539156428,8993.3515726824,13844.5757928989
560730006728,29664,-2,0,3358.1626461638,6030.8945948976,11631.4664239549,-1141.6098190189,-8802.2092232908,-6231.9292818062,-9015.4724455065,-22355.1496587375,-11820.2239047692,-4940.9974873762,-6911.8236771817,-2353.1960624665,-24330.2710455215,6380.0223198382,8991.4169088876,13843.1035015834
560730006728,29664,-2,0,3356.2036469753,6025.2852866622,11620.1017951223,-1149.8351820712,-8800.7977704594,-6246.7130334461,-9018.0398295362,-22355.4781865517,-11817.0238005048,-4942.6401264473,-6920.9737851926,-2350.8476969797,-24329.0421081424,6384.0984982739,8997.1722294848,13852.2779449879
560730006728,29664,-2,0,3356.1063054007,6025.2731189654,11613.8475989553,-1152.0010321057,-8798.4737403662,-6253.1497450654,-9017.3706062109,-22354.0910691139,-11814.8336150767,-4944.7573056945,-6919.9760340531,-2350.0811320798,-24327.7888353697,6384.0254920930,8996.9045401547,13853.0931806750
560730006728,29664,-2,0,3357.1162242370,6027.2321181539,11619.1283793765,-1148.3020522715,-8798.0965417647,-6240.6900235187,-9015.6306255652,-22358.1915829432,-11816.7439434779,-4942.7253003250,-6911.0327768882,-2353.5732610680,-24332.7289202798,6379.1584133638,8990.8693625305,13845.6343825225
560730006728,29664,-2,0,3356.7876964228,6029.9820176358,11628.7408598666,-1142.0600238013,-8799.5079945961,-6228.9603637814,-9014.8762283622,-22360.3209298872,-11819.3356629012,-4940.7663011365,-6906.9079276653,-2357.4304209609,-24335.1746273412,6376.2990046104,8986.5863332489,13838.1877520669
560730006728,29664,-2,0,3358.0653045892,6030.0793592104,11630.5903497837,-1139.9671799478,-8797.6098338918,-6228.8143514195,-9014.2070050369,-22358.6539554225,-11817.0846389889,-4938.0285693514,-6911.0814476755,-2355.1672293518,-24330.5143994580,6380.6307046794,8989.1537172785,13839.0394908445
560730030667,29665,-2,0,3356.9702118751,6026.5020563445,11622.6448437583,-1147.9735244573,-8791.9031840818,-6238.8040305112,-9013.5986201958,-22354.1640752948,-11808.6402573938,-4933.2588321968,-6915.0602845366,-2348.4384930087,-24322.3620425866,6388.5153722206,8997.3425772403,13848.4572881854
560730030667,29665,-2,0,3358.8440371858,6027.3294597284,11618.2766405989,-1149.2267972300,-8785.5881494307,-6241.2740729662,-9008.6220321952,-22349.4551766243,-11800.1472050114,-4928.6351074041,-6910.2053735043,-2341.9409429053,-24315.4021200039,6395.7673195271,9004.6796984246,13855.5023846459
560730030667,29665,-2,0,3361.5574335774,6033.1212834162,11623.1558870249,-1143.2281226963,-8782.1690266234,-6227.1595446516,-9004.4485121849,-22348.3965870007,-11800.4148943415,-4926.5909343378,-6900.6293961046,-2343.0238679225,-24317.3367837988,6393.6501402799,9003.0005562630,13851.2680261515
560730030667,29665,-2,0,3363.2609111326,6035.5304873871,11633.1212307229,-1136.4872186564,-8785.6246525212,-6215.0040155255,-9004.5580214564,-22354.5412738963,-11805.3428115548,-4927.2601576631,-6897.2224409942,-2348.8521947007,-24323.2989552420,6386.1305036433,8997.3547449372,13839.7817203507
560730030667,29665,-2,0,3361.9224644821,6032.6467432401,11634.6665282194,-1138.7504102655,-8790.6012405217,-6219.2505417167,-9010.0213173299,-22357.5953657989,-11812.7651066168,-4932.9546397762,-6907.1391139049,-2355.2402355328,-24328.8960957805,6380.4116861366,8991.7576043986,13831.9335558999
560730030667,29665,-2,0,3353.0035427108,6026.2587024080,11618.6173361099,-1147.4624811907,-8793.5336554561,-6235.8716155768,-9014.2678435211,-22356.2812545420,-11812.4609141962,-4936.7266257913,-6916.9949483315,-2351.7359388478,-24328.7744188123,6384.1593367580,8994.9455409662,13832.9313070394
560730030667,29665,-2,0,3344.5469934189,6022.5475548770,11607.3622165487,-1152.9136093674,-8786.8535899003,-6239.1203906286,-9005.6531141704,-22347.0581403502,-11801.8020117793,-4928.6716104945,-6909.3414670299,-2340.1401237755,-24320.2570310363,6393.0904262261,9003.1100655344,13841.7528872360
560730030667,29665,-2,0,3340.4343118927,6018.8242396492,11610.4406438449,-1149.6283312252,-8779.8206611366,-6222.5358198589,-8994.6048454552,-22337.5916722220,-11793.8565057539,-4918.4507451633,-6890.7857293749,-2331.0143511583,-24312.8712390647,6396.6190583047,9008.3300074715,13844.9529915004
560730062127,29666,-2,0,3344.6808380839,6020.0166739378,11621.7566018902,-1142.6319055520,-8778.3483698210,-6205.0021687370,-8989.5552512737,-22336.0220393318,-11794.6474060474,-4915.9198642241,-6881.1124104006,-2330.4668048013,-24314.1853503216,6395.7064810430,9008.5733614079,13843.7970603023
560730062127,29666,-2,0,3364.2099914848,6033.0969480225,11638.7183712614,-1133.1532697269,-8778.4335436988,-6202.9093248835,-8990.9180333178,-22336.3018963587,-11796.9836038374,-4915.7738518622,-6886.5027000932,-2332.8760087722,-24316.5945542926,6395.8038226176,9008.0014796572,13844.8678176227
560730062127,29666,-2,0,3381.4272824892,6045.0577939995,11645.3741014236,-1128.8945758389,-8776.2920290580,-6216.3181267824,-8993.3880757729,-22335.4866606716,-11794.0025181158,-4915.6035041067,-6895.8718266469,-2330.6006494663,-24312.6278851283,6398.7970760360,9010.2160004790,13849.7470640487
560730062127,29666,-2,0,3399.1921198507,6057.4810124557,11648.7567211403,-1124.2465156525,-8769.1252556292,-6223.8499311158,-8990.3339838703,-22330.1937125536,-11787.0060924426,-4913.4498217690,-6896.4072053071,-2325.3563721356,-24307.3471047071,6404.4915581492,9012.8442229928,13853.2635284305
560730062127,29666,-2,0,3416.2268954028,6072.7636396653,11662.7252370931,-1112.5776943993,-8764.3433507778,-6213.3248733639,-8986.1604638601,-22328.7579243285,-11784.2075221733,-4910.0793697491,-6885.9186506457,-2325.0765151087,-24308.0041603356,6402.2405342369,9010.9095591979,13851.0125045183
560730062127,29666,-2,0,3430.1832436588,6081.8894122825,11685.1746377314,-1100.5316745446,-8763.5037796970,-6196.6186256260,-8985.1018742365,-22332.1283763485,-11786.8844154744,-4909.4588172111,-6879.3237589677,-2331.3672143662,-24311.9099910157,6395.8768287985,9006.9307223368,13843.4563647912
560730062127,29666,-2,0,3446.8286529125,6095.8579282352,11700.8953020267,-1089.3982319516,-8757.9431422490,-6188.7704611752,-8982.8143472338,-22330.4735695806,-11785.1687702223,-4907.5241534163,-6879.5914482978,-2329.8949230506,-24309.0749176560,6397.6411448379,9004.6796984246,13838.0295720082
560730062127,29666,-2,0,3464.0824470075,6107.2225570679,11708.8773111425,-1082.3044647039,-8749.5352637443,-6192.5789502808,-8978.0081069887,-22323.6474916629,-11776.2498484511,-4900.2965415034,-6882.9497326209,-2321.2193552158,-24298.5376922073,6408.7015812499,9014.8153898781,13850.1972688311
560730094391,29667,-2,0,3482.7233585402,6122.4200103997,11716.4212831727,-1074.2616171039,-8738.3531503640,-6196.3874393864,-8970.2694518093,-22314.3392035933,-11762.8532142491,-4890.4650424705,-6877.1457412363,-2310.4144404370,-24287.0148833160,6419.8350238429,9022.5905481480,13862.5109780159
560730094391,29667,-2,0,3500.2205065716,6139.1262581376,11729.2460356241,-1061.0961691415,-8732.3179727398,-6187.2494990724,-8962.6524735981,-22309.0584231722,-11759.2880790800,-4887.2162674188,-6868.6526888539,-2307.1900007790,-24285.0802195211,6420.3704025031,9023.8559886175,13864.3604679330
560730094391,29667,-2,0,3512.6437250278,6148.2520307548,11743.0685392150,-1051.0943223530,-8737.0755421976,-6175.0452991590,-8962.8228213537,-22312.7695707032,-11764.9947288899,-4889.4429559374,-6862.5323373520,-2313.3590230682,-24293.3785887544,6411.5974930938,9017.9059848711,13856.8043282060
560730094391,29667,-2,0,3522.0128515815,6154.9199286138,11756.1731486933,-1046.7139514968,-8740.9692051810,-6171.3219839311,-8965.9377517403,-22315.7384887280,-11770.0443230714,-4891.3897874290,-6864.1749764231,-2315.8655686137,-24298.9757292929,6406.6574081837,9014.2921789147,13854.7723228366
560730094391,29667,-2,0,3534.2292191917,6162.7559253678,11760.3588364004,-1043.7693688656,-8736.6740082025,-6179.4500054089,-8966.7286520338,-22312.3802044048,-11765.5909460342,-4890.1000115658,-6871.4147560327,-2311.3756884861,-24294.0721474733,6410.9647728590,9020.9722444705,13862.2311209890
560730094391,29667,-2,0,3554.5249374924,6176.3715781127,11764.8487165280,-1038.3182406889,-8728.0836142455,-6186.5437726566,-8961.1193437984,-22304.7753938905,-11754.8225343459,-4883.7241384306,-6870.3318310155,-2301.2765001230,-24282.6101770661,6423.1933081660,9033.3954629267,13876.2604754259
560730094391,29667,-2,0,3574.2366063456,6194.3797694106,11780.8979086375,-1024.6052463695,-8717.5463887968,-6176.6149320491,-8951.6285402766,-22298.1196637284,-11746.5241651127,-4875.1580798672,-6857.3732338991,-2295.8983781273,-24274.4213171042,6428.3645793158,9037.9340138417,13881.4439142724
560730094391,29667,-2,0,3587.8157560000,6208.5064654220,11799.9038510749,-1011.1721090769,-8714.2976137451,-6155.1511148534,-8945.7515427111,-22298.2535083934,-11744.6868428924,-4870.4126781063,-6845.4245556189,-2296.6406076335,-24275.8571053293,6428.7417779173,9038.7370818320,13878.8765302428
560730153157,29668,-2,0,3591.9649406166,6212.7529916132,11807.0097860195,-1006.6822289493,-8714.2367752610,-6145.6603113315,-8944.9849778112,-22300.7478862421,-11747.0473760761,-4868.9403867907,-6843.0275193448,-2298.3440851887,-24278.2906446939,6428.0968899857,9038.0070200226,13876.5646678464
560730153157,29668,-2,0,3593.8996044114,6210.9278370898,11808.5915866065,-1008.5317188664,-8714.6504769529,-6154.3358791663,-8947.3333432981,-22299.8474766772,-11745.6845940319,-4868.5023497051,-6851.3015531844,-2297.4680110174,-24278.7408494764,6428.6444363427,9036.7780826435,13875.3235627705
560730153157,29668,-2,0,3600.7378500259,6212.9963455497,11802.5929120728,-1011.6466492530,-8709.6130504682,-6165.9195265417,-8945.1188224763,-22295.5766150924,-11740.6471675472,-4868.2833311623,-6854.5503282361,-2292.4670876232,-24272.7665103363,6434.0468937321,9040.5987394459,13880.0324614410
560730153157,29668,-2,0,3608.2939897530,6219.8710942547,11806.7420966894,-1005.1734345432,-8700.9861534208,-6159.0934486241,-8934.8127832672,-22285.5139298198,-11731.8377550474,-4860.7880299193,-6842.6503207433,-2283.9862029376,-24266.5974880471,6440.1307421436,9045.7335075052,13884.8995401702
560730153157,29668,-2,0,3612.1268142522,6225.2978870377,11818.8124519378,-997.3861085766,-8698.9541480513,-6142.2168531307,-8930.9191202839,-22285.4652590325,-11731.4362210522,-4857.6974349263,-6831.5655489376,-2286.9186178719,-24268.6538288102,6435.0689802652,9043.6528313485,13879.6187597490
560730153157,29668,-2,0,3613.6234409614,6227.7192587055,11824.9449711365,-992.9814023267,-8703.6022082377,-6135.7558061177,-8933.1823118930,-22290.4175116394,-11736.9360200162,-4860.5081728924,-6833.9869206054,-2292.7226092565,-24272.7908457300,6431.4916773993,9038.9439326780,13873.4254020661
560730153157,29668,-2,0,3609.5959333130,6223.2537139714,11819.0193027838,-997.3861085766,-8707.6053804925,-6147.9965091215,-8938.5482661919,-22293.3499265738,-11741.0852046328,-4865.7767856167,-6845.8625927046,-2293.6838573055,-24274.4943232852,6429.2284857902,9036.6807410689,13872.4641540171
560730153157,29668,-2,0,3602.5995076398,6215.7827481222,11805.2333022834,-1009.6268115804,-8710.1484291284,-6165.4571540625,-8943.0624817132,-22293.0700695468,-11740.4038136107,-4868.6848651574,-6853.1510431015,-2290.6541007966,-24271.9391069524,6427.6345175064,9035.6708222326,13874.9463641690
560730158859,29669,-2,0,3599.5089126468,6212.1689421657,11799.2346277497,-1012.8512512385,-8706.7293063212,-6166.8321038035,-8938.0615583190,-22288.3855062700,-11736.5709891115,-4866.0323072500,-6846.9455177218,-2286.8091086005,-24270.7953434510,6433.6940305242,9039.8321745461,13878.0612945557
560730158859,29669,-2,0,3597.5134103679,6211.2320295104,11805.4523208262,-1008.4222095950,-8702.7991402474,-6148.7509063246,-8931.4058281568,-22286.8037056830,-11736.0721135418,-4862.7591968047,-6835.1063487131,-2287.3079841703,-24272.4014794316,6432.9396333212,9037.9705169321,13875.2262211959
560730158859,29669,-2,0,3590.8211771152,6203.9922499007,11808.0440402495,-1008.8237435901,-8707.9460760035,-6140.4160340009,-8933.2674857707,-22291.6464490185,-11740.9513599678,-4863.1728984966,-6834.6561439306,-2293.8420373642,-24277.0008688307,6427.7318590810,9032.9452581443,13871.0527011857
560730158859,29669,-2,0,3585.1753657894,6199.0886680811,11804.3328927185,-1013.3379591114,-8710.2822737935,-6147.9478383343,-8938.3170799523,-22294.4328515910,-11742.3263097088,-4864.7668667804,-6844.4268044795,-2294.9492977751,-24276.5384963514,6428.5835978586,9035.5734806580,13873.7904329708
560730158859,29669,-2,0,3579.0671819843,6188.8191319625,11790.8632523355,-1023.6926691078,-8706.2791015388,-6159.7505042525,-8939.9475513265,-22290.9772256933,-11737.2523801336,-4863.7204448537,-6850.9730253702,-2289.6928527476,-24269.5177352846,6436.0910667983,9043.2147942628,13883.8044474561
560730158859,29669,-2,0,3575.5142145120,6185.6068600013,11783.2341064275,-1030.0563745462,-8700.9618180271,-6161.5026525950,-8937.2584903287,-22289.6144436491,-11730.6574884556,-4860.6541852543,-6844.9500154428,-2285.8965313388,-24262.6186511860,6442.8563062319,9049.5784997012,13889.8761281707
560730158859,29669,-2,0,3570.7566450542,6183.2828299081,11788.1255205503,-1029.3384804336,-8701.6918798365,-6148.7265709309,-8934.8979571450,-22290.6243624854,-11731.7769165633,-4859.8389495671,-6836.8098262683,-2287.8798659210,-24262.9958497875,6443.4646910731,9050.4545738725,13888.2699921901
560730158859,29669,-2,0,3559.3676808279,6174.0840511099,11784.0493421146,-1031.2853119253,-8708.9194917493,-6141.4989590181,-8939.4243403631,-22296.1849999335,-11740.0752857965,-4864.4018358758,-6836.6638139064,-2293.7203603960,-24270.2843001844,6438.3055876201,9045.3441412069,13882.8188640134
560730182225,29670,-2,0,3548.1977351445,6164.8974400086,11777.4422827398,-1038.6711038968,-8714.3949553197,-6149.2741172880,-8944.7659592684,-22299.5189488630,-11745.5750847605,-4867.8452940766,-6846.5804868171,-2296.7622846017,-24274.0319508059,6433.6940305242,9043.3729743215,13883.1352241308
560730182225,29670,-2,0,3535.4581565709,6154.0560221394,11760.6508611241,-1052.4692720940,-8716.6094761414,-6166.2602220528,-8949.3896840611,-22299.6649612249,-11743.8959425989,-4871.0697337347,-6856.5458305151,-2294.4504222054,-24273.8250999599,6432.7449501720,9044.8452656371,13886.1771483366
560730182225,29670,-2,0,3529.4594820371,6145.4899635760,11749.1645553233,-1060.9501567796,-8716.1349359653,-6175.3373238827,-8949.9250627213,-22299.2269241392,-11744.2001350195,-4873.6127823707,-6857.6044201387,-2293.3553294913,-24273.3262243902,6433.1221487736,9044.9304395149,13886.7246946936
560730182225,29670,-2,0,3527.1841227312,6146.5242178060,11752.9122059447,-1056.9713199185,-8719.6635680440,-6165.7978495735,-8949.1828332151,-22303.3517733622,-11748.6048412694,-4873.3815961311,-6849.0140261817,-2298.0642281618,-24276.8183533784,6429.0338026410,9037.9218461449,13878.1708038271
560730182225,29670,-2,0,3524.7505833667,6143.8229891113,11760.0546439798,-1053.3088431748,-8725.2485408857,-6155.6378227264,-8952.5289498415,-22306.4667037489,-11753.8612862969,-4874.1481610309,-6844.8161707778,-2303.6978717908,-24280.7971902395,6421.9765384837,9030.4143772051,13868.4244786719
560730182225,29670,-2,0,3519.0317658599,6135.8288122986,11755.8202854854,-1059.3196854053,-8725.8812611205,-6157.5968219149,-8956.5929605803,-22310.8714099988,-11755.4674222775,-4876.4113526400,-6852.1289565684,-2305.2675046809,-24282.5006677947,6422.1225508456,9032.6167303301,13868.7408387893
560730182225,29670,-2,0,3509.1880991301,6124.1113202581,11742.6426698262,-1071.8524131330,-8725.5283979126,-6173.8893679608,-8960.3649465954,-22310.5550498814,-11751.6954362624,-4877.4091037795,-6862.1794741441,-2300.8384630374,-24277.8039368210,6425.7850275893,9035.8411699881,13872.5371601980
560730182225,29670,-2,0,3504.2480142200,6116.4700066533,11732.0446058934,-1079.5910683124,-8722.5716475847,-6180.5085950325,-8957.5420409325,-22307.3306102233,-11745.5507493669,-4875.5474461656,-6858.4196558258,-2294.5842668704,-24268.8850150498,6433.6696951306,9042.5699063312,13882.1618083850
560730222492,29671,-2,0,3505.6107962642,6120.6678620572,11736.5953245052,-1073.5072199009,-8718.1669413348,-6167.2701408891,-8949.4626902421,-22301.7821404721,-11743.5187439974,-4871.0940691284,-6844.9621831397,-2291.7491935107,-24266.5974880471,6441.5300272782,9047.5221589382,13885.4714219208
560730222492,29671,-2,0,3505.3431069341,6120.2906634557,11744.0906257481,-1068.2021040861,-8720.2841205820,-6153.2894572395,-8947.3941817822,-22301.5266188388,-11745.8062710001,-4868.0764803163,-6835.3131995591,-2291.2624856377,-24269.4690644973,6440.1672452340,9046.4392339209,13883.0622179499
560730222492,29671,-2,0,3498.9307307084,6115.3384108488,11743.4944086038,-1072.0470962821,-8724.5428144700,-6156.5260645944,-8950.2414228387,-22302.9624070639,-11749.6512631962,-4869.7191193874,-6841.2023648214,-2294.4017514181,-24273.4479013584,6436.8089609109,9043.9691914659,13881.2979019106
560730222492,29671,-2,0,3493.3457578666,6109.7169349166,11733.2127047884,-1078.4959755983,-8723.0461877608,-6169.2656431681,-8950.2535905356,-22302.0863328926,-11748.3371519393,-4872.3595095980,-6850.7905099179,-2291.1651440632,-24271.2942190207,6439.1086556104,9048.4712392903,13885.4592542240
560730222492,29671,-2,0,3489.2209086437,6105.6894272682,11722.2496099509,-1084.2026254082,-8720.5274745184,-6178.4644219662,-8948.9151438850,-22297.2070864666,-11744.4191535623,-4872.0796525710,-6851.8369318446,-2288.4760830653,-24270.9900266002,6441.1163255862,9049.9556983027,13888.5863523075
560730222492,29671,-2,0,3490.3890075387,6109.9359534594,11727.0558501960,-1080.8443410851,-8719.3107048361,-6169.7766864346,-8945.3013379286,-22297.7668005205,-11744.4434889560,-4869.1715730303,-6843.5872333987,-2291.2138148504,-24275.8206022389,6434.0712291257,9044.6870855784,13884.2059814513
560730222492,29671,-2,0,3490.8148769275,6112.0896357970,11736.6683306861,-1074.9551758228,-8719.6392326503,-6152.4255507651,-8943.2084940751,-22300.2855137628,-11748.2276426679,-4868.2224926782,-6837.7224035300,-2295.3143286798,-24281.1987242346,6426.8922880002,9039.0656096462,13876.4064877877
560730222492,29671,-2,0,3489.5129333674,6109.0477115913,11739.4912363490,-1073.6532322628,-8722.6203183720,-6150.4178807893,-8945.5203564714,-22303.8993197193,-11753.3989138176,-4868.7943744288,-6843.5020595209,-2298.9524700298,-24288.0004667586,6420.0905454762,9030.4387125987,13868.3271370973
560730244730,29672,-2,0,3484.9622147556,6102.7813477275,11734.6119899230,-1079.8952607329,-8721.1236916627,-6161.7581742283,-8947.8565542614,-22303.4491149368,-11752.0726348639,-4867.9183002576,-6852.7860121968,-2297.6505264698,-24286.5768462304,6420.1757193539,9027.8469931755,13869.2397143590
560730244730,29672,-2,0,3485.6801088682,6104.4239867986,11726.9098378341,-1082.0246076769,-8712.5941361899,-6167.0632900431,-8943.1598232878,-22296.6108693223,-11742.5939990389,-4863.8664572155,-6850.7540068274,-2289.6563496571,-24278.2663093003,6428.9486287633,9034.8677542423,13874.8855256849
560730244730,29672,-2,0,3490.0848151181,6109.2302270437,11730.2437867636,-1076.2206162924,-8706.9239894704,-6156.3070460516,-8935.7131928321,-22291.1719088425,-11737.0455292876,-4857.5514225644,-6839.3285395106,-2285.6653450992,-24273.9589446250,6433.5236827687,9039.7226652747,13878.5480024286
560730244730,29672,-2,0,3489.6711134261,6109.1815562564,11740.1847950679,-1071.0250097490,-8707.4593681306,-6139.3087735900,-8932.7564425042,-22293.2039142119,-11739.1627085348,-4854.2418090286,-6829.6065497491,-2288.9749586350,-24275.3947328501,6431.5768512770,9036.9605980958,13875.6034197974
560730244730,29672,-2,0,3481.2632349215,6102.8421862116,11737.9702742462,-1073.6410645659,-8711.7180620186,-6137.1672589491,-8936.7839501526,-22296.4405215668,-11741.5475771121,-4856.6875160900,-6834.1451006641,-2292.8199508311,-24275.3095589723,6431.5525158834,9036.3765486483,13873.2307189170
560730244730,29672,-2,0,3477.5764227841,6096.9530209493,11728.1266075164,-1080.0656084884,-8711.9249128646,-6148.6779001436,-8940.4585945931,-22296.0998260557,-11739.8440995569,-4858.7316891563,-6842.8206684988,-2289.0844679064,-24270.3329709717,6439.2790033660,9042.1683723361,13879.6430951426
560730244730,29672,-2,0,3473.9504491309,6093.1688672374,11717.7718975201,-1087.9624437265,-8707.8852375194,-6158.8257592940,-8938.5360984951,-22290.4661824267,-11730.7426623333,-4855.3490694395,-6842.3826314132,-2280.5305770399,-24262.5699803987,6449.2078439735,9050.8317724740,13890.1194821072
560730244730,29672,-2,0,3473.7922690722,6095.0548602449,11718.7939840532,-1085.2125442446,-8704.1375868979,-6152.8757555475,-8931.7343559710,-22285.1488989151,-11727.6520673403,-4853.4144056446,-6830.6408039791,-2273.9478530587,-24260.3676272737,6452.4566190252,9056.8912854918,13894.6823684158
560730279790,29673,-2,0,3472.1861330916,6095.4077234528,11725.0360125234,-1080.1386146694,-8707.2525172846,-6139.8563199470,-8929.7753567825,-22287.2660781623,-11734.2347913215,-4856.3224851853,-6823.7903906677,-2277.8658514357,-24268.4834810546,6447.7963911420,9053.9223674670,13890.2533267723
560730279790,29673,-2,0,3465.7372537754,6088.6424840192,11724.7439877996,-1083.4725635989,-8713.6527258135,-6138.7003887488,-8936.5649316098,-22294.9682302512,-11741.4015647502,-4862.0656380857,-6830.1905991966,-2285.0326248644,-24275.0540373390,6441.2014994640,9049.0309533442,13885.1915648939
560730279790,29673,-2,0,3459.8359208163,6082.8993311188,11717.9909160629,-1093.5230811746,-8717.5828918873,-6155.5526488486,-8945.9218904666,-22299.7988058899,-11745.3560662177,-4869.5731070255,-6845.5097294967,-2286.5779223609,-24275.8571053293,6441.1771640703,9048.2278853539,13888.0266382537
560730279790,29673,-2,0,3457.4875553294,6077.7645630595,11703.9858970197,-1101.9309596793,-8716.0375943908,-6172.0763811342,-8947.9295604424,-22298.7037131759,-11742.8130175817,-4874.2576703023,-6853.3943970380,-2282.3435638665,-24272.2432993729,6443.8662250682,9055.4433295699,13895.9356411886
560730279790,29673,-2,0,3459.5560637893,6080.5753010256,11704.7524619195,-1100.0571343685,-8713.7987381753,-6170.5675867281,-8944.6442823002,-22294.9073917671,-11740.0022796156,-4871.5442739108,-6844.7553322937,-2278.7784286974,-24270.8196788446,6447.2975155723,9060.8457869593,13904.3435196932
560730279790,29673,-2,0,3465.4452290516,6089.4942227968,11716.4699539600,-1088.8993563819,-8712.1926021947,-6154.8834255233,-8939.3148310917,-22291.6221136249,-11739.9414411315,-4867.6627786243,-6832.0157537201,-2279.3624781449,-24270.2112940035,6445.9103981345,9060.3469113895,13900.0239873211
560730279790,29673,-2,0,3468.2924701082,6091.4410542885,11723.8192428411,-1083.9227683813,-8713.7135642976,-6146.7797394393,-8939.5946881187,-22294.5788639529,-11742.7521790976,-4867.0178906927,-6832.3686169279,-2282.5260793189,-24274.1292923805,6444.2190882761,9057.5483411203,13896.0329827632
560730279790,29673,-2,0,3467.6232467829,6089.9200921856,11721.2761942051,-1087.7190897901,-8717.0110101366,-6156.9032631959,-8945.2404994445,-22296.6108693223,-11744.5529982274,-4867.2490769323,-6841.7012403911,-2283.8523582726,-24273.4965721457,6443.2700079239,9058.4609183820,13900.9000614923
560730318538,29674,-2,0,3465.7980922595,6087.0120126450,11712.0165769228,-1093.9367828666,-8714.6626446498,-6170.6770959995,-8948.3554298312,-22294.8343855862,-11740.1726273711,-4865.7767856167,-6849.5859079324,-2281.3579804239,-24269.5542383751,6444.6814607553,9060.7119422942,13906.9717422070
560730318538,29674,-2,0,3468.3168055019,6088.0340991781,11707.7578830348,-1093.3770688127,-8711.9005774710,-6169.9713695838,-8946.0557351316,-22293.1552434246,-11737.1793739527,-4863.2459046776,-6845.1081955015,-2281.3701481207,-24268.2401271182,6445.0829947505,9057.6456826948,13904.7572213852
560730318538,29674,-2,0,3473.1595488374,6093.5217304452,11720.4609585179,-1085.5167366651,-8711.5112111726,-6153.9465128680,-8943.4031772242,-22295.7834659383,-11739.8806026474,-4860.0823035036,-6837.6493973491,-2286.8821147815,-24273.5574106298,6437.8675505345,9050.1260460583,13897.0307339026
560730318538,29674,-2,0,3471.7845990964,6091.3072096235,11726.4596330517,-1084.2512961955,-8715.2710294909,-6143.9446660795,-8944.3279221828,-22300.4801969120,-11746.7796867460,-4860.3378251369,-6837.6737327427,-2293.0998078580,-24280.5173332125,6431.5038450961,9045.2467996323,13890.7522023420
560730318538,29674,-2,0,3469.5335751842,6086.1724415642,11723.6732304792,-1088.1084560884,-8717.6315626746,-6149.2254465007,-8949.1219947310,-22301.6969665943,-11747.7531024918,-4861.4815886382,-6846.1789528220,-2292.3940814423,-24278.5096632367,6434.6066077859,9046.5852462828,13892.8328784987
560730318538,29674,-2,0,3470.7381771696,6084.6636471581,11717.5285435836,-1093.1458825731,-8712.7401485517,-6161.1011185999,-8947.9052250487,-22296.0876583589,-11741.3772293566,-4859.3157386038,-6850.0847835021,-2287.3688226544,-24270.6980018764,6443.7810511904,9052.7421008752,13903.6377932775
560730318538,29674,-2,0,3474.3884862165,6088.8371671684,11718.5627978136,-1092.3671499764,-8707.7270574607,-6158.9352685654,-8941.0183086469,-22290.6973686664,-11734.5024806516,-4854.9718708380,-6841.5430603324,-2282.2097192015,-24264.5046441935,6450.2664335971,9057.6456826948,13908.6752197622
560730318538,29674,-2,0,3479.4137450044,6098.1332875411,11728.2117813942,-1081.4405582294,-8706.5467908689,-6144.3096969842,-8937.1733164509,-22289.6752821332,-11736.6318275956,-4853.8889458207,-6831.5533812408,-2283.5116627615,-24265.7822523599,6449.7797257242,9054.8106093351,13902.9929053459
560730342082,29675,-2,0,3480.0221298455,6102.1242920991,11736.9846908035,-1074.6023126149,-8710.2336030062,-6133.8698131101,-8937.7086951111,-22292.0114799232,-11741.6084155962,-4856.4806652440,-6829.6917236269,-2289.2669833588,-24271.9147715587,6444.4746099094,9048.5199100776,13893.8671327287
560730342082,29675,-2,0,3476.8585286716,6098.1576229348,11734.1131143533,-1078.9340126839,-8715.2223587036,-6142.5940517322,-8943.2571648624,-22296.2336707208,-11745.7454325160,-4861.5910979097,-6840.7156569485,-2292.1993982931,-24276.4533224737,6439.1694940946,9043.6041605612,13889.0608924836
560730342082,29675,-2,0,3476.1528022558,6095.1887049100,11723.9165844157,-1084.9935257017,-8713.2025210310,-6159.5558211033,-8944.6077792097,-22293.9218083244,-11743.8837749021,-4865.1562330788,-6849.5007340546,-2287.3201518671,-24273.6912552949,6441.7612135178,9043.9326883754,13893.8671327287
560730342082,29675,-2,0,3477.7467705396,6096.2351268368,11719.4023688943,-1085.4072273937,-8710.0510875539,-6165.7491787862,-8939.7407004805,-22287.6676121574,-11737.9337711557,-4863.6839417632,-6844.3537982985,-2282.8546071331,-24267.8994316071,6444.5597837871,9049.2621395838,13898.4421867341
560730342082,29675,-2,0,3481.7621104912,6100.5303238153,11727.9562597609,-1078.6541556570,-8709.3088580477,-6153.1799479681,-8935.1778141719,-22286.6941964116,-11738.6760006619,-4861.5302594255,-6834.3032807228,-2282.5990854998,-24269.0675305021,6442.9536478065,9051.8416913103,13900.8027199177
560730342082,29675,-2,0,3480.8738686231,6100.4816530280,11734.3321328961,-1074.4197971626,-8713.9812536277,-6145.3561189110,-8936.5284285193,-22292.2183307692,-11745.4534077923,-4867.9913064385,-6833.8165728499,-2288.2935676129,-24274.2996401360,6439.9968974785,9049.5541643076,13896.4466844551
560730342082,29675,-2,0,3474.4249893070,6095.0061894576,11727.7859120054,-1079.9439315202,-8719.3715433202,-6154.0195190489,-8944.3400898796,-22298.5698685108,-11751.7684424434,-4875.2067506545,-6845.0595247143,-2292.8929570120,-24277.9256137892,6436.4317623094,9048.4712392903,13895.5462748902
560730342082,29675,-2,0,3469.9716122698,6089.4333843127,11718.5019593294,-1089.1427103184,-8719.4688848948,-6171.4436608994,-8948.8421377041,-22298.7767193568,-11749.9797910104,-4878.8813950951,-6854.6598375076,-2290.3255729824,-24273.7885968694,6439.4371834247,9051.9146974912,13904.2218427250
560730373127,29676,-2,0,3471.5899159472,6088.8736702589,11712.3572724339,-1091.8439390131,-8714.0542598086,-6176.8582859856,-8946.1774120999,-22294.5545285592,-11743.5065763006,-4880.3658541075,-6853.2240492824,-2285.1177987422,-24267.0841959200,6443.4890264667,9055.5406711445,13908.3953627353
560730373127,29676,-2,0,3473.3055611993,6091.9886006455,11715.8859045125,-1087.9624437265,-8713.7257319944,-6166.1750481750,-8943.5978603734,-22296.1971676303,-11744.8450229511,-4879.1125813347,-6843.1370286162,-2288.3544060971,-24269.2743813481,6440.6782885006,9052.9976225085,13903.4796132188
560730373127,29676,-2,0,3471.7115929155,6091.8790913741,11722.0792621954,-1084.8231779462,-8720.4423006407,-6156.5138968976,-8947.8687219583,-22302.7312208242,-11752.3281564972,-4881.4974499120,-6843.6115687923,-2296.8474584795,-24276.6236702292,6430.3965846852,9042.6672479058,13891.9689720243
560730373127,29676,-2,0,3466.1631231642,6085.6613982976,11717.8084006105,-1090.6636724212,-8726.5991552331,-6162.0623666489,-8955.7777248932,-22308.6812245707,-11757.6819430993,-4886.2915224602,-6853.5890801871,-2302.9921453751,-24281.2108919314,6427.5858467191,9038.9682680716,13888.6106877012
560730373127,29676,-2,0,3466.0414461960,6082.3761201554,11709.3153482281,-1094.9101986124,-8724.5671498636,-6172.9402876086,-8955.6195448345,-22304.4225306826,-11754.1898141111,-4883.5902937655,-6860.5246673762,-2296.7379492081,-24275.6989252706,6434.0712291257,9045.3441412069,13896.8847215408
560730373127,29676,-2,0,3465.6520798976,6081.5487167715,11704.9714804623,-1098.1224705737,-8720.4179652470,-6178.2819065139,-8953.3806886191,-22299.5432842566,-11746.7188482619,-4877.9566501365,-6857.1055445690,-2290.9582932172,-24271.0630327811,6440.7391269847,9051.8781944008,13905.5237862850
560730373127,29676,-2,0,3467.7449237512,6086.9268387672,11706.5532810493,-1093.2675595413,-8719.7122388313,-6167.4161532510,-8949.8885596309,-22300.1151660073,-11747.1568853475,-4874.1116579405,-6846.1302820347,-2291.3719949091,-24271.6349145318,6439.1329910041,9052.2310576086,13903.1997561919
560730373127,29676,-2,0,3469.3875628223,6088.9345087430,11717.2365188599,-1085.7965936921,-8721.3305425087,-6153.0217679094,-8947.2846725108,-22302.8772331861,-11750.6855174261,-4872.4568511725,-6839.6083965376,-2297.1759862937,-24277.6214213687,6434.8012909351,9049.1161272220,13895.6922872521
560730405627,29677,-2,0,3467.3677251497,6085.2963673929,11720.5826354862,-1085.4193950905,-8724.0196035066,-6149.3592911657,-8949.1341624279,-22303.7776427510,-11752.9243736416,-4869.0133929716,-6842.4799729878,-2297.7357003475,-24278.8016879605,6433.8643782797,9046.8407679161,13892.9302200733
560730405627,29677,-2,0,3464.2892978535,6080.6483072066,11713.2455143019,-1092.7443485780,-8724.0074358098,-6161.1741247808,-8951.4825279147,-22302.0376621053,-11750.6125112452,-4869.5974424191,-6850.5106528909,-2295.9592166114,-24276.9035272561,6435.8720482555,9046.1228738035,13894.0983189683
560730405627,29677,-2,0,3462.9265158093,6077.8254015436,11703.2680029071,-1098.9620416545,-8722.5838152815,-6170.1538850361,-8950.4482736847,-22298.6793777822,-11746.3659850540,-4867.3829215974,-6851.2772177908,-2290.9947963076,-24273.8981061409,6438.1717429551,9048.2035499602,13896.5926968170
560730405627,29677,-2,0,3463.6200745282,6080.7213133875,11709.0719942917,-1095.4699126663,-8722.1214428022,-6161.2836340522,-8947.4550202663,-22298.6915454790,-11745.8549417874,-4863.1850661935,-6841.5308926356,-2291.5058395742,-24274.0076154123,6436.6629485490,9048.5564131681,13894.5971945380
560730405627,29677,-2,0,3467.7935945385,6085.3815412707,11721.8115728653,-1086.9403571934,-8722.9123430957,-6146.4390439282,-8945.5811949556,-22300.0543275232,-11747.7409347950,-4862.7591968047,-6834.7291501116,-2294.5234283863,-24278.2298062098,6432.3434161769,9045.1616257545,13888.7445323662
560730405627,29677,-2,0,3470.2514692967,6086.9633418577,11725.4983850026,-1084.2269608019,-8724.0074358098,-6144.5287155270,-8947.7713803837,-22300.3828553374,-11750.3448219151,-4865.3022454407,-6839.1946948456,-2296.4215890907,-24280.9797056918,6429.7881998441,9043.7501729230,13886.7246946936
560730405627,29677,-2,0,3468.8278487684,6083.4833805663,11720.9598340877,-1089.2522195898,-8725.7230810618,-6159.4463118319,-8951.5555340956,-22299.7623027994,-11748.7508536313,-4865.3265808343,-6848.7098337611,-2294.4504222054,-24279.4587435889,6432.5259316292,9045.4536504783,13893.3317540685
560730405627,29677,-2,0,3467.4528990274,6081.5243813778,11713.5740421162,-1094.6181738887,-8722.4012998291,-6171.3949901121,-8950.4726090784,-22297.6086204618,-11745.0397061003,-4866.1904873087,-6852.0924534779,-2289.2913187524,-24274.9810311581,6436.1762406761,9047.7655128746,13900.1943350766
560730435699,29678,-2,0,3467.4894021179,6077.8984077246,11710.1305839153,-1096.1391359916,-8725.1511993111,-6171.3341516280,-8952.3099312986,-22301.2710972055,-11747.4489100712,-4870.1814918667,-6848.9896907881,-2292.6252676819,-24277.3050612513,6432.5624347197,9043.9448560722,13898.1014912230
560730435699,29678,-2,0,3466.1874585578,6077.6915568786,11716.2144323267,-1095.8836143583,-8730.3346381577,-6161.5513233823,-8954.0864150348,-22307.7321442185,-11753.9586278715,-4873.3207576470,-6845.6922449490,-2299.7677057170,-24282.6831832470,6425.9310399512,9038.4693925019,13892.2123259607
560730435699,29678,-2,0,3462.2816278777,6072.7879750589,11717.0053326202,-1097.2707317961,-8736.0656233613,-6161.0767832062,-8959.0021645513,-22313.5969740871,-11759.8842962243,-4878.7232150364,-6851.4597332431,-2305.3283431651,-24286.3091569002,6422.9986250169,9036.2670393769,13889.4867618724
560730435699,29678,-2,0,3460.4199702638,6070.4396095721,11709.4370251964,-1104.3036605597,-8735.0922076155,-6173.3539893006,-8962.1292626348,-22312.0516765906,-11758.2903279405,-4881.9598223913,-6861.7292693617,-2302.2134127784,-24279.9819545523,6428.8999579760,9043.5798251675,13895.7896288267
560730435699,29678,-2,0,3460.6876595939,6067.8600578457,11698.9363028382,-1109.5966086777,-8730.9430229989,-6184.9498043728,-8962.7619828695,-22309.4964602578,-11752.9487090352,-4880.8403942835,-6864.4183303596,-2296.6892784208,-24274.2509693487,6434.8377940256,9049.0796241315,13904.1975073313
560730435699,29678,-2,0,3458.9355112514,6066.1565802904,11696.3324157180,-1110.6917013918,-8732.1476249843,-6184.4509288031,-8961.4357039158,-22308.4987091183,-11752.4498334655,-4882.7507226847,-6858.5048297036,-2297.3706694429,-24274.1779631678,6435.2028249303,9048.5807485618,13903.3214331601
560730435699,29678,-2,0,3456.7696612169,6067.2151699140,11700.3355879728,-1106.8345414989,-8733.8511025395,-6169.0344569284,-8959.5983816956,-22310.8714099988,-11755.6864408204,-4883.5781260687,-6852.6886706222,-2300.8262953406,-24277.2077196767,6432.4407577515,9043.6528313485,13895.7166226458
560730435699,29678,-2,0,3447.4127023600,6061.1069861089,11700.9804759044,-1105.6907779976,-8737.0877098944,-6163.2913040280,-8961.6912255491,-22314.7529052853,-11760.5778549432,-4883.1522566799,-6854.4043158743,-2304.4522689938,-24280.3834885475,6425.5903444401,9040.8299256855,13893.3925925526
560730468201,29679,-2,0,3438.7736376158,6052.6139337265,11692.5969327934,-1113.6362840229,-8740.5555034890,-6173.7920263862,-8967.5195523273,-22316.3590412659,-11761.8067923223,-4885.6953053159,-6866.3894972449,-2303.8925549400,-24283.4497481469,6426.9166233938,9040.4283916904,13895.5827779807
560730468201,29679,-2,0,3442.8133129610,6051.4945056188,11684.5054144062,-1120.0973310359,-8739.4847461686,-6189.9872308575,-8971.0116813155,-22319.2306177162,-11760.0059731925,-4889.2361050914,-6876.2696670651,-2303.4666855512,-24281.4177427774,6428.9364610665,9041.9615214901,13899.2574224212
560730468201,29679,-2,0,3451.5010484926,6058.1989065682,11684.4810790125,-1118.5276981458,-8738.5234981195,-6189.9263923734,-8972.3136248756,-22320.8245860000,-11759.4219237450,-4889.9174961135,-6872.6315257150,-2305.5838647983,-24280.9675379950,6428.8147840982,9041.4139751330,13897.2375847486
560730468201,29679,-2,0,3458.4731387721,6066.0227356254,11696.8799620751,-1109.5236024968,-8739.2292245353,-6174.3274050464,-8969.7705762396,-22321.6398216871,-11761.5025999017,-4886.9242426950,-6863.1528898900,-2308.0904103439,-24285.7007720591,6425.9188722544,9037.4959767561,13892.6381953495
560730468201,29679,-2,0,3460.0184362686,6070.2084233325,11706.0300700859,-1101.3590779286,-8740.5068327017,-6164.3255582579,-8967.7629062638,-22322.6984113107,-11764.4715179265,-4886.6200502744,-6861.0357106428,-2310.2684280752,-24288.3168268760,6422.7187679899,9034.7460772741,13886.3961668794
560730468201,29679,-2,0,3456.9278412756,6066.2782572587,11703.3166736944,-1103.9507973519,-8740.3121495525,-6168.3043951190,-8968.6876512223,-22320.4230520048,-11763.5589406648,-4884.5393741177,-6866.0853048243,-2307.8835594979,-24286.4308338685,6424.3249039706,9037.4351382719,13890.6183576769
560730468201,29679,-2,0,3453.3383707128,6059.2818315855,11693.2174853314,-1112.4925205216,-8739.4360753813,-6182.7961220352,-8969.5515576967,-22315.9210041803,-11758.1564832754,-4882.5195364451,-6870.1858186536,-2303.0529838592,-24280.7971902395,6430.7494478931,9042.6915832995,13898.9288946070
560730468201,29679,-2,0,3453.5208861652,6058.7099498348,11690.4310827589,-1114.3906812260,-8733.8632702364,-6180.7397812721,-8964.4289573343,-22312.9034153682,-11751.9996286830,-4878.5650349777,-6863.6639331565,-2297.8695450126,-24275.6745898770,6434.8742971161,9045.7456752020,13900.6932106463
560730516870,29680,-2,0,3455.7475746838,6062.8591344514,11698.1575702415,-1108.0999819685,-8732.9993637619,-6164.5202414071,-8960.2067665367,-22313.5726386935,-11751.9144548052,-4874.8173843562,-6852.6886706222,-2301.0088107929,-24277.2928935545,6431.6620251548,9040.0998638762,13893.3682571589
560730516870,29680,-2,0,3455.2608668108,6063.3580100212,11708.1715847268,-1103.9629650487,-8738.3531503640,-6157.5481511276,-8962.7376474759,-22319.0967730511,-11757.3047444978,-4875.6934585274,-6852.7251737127,-2307.6767086519,-24284.4596669832,6423.3149851343,9033.8213323155,13886.0554713683
560730516870,29680,-2,0,3451.7200670354,6059.3670054632,11704.5212756799,-1108.3676712986,-8741.3342360856,-6166.0533712068,-8967.7264031733,-22321.7249955649,-11761.8189600191,-4881.0229097359,-6864.1263056358,-2310.4022727402,-24287.3312434334,6420.1027131730,9031.5338053128,13883.4150811578
560730516870,29680,-2,0,3452.1216010305,6056.7509506463,11695.3468322754,-1113.7092902039,-8738.5113304227,-6181.8227062893,-8969.7827439364,-22319.0115991733,-11757.4507568597,-4882.1910086309,-6870.4170048933,-2306.5572805442,-24283.9242883230,6425.4443320783,9035.5004744771,13891.5917734228
560730516870,29680,-2,0,3454.9323389966,6061.0948184121,11694.9574659771,-1114.1351595927,-8734.4594873807,-6185.0228105538,-8965.6457270166,-22317.0891030753,-11752.3038211036,-4879.8913139314,-6865.4404168927,-2302.6027790767,-24279.8116067968,6429.9950506901,9038.7127464384,13895.8139642203
560730516870,29680,-2,0,3457.6944061754,6064.7572951558,11701.7105377138,-1108.4528451764,-8735.8222694249,-6172.5874244007,-8962.8228213537,-22317.5636432514,-11753.0703860034,-4880.2076740488,-6857.3975692927,-2303.6735363971,-24282.5371708851,6427.7318590810,9037.5446475433,13891.8351273592
560730516870,29680,-2,0,3456.1977794662,6067.3246791854,11708.0742431522,-1101.8701211952,-8739.4239076844,-6165.4936571529,-8964.1612680042,-22320.2040334620,-11760.2979979163,-4884.4542002400,-6856.1686319136,-2310.0372418355,-24289.3145780155,6421.7088491536,9030.4873833860,13882.8553671039
560730516870,29680,-2,0,3451.0751791037,6062.3480911849,11705.0079835528,-1106.6276906529,-8744.9845451325,-6174.4612497114,-8969.8922532078,-22324.8642613452,-11767.7202929783,-4889.1874343041,-6867.0343851765,-2313.3346876746,-24291.6386081087,6418.8251050066,9029.1002659482,13886.5665146349
560730550951,29681,-2,0,3446.6218020666,6057.7121986953,11694.1422302899,-1115.1085753385,-8745.5929299737,-6190.8876404224,-8973.5668976483,-22322.4793927679,-11766.1749954817,-4893.8841652777,-6876.9875611777,-2310.0372418355,-24287.3920819175,6423.7651899167,9033.0182643252,13892.9058846797
560730550951,29681,-2,0,3451.4158746148,6059.1601546173,11691.0029645096,-1114.1351595927,-8740.3973234303,-6195.5357006088,-8970.3181225966,-22319.2306177162,-11761.9041338969,-4894.0301776396,-6874.6270279940,-2306.0827403681,-24284.5813439514,6428.0482191984,9038.1773677781,13897.8459695898
560730550951,29681,-2,0,3454.5551403951,6063.5161900799,11698.6321104176,-1108.4650128732,-8740.3729880366,-6183.0029728812,-8965.6578947134,-22319.9971826160,-11763.2304128506,-4892.1928554194,-6865.6351000418,-2307.3846839281,-24286.3578276875,6424.7629410562,9036.3400455579,13892.5286860781
560730550951,29681,-2,0,3454.9080036030,6065.1588291510,11706.0300700859,-1102.0648043443,-8742.2954841347,-6170.4824128503,-8964.6479758771,-22321.6276539903,-11767.8176345528,-4893.6286436445,-6862.4958342615,-2311.1931730337,-24291.3222479913,6421.9035323028,9033.1399412934,13884.0234659989
560730550951,29681,-2,0,3452.0972656369,6061.4355139231,11704.3630956212,-1106.0193058118,-8744.4248310787,-6172.6117597944,-8967.4343784496,-22323.6718270565,-11769.7644660445,-4895.9161706472,-6869.4922599347,-2313.1765076159,-24292.2956637371,6420.7719364983,9030.8889173812,13881.3952434852
560730550951,29681,-2,0,3451.8782470941,6060.0605641821,11697.2449929798,-1112.2613342820,-8743.6339307852,-6185.5338538203,-8968.2009433494,-22321.8345048363,-11764.6905364693,-4894.8454133268,-6875.4422636811,-2306.7884667838,-24286.3699953844,6425.6633506211,9036.1453624087,13891.0320593689
560730550951,29681,-2,0,3454.6646496665,6064.4896058257,11692.7916159426,-1113.4781039642,-8737.4040700118,-6190.4496033368,-8963.5772185567,-22315.0814330995,-11758.7040296325,-4892.1806877225,-6872.3395009913,-2298.2832467046,-24280.7241840585,6430.5182616534,9042.0710307615,13897.2010816582
560730550951,29681,-2,0,3458.0107662928,6071.6198761639,11697.5613530972,-1105.5082625452,-8736.5523312342,-6178.5130927535,-8958.5884628593,-22311.6136395050,-11758.7040296325,-4889.1996020009,-6860.2569780461,-2297.9912219808,-24282.9387048803,6429.0094672474,9041.6938321600,13894.7067038095
560730587187,29682,-2,0,3459.1423620974,6074.7469742474,11708.5609510251,-1098.9498739577,-8739.0710444766,-6164.7757630404,-8957.5420409325,-22313.4022909380,-11763.8631330854,-4886.3036901570,-6854.0027818791,-2301.3738416976,-24291.3344156881,6422.0982154520,9035.9385115627,13889.6692773248
560730587187,29682,-2,0,3454.3239541555,6070.9871559292,11706.6992934112,-1101.2860717477,-8743.9624585994,-6164.8366015245,-8961.4235362190,-22317.7096556133,-11768.2313362448,-4887.8003168663,-6859.8797794446,-2304.1237411796,-24294.7048677081,6420.5772533491,9034.3080401884,13890.3628360437
560730587187,29682,-2,0,3449.1283476121,6062.7374574832,11693.0958083631,-1110.8863845410,-8743.5244215138,-6177.5518447045,-8965.4023730801,-22315.5559732756,-11767.4769390418,-4888.9927511549,-6870.0398062918,-2302.1525742943,-24291.3344156881,6422.9742896232,9034.6730710931,13896.6291999075
560730587187,29682,-2,0,3450.0287571770,6063.0538176006,11687.1701400104,-1113.7701286880,-8741.3707391761,-6186.1909094488,-8964.3559511534,-22314.0715142632,-11762.3421709825,-4885.2207651398,-6868.6161857635,-2298.6361099124,-24288.1464791205,6428.0847222889,9040.2093731476,13904.4773643583
560730587187,29682,-2,0,3452.0972656369,6066.4729404078,11692.5239266125,-1109.7304533428,-8740.1539694938,-6177.0286337411,-8960.0242510844,-22312.2950305271,-11760.1884886448,-4881.4487791247,-6858.7116805496,-2297.9790542840,-24285.8832875114,6427.5128405382,9038.1165292940,13902.9564022554
560730587187,29682,-2,0,3455.9179224393,6068.8699766820,11703.0611520611,-1101.9431273761,-8741.0665467555,-6160.9307708443,-8957.7367240817,-22313.9255019014,-11763.3885929093,-4879.2829290902,-6850.5593236782,-2300.3882582549,-24289.3389134092,6426.2595677654,9038.6275725606,13900.5715336781
560730587187,29682,-2,0,3455.0053451776,6069.7338831564,11707.5145290983,-1101.5537610778,-8743.6826015725,-6158.8500946876,-8961.3140269476,-22317.7948294910,-11766.5278586896,-4879.4897799362,-6852.9928630428,-2303.6492010035,-24293.7679550527,6420.4312409872,9035.2936236311,13896.3250074869
560730587187,29682,-2,0,3451.9025824877,6066.9474805839,11703.1949967262,-1108.2703297240,-8743.8407816312,-6173.3904923910,-8964.8669944199,-22317.0404322880,-11765.4084305819,-4880.1711709583,-6861.6562631807,-2301.8240464801,-24291.6872788960,6423.6921837358,9035.7803315040,13898.2596712817
560730590205,29683,-2,0,3456.1734440726,6068.4927780804,11697.7560362463,-1108.5258513573,-8737.0877098944,-6181.3238307196,-8960.4257850795,-22309.7398141943,-11755.8324531822,-4878.2365071634,-6859.2835623003,-2293.0511370707,-24282.6588478534,6431.8445406071,9041.8520122187,13901.8004710572
560730590205,29683,-2,0,3461.8922615793,6076.6694703455,11704.2779217434,-1102.6366860950,-8732.3544758303,-6172.9281199118,-8953.9890734602,-22307.0385854996,-11749.8946171326,-4873.6371177644,-6849.1113677563,-2290.5445915252,-24280.3348177602,6436.6386131554,9046.1958799845,13905.5724570723
560730590205,29683,-2,0,3462.2207893936,6077.6428860913,11712.2477631625,-1098.2198121483,-8735.2747230678,-6160.8334292698,-8954.6947998759,-22311.5162979304,-11754.3601618667,-4876.6547065765,-6846.1789528220,-2297.6626941666,-24285.9197906019,6430.6277709248,9041.0002734411,13898.0893235262
560730590205,29683,-2,0,3458.3027910166,6074.9903281839,11712.3086016466,-1099.6434326766,-8741.2490622079,-6160.3345537000,-8961.4965424000,-22319.9485118287,-11761.8797985032,-4885.4032805922,-6855.7670979184,-2305.9367280062,-24290.6165215756,6424.7142702689,9033.9430092838,13888.8662093344
560730590205,29683,-2,0,3452.2676133924,6066.4486050142,11703.9250585356,-1107.1509016163,-8744.5586757437,-6176.8582859856,-8968.6146450414,-22324.9859383134,-11763.7779592076,-4891.6453090623,-6869.8572908394,-2309.5261985690,-24290.4218384264,6425.0793011736,9029.4774645497,13888.6106877012
560730590205,29683,-2,0,3450.5763035340,6063.1998299625,11694.9818013707,-1113.8309671721,-8741.6140931126,-6190.7294603637,-8969.9530916919,-22322.4307219806,-11758.5701849674,-4891.5114643973,-6874.1403201211,-2305.3770139524,-24284.5326731641,6429.0946411252,9033.9430092838,13895.6922872521
560730590205,29683,-2,0,3454.9323389966,6069.1620014057,11695.2373230040,-1110.1806581252,-8734.6420028330,-6181.6036877465,-8962.7133120823,-22316.5902275056,-11752.7661935829,-4886.3645286412,-6865.2944045308,-2300.3882582549,-24278.9842034128,6434.7404524510,9036.2792070738,13897.5904479565
560730590205,29683,-2,0,3459.7385792417,6075.4040298759,11705.4581883353,-1100.9332085398,-8732.5734943731,-6165.1164585514,-8958.2842704387,-22315.5073024883,-11751.7684424434,-4881.1810897946,-6854.7450113853,-2301.2521647294,-24278.1081292416,6434.6917816637,9038.6397402574,13899.2695901181
560730619374,29684,-2,0,3459.2153682783,6076.1827624725,11712.5762909767,-1097.4289118548,-8736.1873003295,-6160.6874169079,-8961.3505300381,-22319.7903317700,-11757.7792846739,-4881.4609468215,-6857.3123954150,-2304.7564614144,-24283.5714251151,6429.5570136044,9035.0867727851,13895.0473993205
560730619374,29684,-2,0,3457.5240584199,6072.2404287019,11705.0444866433,-1102.9652139092,-8739.6307585304,-6173.0862999705,-8965.8404101658,-22320.1918657652,-11759.8842962243,-4886.3888640348,-6868.4336703111,-2304.7321260207,-24284.2649838340,6428.0117161079,9036.4008840420,13896.4588521520
560730619374,29684,-2,0,3456.4289657058,6070.0867463643,11695.0669752485,-1110.6308629077,-8738.5234981195,-6186.9696420454,-8968.0549309875,-22318.5005559068,-11758.5823526642,-4888.6398879471,-6873.7266184291,-2302.3472574434,-24281.1987242346,6430.1288953551,9039.3576343700,13902.7738868031
560730619374,29684,-2,0,3457.3537106644,6071.2426775624,11693.6920255075,-1110.1563227316,-8739.1075475670,-6186.5194372630,-8967.2396953004,-22319.3887977749,-11757.8279554612,-4888.6398879471,-6869.1150613332,-2303.0651515560,-24282.0747984059,6429.8977091155,9038.5180632892,13902.4696943825
560730619374,29684,-2,0,3456.4533010995,6070.7803050832,11699.7393708285,-1106.3356659292,-8742.0521301982,-6173.4756662688,-8966.5461365815,-22323.7935040248,-11763.2912513347,-4892.2415262066,-6863.6152623692,-2309.2706769357,-24287.4529204016,6426.7341079415,9033.9430092838,13893.3074186748
560730619374,29684,-2,0,3456.0761024980,6071.1940067751,11706.4924425652,-1103.4154186917,-8744.9237066484,-6165.4084832752,-8969.8192470269,-22327.6749993113,-11769.3872674430,-4894.4682147252,-6865.3917461054,-2314.3202711172,-24291.2857449008,6422.4267432662,9029.5261353370,13887.3939180189
560730619374,29684,-2,0,3454.5064696078,6067.4220207600,11704.5577787704,-1107.4064232496,-8747.0408858956,-6174.3639081369,-8974.1752824895,-22327.8940178541,-11769.9956522841,-4894.3587054538,-6873.8847984878,-2313.6997185792,-24289.4970934679,6424.8602826308,9031.8136623397,13891.4579287577
560730619374,29684,-2,0,3453.9832586444,6065.1101583637,11694.1057271995,-1113.8187994753,-8743.8042785407,-6186.5681080503,-8975.6110707146,-22326.2635464798,-11765.1529089486,-4893.4582958889,-6878.8370510947,-2307.2995100504,-24282.7805248216,6430.9197956486,9037.1796166387,13898.3205097659
560730656145,29685,-2,0,3458.6921573149,6069.8190570341,11693.3878330869,-1110.8012106632,-8739.3752368972,-6184.6577796491,-8970.8535012568,-22321.6519893839,-11760.1154824639,-4888.8224033994,-6871.0497251281,-2303.8073810622,-24280.5295009094,6433.6331920401,9039.6496590937,13899.3912670863
560730656145,29685,-2,0,3461.4420567969,6073.7492231080,11703.5721953277,-1104.5226791026,-8740.7866897286,-6171.0421269042,-8967.3127014813,-22322.3212127092,-11760.4805133686,-4885.2937713207,-6861.3642384570,-2307.4455224123,-24284.9950456434,6427.6710205969,9034.4783879440,13892.2731644449
560730656145,29685,-2,0,3459.5560637893,6074.1142540126,11710.5321179104,-1102.4541706427,-8743.1593906091,-6162.1110374362,-8967.4587138432,-22323.8543425089,-11765.2867536137,-4886.9485780887,-6860.7193505254,-2312.2274272637,-24288.9982178981,6423.2176435597,9030.9254204717,13885.5322604050
560730656145,29685,-2,0,3457.5362261167,6069.1011629216,11708.1229139395,-1104.5348467994,-8743.1958936996,-6168.3408982095,-8968.2496141367,-22323.5501500883,-11763.2912513347,-4887.6056337171,-6865.8419508878,-2308.3946027644,-24285.7129397559,6426.9166233938,9033.7969969219,13888.9148801217
560730656145,29685,-2,0,3457.0373505470,6067.0204867649,11701.9660593471,-1109.9373041888,-8737.9516163689,-6179.8758747977,-8965.8404101658,-22317.1986123467,-11754.7860312555,-4883.5051198878,-6867.4967576558,-2301.6415310277,-24279.5682528603,6434.3389184558,9041.4261428299,13897.6877895311
560730656145,29685,-2,0,3458.9841820387,6071.8875654940,11701.1508236599,-1107.4307586432,-8733.2548853952,-6180.6424396975,-8958.7831460084,-22311.5649687177,-11749.4930831375,-4881.4609468215,-6860.8775305841,-2295.6793595845,-24274.6646710407,6440.3740960800,9045.7456752020,13903.1875884950
560730656145,29685,-2,0,3462.0869447285,6077.0101658565,11709.5465344678,-1100.0206312781,-8732.1111218939,-6167.0146192558,-8954.5852906045,-22311.3337824781,-11751.1113868149,-4882.0814993595,-6852.5426582604,-2296.4215890907,-24276.5628317451,6437.0888179378,9043.1539557787,13900.8270553114
560730656145,29685,-2,0,3461.0770258922,6074.8686512157,11716.6768048060,-1099.6312649797,-8739.5820877431,-6161.8920188933,-8960.2797727177,-22320.7515798190,-11760.6508611241,-4886.9120749982,-6854.7450113853,-2306.0827403681,-24286.0779706606,6427.5980144159,9034.3202078853,13892.6868661368
560730683419,29686,-2,0,3456.0274317107,6068.8821443788,11711.2013412357,-1106.1896535673,-8745.7146069419,-6172.6969336721,-8969.0283467334,-22326.7867574432,-11767.1970820149,-4894.6750655712,-6869.6747753871,-2313.5172031269,-24291.2979125977,6420.3217317158,9029.4531291561,13888.9757186058
560730683419,29686,-2,0,3455.0053451776,6066.0349033222,11699.4960168920,-1113.8066317785,-8743.9989616899,-6185.9840586028,-8971.5105568852,-22325.0224414039,-11764.3985117456,-4894.7359040553,-6877.5351075347,-2308.0295718598,-24286.3334922939,6425.6633506211,9033.4197983204,13894.9257223523
560730683419,29686,-2,0,3459.3613806402,6068.5049457773,11699.3500045301,-1112.8940545167,-8738.6573427846,-6188.6244488134,-8966.9355028798,-22319.5713132272,-11757.5115953438,-4890.3798685927,-6871.0862282185,-2303.3571762797,-24281.5637551393,6430.9928018295,9037.1674489418,13902.2020050524
560730683419,29686,-2,0,3460.7971688653,6071.8023916163,11706.1760824478,-1107.0048892544,-8736.4184865692,-6174.5585912860,-8962.2874426935,-22319.2914562003,-11756.5016765075,-4887.6543045044,-6860.0744625938,-2302.3350897466,-24282.0382953154,6429.0338026410,9036.0601885309,13900.3525151353
560730683419,29686,-2,0,3457.5118907231,6069.9042309119,11710.4469440327,-1103.6831080218,-8737.8786101879,-6160.8455969666,-8962.4821258426,-22321.8710079267,-11759.7869546497,-4888.1531800741,-6858.5535004909,-2306.9466468425,-24285.0802195211,6425.1523073545,9033.2859536553,13892.7598723178
560730683419,29686,-2,0,3454.6768173633,6066.1687479873,11709.5100313773,-1106.5911875625,-8740.0322925256,-6164.1673781992,-8965.5483854420,-22325.0589444943,-11761.7702892318,-4887.4717890521,-6865.1118890785,-2309.8790617768,-24286.3578276875,6423.7773576135,9030.0615139972,13891.3970902736
560730683419,29686,-2,0,3453.7277370111,6063.3580100212,11701.6740346233,-1114.0743211086,-8737.1850514690,-6174.6924359511,-8966.1446025863,-22322.4915604647,-11756.3678318424,-4886.9729134823,-6870.5751849520,-2304.5131074779,-24280.7485194522,6429.3258273648,9031.9475070048,13894.8162130809
560730683419,29686,-2,0,3458.4609710753,6068.2494241440,11697.1233160115,-1111.5677755630,-8728.9596884167,-6175.4103300636,-8957.9557426245,-22314.2661974124,-11747.6314255236,-4881.3271021565,-6864.8198643547,-2295.4238379512,-24272.8030134268,6437.2226626029,9042.8862664486,13906.5823759086
560730715712,29687,-2,0,3465.1532043279,6074.8443158220,11708.5001125410,-1100.9453762366,-8724.4211375018,-6158.5580699639,-8950.7281307117,-22310.2630251576,-11743.9324456894,-4873.0287329232,-6850.3646405291,-2292.1020567185,-24271.9512746492,6438.5976123439,9045.6483336274,13907.3489408085
560730715712,29687,-2,0,3467.3555574528,6077.8984077246,11719.1468472611,-1095.2387264267,-8726.4774782648,-6144.6990632825,-8949.3166778802,-22311.9665027129,-11747.0960468634,-4870.7290382237,-6843.5385626114,-2295.7401980686,-24276.0639561753,6434.3875892431,9042.7159186931,13900.8878937955
560730715712,29687,-2,0,3466.9661911545,6076.2314332598,11719.8160705863,-1095.5429188472,-8730.1034519181,-6146.6702301678,-8953.7578872206,-22315.4707993979,-11751.0018775435,-4874.9877321117,-6852.1167888716,-2298.9889731203,-24279.9576191587,6429.7273613599,9039.1264481303,13894.6823684158
560730715712,29687,-2,0,3463.1211989585,6070.7559696895,11711.0431611770,-1103.8899588678,-8731.3080539035,-6162.7072545805,-8958.7709783116,-22315.7506564248,-11751.9631255925,-4877.6402900191,-6861.8752817236,-2299.0254762108,-24279.4344081953,6429.8247029345,9038.7979203161,13898.4178513404
560730715712,29687,-2,0,3463.2672113203,6068.1885856599,11704.1684124720,-1107.5767710051,-8728.7285021771,-6170.5554190313,-8956.6903021549,-22311.1756024194,-11745.8184386970,-4875.0972413831,-6859.4782454494,-2292.5279261073,-24273.0585350601,6436.9914763632,9043.4946512898,13907.3246054148
560730715712,29687,-2,0,3469.1077057953,6077.2170167025,11710.9458196024,-1098.0251289991,-8723.7397464797,-6158.5093991766,-8949.0976593374,-22305.2377663698,-11741.3163908725,-4869.6947839937,-6847.6390764407,-2289.4616665079,-24269.6759153433,6441.8220520020,9047.9723637206,13911.0844237331
560730715712,29687,-2,0,3470.9206926220,6081.9259153730,11721.7385666844,-1090.9678648418,-8723.6789079956,-6142.9712503337,-8946.8101323347,-22309.0949262626,-11742.4358189802,-4867.1639030546,-6841.0928555500,-2292.5157584105,-24271.3307221112,6440.9338101339,9045.0399487863,13906.9717422070
560730715712,29687,-2,0,3469.2172150668,6080.6969779939,11725.5835588804,-1091.4302373211,-8729.9331041626,-6147.1934411312,-8953.1981731667,-22312.5505521604,-11748.7751890249,-4870.6681997396,-6848.4178090374,-2297.4436756238,-24275.1270435200,6436.3100853412,9042.3508877884,13905.3899416200
560730748014,29688,-2,0,3463.4618944695,6072.8853166335,11713.9390730208,-1100.5560099383,-8734.9218598600,-6164.9947815832,-8958.8561521894,-22313.9863403855,-11753.6179323605,-4878.8448920046,-6860.6463443444,-2297.3098309587,-24277.0738750116,6434.2050737908,9041.1827888934,13907.2515992339
560730748014,29688,-2,0,3460.3469640828,6068.7117966233,11701.4550160805,-1108.7083668097,-8733.7659286618,-6176.9677952570,-8958.2599350451,-22311.0295900575,-11749.4200769565,-4879.1004136379,-6860.8045244031,-2293.1728140389,-24274.4821555883,6438.0013951995,9042.8740987518,13913.7248139437
560730748014,29688,-2,0,3464.6421610613,6073.0434966922,11708.6947956902,-1103.0138846965,-8730.2251288863,-6167.9515319112,-8953.7335518269,-22308.7055599643,-11745.6359232446,-4875.7299616179,-6851.2772177908,-2291.4206656964,-24272.3771440380,6438.7922954930,9043.7015021358,13914.1993541198
560730748014,29688,-2,0,3467.9882776876,6076.4017810154,11717.7718975201,-1095.8227758742,-8730.0061103435,-6153.3259603300,-8951.8110557289,-22311.4067886590,-11748.8725305995,-4876.1923340972,-6846.0451081569,-2296.4459244843,-24275.7962668452,6435.4583465636,9039.0777773430,13908.5900458844
560730748014,29688,-2,0,3464.7881734232,6075.7203899933,11719.2806919261,-1097.1733902215,-8735.7370955471,-6152.7905816698,-8956.8119791231,-22317.9043387625,-11755.0172174951,-4880.9012327677,-6853.7594279427,-2302.2377481720,-24281.5515874425,6428.8512871887,9034.2472017043,13902.8833960745
560730748014,29688,-2,0,3458.8625050704,6068.0060702075,11709.7047145265,-1105.8367903594,-8741.6992669903,-6170.5067482440,-8964.7939882390,-22319.4374685621,-11758.0591417008,-4885.2085974430,-6866.2313171862,-2303.4423501575,-24286.1023060543,6427.0383003621,9034.3810463694,13905.5237862850
560730748014,29688,-2,0,3458.5948157403,6067.8357224520,11699.2039921683,-1112.0544834360,-8739.2535599289,-6183.8060408715,-8964.4532927279,-22315.9331718771,-11756.2096517837,-4888.5790494629,-6868.8352043063,-2296.8717938731,-24283.9242883230,6429.6178520885,9038.4693925019,13910.9505790681
560730748014,29688,-2,0,3463.5714037409,6073.3598568096,11702.7691273374,-1105.6421072103,-8734.8731890727,-6175.6050132128,-8958.5519597688,-22311.8813288351,-11752.7053550987,-4885.4397836826,-6858.3466496449,-2291.7126904202,-24279.6777621317,6433.9617198543,9045.2224642386,13917.1196013573
560730779285,29689,-2,0,3465.6885829881,6075.5257068441,11713.5375390257,-1099.8624512194,-8736.3211449946,-6159.6409949811,-8957.1770100278,-22313.3414524539,-11753.7396093287,-4881.9841577849,-6849.3425539959,-2294.9249623814,-24282.8048602152,6430.5669324407,9044.0421976468,13911.5832993029
560730779285,29689,-2,0,3464.0216085234,6073.8587323794,11717.8692390947,-1099.5582587988,-8738.6938458751,-6155.4796426677,-8959.4402016369,-22317.0282645912,-11758.7405327229,-4885.0139142938,-6852.6886706222,-2298.9646377267,-24286.6376847145,6426.3447416432,9040.2458762380,13902.7495514094
560730779285,29689,-2,0,3462.5249818141,6070.7316342959,11711.1526704484,-1104.8025361295,-8739.4969138654,-6165.7126756958,-8963.0783429869,-22317.2107800435,-11758.9960543562,-4885.7561438000,-6862.8243620757,-2300.3517551645,-24285.6886043623,6426.3569093400,9038.0678585067,13903.4552778251
560730779285,29689,-2,0,3460.1766163273,6066.1809156841,11701.4793514742,-1111.1175707806,-8737.5744177674,-6178.6712728122,-8962.4456227521,-22316.1521904200,-11754.9563790110,-4883.8093123083,-6866.2434848830,-2296.2634090320,-24282.2086430709,6430.4695908661,9040.6474102332,13910.0380018064
560730779285,29689,-2,0,3462.9751865966,6072.3134348829,11702.5257734009,-1108.0513111812,-8732.2571342557,-6171.1516361756,-8956.3374389470,-22310.7740684242,-11750.3083188246,-4881.0959159168,-6857.7869355910,-2293.8542050610,-24277.3780674322,6433.5845212528,9042.2535462138,13912.0456717821
560730779285,29689,-2,0,3468.2437993209,6078.2634386293,11713.6835513876,-1098.6578492339,-8730.8578491211,-6153.9100097775,-8952.6384591129,-22311.3094470844,-11751.5859269910,-4877.6524577159,-6849.5007340546,-2296.5189306653,-24280.4929978189,6431.0536403137,9037.7028276020,13903.6377932775
560730779285,29689,-2,0,3465.8224276532,6077.2170167025,11719.3658658039,-1097.1855579183,-8734.8731890727,-6149.6269804958,-8956.6294636708,-22317.0769353785,-11756.6841919598,-4879.3681029680,-6852.6399998349,-2304.9633122604,-24285.3600765481,6426.6245986701,9030.2318617528,13897.5417771692
560730779285,29689,-2,0,3461.0891935890,6072.6176273034,11713.7565575685,-1103.1720647552,-8737.3432315277,-6161.3201371427,-8964.7696528453,-22321.7980017458,-11759.8234577402,-4883.7728092179,-6865.1240567753,-2305.4378524365,-24284.4718346800,6427.9265422302,9031.2661159827,13897.9554788612
560730813028,29690,-2,0,3456.9521766692,6065.9132263540,11698.7659550826,-1112.3465081597,-8736.6618405056,-6177.8073663378,-8966.8746643957,-22321.9196787140,-11756.1001425123,-4886.1698454920,-6871.3052467613,-2302.2742512625,-24280.5903393935,6432.3069130864,9036.3400455579,13904.7085505979
560730813028,29690,-2,0,3453.7642401016,6064.8303013367,11695.0548075516,-1115.7412955733,-8735.2868907646,-6178.9998006264,-8964.4046219406,-22319.3887977749,-11754.0803048397,-4884.8435665383,-6864.8807028388,-2300.0962335312,-24279.9089483714,6432.9152979276,9037.3742997878,13908.2006795861
560730813028,29690,-2,0,3455.4555499600,6068.6022873519,11702.7326242469,-1108.7692052938,-8734.2648042315,-6163.3156394216,-8958.9778291576,-22317.7218233101,-11754.8347020428,-4881.3027667628,-6854.0149495759,-2301.4711832722,-24280.6146747871,6433.1221487736,9036.5833994943,13905.3656062263
560730813028,29690,-2,0,3456.6966550359,6068.4684426868,11710.7268010596,-1104.7660330390,-8734.0336179919,-6152.0361844668,-8956.7876437295,-22317.8435002783,-11756.2339871774,-4880.5848726503,-6851.3867270622,-2302.0430650229,-24281.2838981124,6431.3334973406,9037.3621320910,13902.8712283776
560730813028,29690,-2,0,3456.7209904296,6065.0858229700,11710.6902979691,-1109.1585715921,-8736.5158281438,-6161.2106278713,-8962.9566660187,-22320.3013750366,-11757.2317383169,-4883.6511322496,-6862.2281449314,-2304.8294675953,-24280.2131407920,6430.5425970471,9036.3400455579,13901.8248064509
560730813028,29690,-2,0,3450.7101481991,6057.5661863334,11693.6068516297,-1120.7787220580,-8738.8276905401,-6180.7154458784,-8968.3591234081,-22323.1364483963,-11757.7427815834,-4889.1996020009,-6871.8892962088,-2304.7686291112,-24278.1324646352,6432.0513914531,9037.2404551228,13904.8423952630
560730813028,29690,-2,0,3448.3617827122,6054.6702744896,11684.1647188951,-1124.5872111636,-8740.0201248288,-6186.7627911994,-8969.3082037603,-22321.5911508998,-11756.6598565662,-4891.8764953020,-6869.3097444824,-2303.3206731893,-24277.4510736131,6433.4993473751,9037.0336042768,13906.4363635468
560730813028,29690,-2,0,3450.0044217833,6059.9875580012,11693.3148269060,-1117.7976363364,-8739.6915970146,-6173.1349707577,-8965.3658699897,-22324.0976964453,-11758.5215141801,-4888.5912171598,-6859.1253822416,-2305.2675046809,-24280.4686624252,6429.9828829932,9033.2859536553,13902.8103898935
560730882947,29691,5,0,3451.1968560720,6062.6036128181,11703.8033815673,-1111.3609247171,-8739.4604107749,-6159.6409949811,-8964.1977710947,-22325.3144661276,-11760.2858302194,-4887.2284351156,-6857.1542153563,-2307.4820255027,-24284.7151886164,6426.6124309733,9030.9862589558,13897.0550692963
560730882947,29691,5,0,3450.2234403261,6061.0583153216,11702.3432579486,-1113.3685946928,-8740.1052987065,-6165.9560296322,-8967.1301860290,-22325.5578200641,-11764.2038285964,-4891.1099304021,-6867.1438944479,-2308.3215965835,-24286.6620201081,6423.8990345818,9029.5139676402,13893.8671327287
560730882947,29691,5,0,3449.2986953676,6058.7586206221,11693.7285285979,-1119.2942630456,-8739.2048891416,-6180.8249551498,-8967.7872416574,-22323.6596593597,-11761.0402274225,-4892.1198492384,-6872.4855133532,-2304.5009397811,-24283.9607914134,6425.9918784353,9033.0060966284,13900.4133536194
560730882947,29691,5,0,3452.2189426051,6061.9222217961,11692.3535788569,-1118.2235057252,-8731.8312648669,-6179.7785332231,-8959.9390772066,-22313.9011665077,-11751.8901194116,-4884.7340572669,-6862.3011511124,-2294.4990929926,-24276.3803162927,6434.7282847542,9043.1417880819,13911.8144855425
560730882947,29691,5,0,3459.1910328846,6070.4274418753,11702.4162641295,-1105.0702254596,-8722.0362689245,-6157.4873126434,-8946.7857969410,-22305.4567849126,-11744.6990105892,-4875.4866076815,-6843.7697488510,-2287.9407044051,-24269.1892074704,6442.5642815082,9049.9678659996,13913.8343232151
560730882947,29691,5,0,3457.5727292072,6071.7172177385,11710.7024656659,-1100.9697116303,-8724.5914852573,-6146.7919071361,-8948.5379452835,-22310.4455406100,-11749.1280522328,-4875.9003093734,-6842.1514451736,-2295.7767011591,-24274.8228510994,6435.8720482555,9043.1052849914,13903.7838056394
560730882947,29691,5,0,3454.0319294317,6067.3611822759,11706.6019518366,-1107.1630693131,-8737.8299394006,-6160.4927337587,-8960.3527788986,-22321.0679399364,-11760.3466687035,-4886.8634042109,-6860.2934811366,-2306.7762990870,-24285.8954552083,6426.2717354622,9031.8136623397,13895.7774611299
560730882947,29691,5,0,3454.7984943316,6066.8379713125,11695.4076707595,-1114.9625629766,-8740.5311680953,-6178.3305773011,-8967.3005337845,-22323.6231562692,-11761.7459538382,-4892.8255756541,-6871.6094391819,-2306.1922496395,-24285.0680518243,6424.0937177309,9028.7474027404,13899.9023103528
560730888486,29692,5,0,3456.9278412756,6068.4684426868,11690.0173810669,-1116.2036680526,-8737.6960947356,-6182.5406004019,-8963.6867278281,-22319.6443194081,-11758.8622096911,-4890.7935702847,-6867.5210930494,-2300.6437798882,-24284.1068037753,6427.3546604795,9033.2007797776,13907.4462823831
560730888486,29692,5,0,3461.3203798287,6075.4648683600,11700.3964264569,-1107.9174665162,-8735.5180770043,-6170.2390589139,-8958.3572766196,-22316.2251966009,-11757.9861355199,-4886.4740379126,-6856.0226195517,-2299.6581964456,-24286.1266414479,6424.3492393642,9034.5392264281,13907.2029284466
560730888486,29692,5,0,3460.5781503225,6076.1219239884,11707.9403984871,-1102.0769720411,-8737.0998775913,-6155.6986612105,-8956.6051282771,-22318.2693696671,-11762.9383881268,-4886.1333424015,-6850.6931683433,-2301.8848849642,-24290.0081367344,6422.6579295058,9032.7384072983,13902.2871789301
560730888486,29692,5,0,3457.6579030850,6072.8123104526,11707.2103366778,-1103.8169526868,-8737.7691009165,-6154.9442640075,-8958.7223075243,-22317.8313325815,-11763.4129283029,-4886.3158578539,-6855.0735391995,-2303.1989962210,-24291.4074218691,6423.1081342883,9032.8844196602,13901.2285893065
560730888486,29692,5,0,3455.5772269282,6070.9749882323,11702.0390655280,-1109.3775901349,-8734.3864811997,-6166.2237189623,-8958.7709783116,-22315.2639485519,-11759.6531099846,-4884.2473493940,-6860.8653628873,-2299.0254762108,-24285.2749026703,6428.5957655554,9036.1696978024,13906.6067113023
560730888486,29692,5,0,3457.0251828502,6070.4031064816,11694.1422302899,-1111.1175707806,-8728.4243097565,-6171.2733131438,-8954.2202596998,-22309.7033111038,-11750.9045359689,-4882.1423378436,-6857.3367308086,-2292.7956154374,-24278.4001539653,6435.7503712873,9041.4018074362,13910.3786973174
560730888486,29692,5,0,3461.1378643763,6075.9272408393,11700.9926436012,-1106.1774858705,-8726.8911799568,-6160.6265784238,-8949.0246531564,-22308.5352122088,-11749.8946171326,-4878.2121717698,-6847.2983809297,-2292.7104415597,-24279.3005635302,6435.9450544365,9041.8155091282,13907.3732762021
560730888486,29692,5,0,3462.7805034474,6077.5455445167,11711.5298690499,-1100.6776869065,-8729.6532471356,-6147.6071428232,-8949.2801747897,-22311.5406333241,-11753.7761124192,-4877.5551161414,-6843.2100347972,-2296.8596261763,-24284.6421824355,6430.4695908661,9037.3256290005,13901.3746016684
560730929788,29693,5,0,3460.9796843176,6075.0146635775,11710.8728134215,-1101.5172579873,-8734.3256427156,-6150.3083715179,-8953.0521608048,-22313.7794895395,-11758.8013712070,-4881.4244437310,-6849.3668893896,-2298.7577868807,-24287.7449451254,6427.0869711494,9035.7559961104,13898.7585468515
560730929788,29693,5,0,3457.9742632024,6072.0944163400,11702.0999040121,-1109.5966086777,-8736.5644989311,-6167.3553147669,-8957.9314072308,-22314.9232530408,-11760.6751965178,-4886.5592117903,-6860.9262013714,-2297.0178062350,-24287.9761313650,6426.2230646749,9036.1575301055,13902.9564022554
560730929788,29693,5,0,3453.4722153779,6065.5846985398,11691.5140077762,-1117.9679840919,-8737.9516163689,-6180.6546073943,-8959.7078909670,-22315.8601656962,-11758.8378742975,-4888.5547140693,-6863.3354053423,-2296.7379492081,-24286.9297094382,6426.8436172129,9037.3377966974,13906.2295127008
560730929788,29693,5,0,3456.3194564344,6069.7217154596,11692.4752558252,-1114.4271843164,-8735.9074433026,-6172.4657474325,-8957.5663763261,-22316.7119044738,-11757.3047444978,-4887.9950000154,-6857.0447060848,-2297.8938804062,-24285.7129397559,6429.0459703379,9037.7393306925,13905.4386124073
560730929788,29693,5,0,3458.7773311927,6073.6883846238,11703.6086984182,-1106.7128645307,-8736.2846419041,-6157.6211573085,-8957.2256808151,-22320.1188595842,-11759.5436007132,-4885.0625850811,-6850.8148453115,-2302.5297728958,-24288.4141684506,6428.1577284698,9035.3422944184,13901.8613095413
560730929788,29693,5,0,3458.8381696768,6071.4981991957,11708.2810939982,-1106.9075476799,-8737.6230885547,-6154.6157361932,-8960.6934744096,-22324.9007644356,-11760.3466687035,-4884.4785356336,-6854.6355021139,-2306.8736406616,-24289.7647827980,6427.6466852032,9034.3323755821,13899.9631488370
560730929788,29693,5,0,3455.5528915346,6067.5071946378,11699.6420292539,-1112.6385328835,-8738.3166472736,-6168.4990782682,-8966.1689379800,-22324.7060812865,-11760.6265257305,-4888.3721986169,-6864.8076966579,-2306.3747650918,-24286.3943307780,6429.2771565775,9036.1088593182,13903.5161163093
560730929788,29693,5,0,3454.1779417936,6065.1588291510,11688.0097110912,-1120.4745296374,-8739.4239076844,-6182.4067557368,-8967.5925585083,-22324.0611933549,-11758.7283650261,-4891.2802781576,-6868.9325458809,-2304.5374428716,-24283.4740835405,6431.1753172819,9037.9948523258,13905.5967924660
560730938219,29694,5,0,3455.7719100774,6067.7018777870,11690.5162566367,-1118.7710520822,-8737.4527407991,-6177.3084907680,-8963.8570755836,-22322.5889020393,-11758.0226386104,-4889.0535896390,-6860.5003319826,-2304.0872380891,-24284.0824683817,6431.4308389152,9036.0966916214,13904.8058921725
560730938219,29694,5,0,3459.8724239067,6072.5081180320,11705.0079835528,-1109.0977331080,-8735.3598969456,-6159.6896657684,-8959.0021645513,-22321.2747907824,-11758.7892035102,-4885.2572682303,-6850.4011436195,-2304.7686291112,-24284.4961700736,6432.0878945436,9034.7217418804,13902.3966882015
560730938219,29694,5,0,3462.2572924840,6070.2084233325,11709.1571681694,-1107.9174665162,-8734.4716550775,-6151.5738119875,-8958.3572766196,-22322.0535233791,-11758.2416571532,-4884.4907033304,-6852.1897950525,-2304.9146414731,-24284.4718346800,6432.3677515705,9035.6099837485,13903.0780792236
560730938219,29694,5,0,3459.7020761512,6069.0038213470,11705.2878405797,-1111.6407817440,-8734.9583629504,-6162.9019377297,-8960.8151513779,-22319.8146671637,-11757.0492228645,-4883.3834429195,-6858.3101465544,-2301.2278293357,-24281.6367613202,6433.4020058005,9038.8100880129,13906.3755250627
560730938219,29694,5,0,3456.8548350946,6065.1831645446,11695.1643168230,-1117.5664500968,-8733.3887300603,-6174.7776098288,-8961.3505300381,-22318.5613943909,-11753.6057646636,-4885.0625850811,-6860.8653628873,-2297.2246570810,-24279.9697868555,6435.3123342017,9043.0079434168,13913.0555906184
560730938219,29694,5,0,3457.4875553294,6068.1155794789,11693.0228021822,-1118.0166548792,-8733.3522269698,-6174.1570572909,-8959.5375432115,-22319.2914562003,-11753.4354169081,-4885.8169822841,-6855.4020670138,-2297.6870295603,-24281.7584382885,6433.7548690083,9041.1827888934,13911.9118271171
560730938219,29694,5,0,3457.7552446595,6070.6829635086,11701.3333391123,-1111.2149123552,-8734.7515121044,-6158.3512191179,-8958.1504257737,-22322.0291879854,-11756.1974840869,-4883.5781260687,-6846.8725115409,-2302.4080959276,-24286.2483184161,6431.3578327342,9037.5933183306,13904.1245011504
560730938219,29694,5,0,3456.4411334027,6068.0790763885,11705.8232192399,-1109.8034595237,-8738.3288149704,-6153.9586805648,-8960.9003252556,-22326.2635464798,-11759.7504515592,-4885.3911128953,-6850.4498144068,-2307.2630069599,-24288.4020007538,6429.2649888807,9033.2616182617,13898.9045592134
560730973473,29695,5,0,3453.4722153779,6067.4706915473,11699.5203522857,-1115.9846495098,-8739.6672616209,-6165.4206509720,-8967.7385708701,-22327.2126268320,-11762.3908417698,-4888.9440803676,-6862.8000266821,-2308.5892859136,-24287.0027156192,6430.5304293503,9033.9916800710,13899.5251117513
560730973473,29695,5,0,3453.1801906541,6063.8933886814,11690.3702442748,-1121.5209515642,-8738.3531503640,-6179.7663655263,-8967.9089186256,-22326.0323602402,-11759.1785698085,-4889.4064528469,-6867.8739562573,-2305.0484861381,-24282.8291956089,6433.9617198543,9036.6929087657,13906.4120281531
560730973473,29695,5,0,3456.1247732853,6067.6532069997,11689.7618594337,-1119.7444678281,-8734.0701210824,-6178.1115587583,-8964.1612680042,-22323.8421748121,-11754.2384848984,-4889.1387635168,-6861.0722137332,-2302.7852945291,-24281.6367613202,6435.1784895366,9037.8488399639,13909.7581447794
560730973473,29695,5,0,3461.2960444350,6073.2016767509,11701.1629913568,-1110.9107199346,-8731.6244140209,-6160.9186031475,-8959.4280339401,-22323.3798023328,-11756.7571981408,-4886.8025657268,-6852.6521675318,-2304.9998153508,-24283.6322635992,6433.1829872577,9034.9285927264,13904.8788983534
560730973473,29695,5,0,3461.2595413446,6073.1408382668,11710.7876395437,-1107.3090816750,-8732.5248235858,-6151.4643027161,-8958.7831460084,-22325.7525032133,-11759.2880790800,-4885.6344668318,-6851.2528823971,-2309.0151553024,-24286.1509768416,6429.2528211839,9032.1665255476,13900.5228628908
560730973473,29695,5,0,3460.9553489240,6070.0015724865,11709.0598265948,-1110.9107199346,-8733.1940469111,-6159.6409949811,-8960.7299775001,-22326.4825650226,-11759.8842962243,-4886.8634042109,-6860.5368350730,-2309.3923539039,-24285.5425920004,6428.6687717364,9031.7649915525,13901.3137631843
560730973473,29695,5,0,3462.3059632713,6070.3301003007,11699.4960168920,-1114.1959980768,-8731.0525322703,-6174.2300634718,-8960.4744558668,-22321.2747907824,-11755.8446208791,-4889.3699497564,-6866.2313171862,-2303.3693439766,-24280.1888053983,6430.5060939566,9033.6266491664,13907.3246054148
560730973473,29695,5,0,3464.3866394280,6073.7857261984,11697.4518438258,-1111.5556078662,-8727.4265586170,-6173.0132937895,-8955.9359049519,-22317.2837862245,-11752.4376657686,-4885.5736283477,-6858.6386743687,-2299.7920411106,-24278.0107876670,6431.5768512770,9032.3368733031,13906.9109037229
560730996999,29696,5,0,3469.4362336096,6083.7510698964,11710.6051240914,-1100.7020223002,-8726.5991552331,-6157.1222817388,-8950.5091121688,-22316.3955443564,-11752.1821441354,-4881.6191268802,-6849.2573801182,-2301.3495063040,-24282.9387048803,6429.8125352377,9030.8645819876,13900.9974030669
560730996999,29696,5,0,3470.1176246317,6084.2621131630,11717.1756803757,-1094.9101986124,-8727.9741049741,-6147.5098012486,-8951.5433663988,-22319.8268348605,-11756.9032105027,-4883.4929521909,-6849.4398955705,-2304.9146414731,-24287.8422866999,6424.6169286943,9026.1191802266,13896.6170322107
560730996999,29696,5,0,3465.8954338341,6077.9835816023,11711.7245521991,-1101.5294256841,-8731.3080539035,-6155.1876179439,-8957.1770100278,-22322.7714174916,-11759.5070976228,-4887.3136089934,-6859.5999224177,-2308.7352982755,-24289.9716336440,6423.8138607040,9026.9709190042,13897.3470940200
560730996999,29696,5,0,3462.2207893936,6072.4107764574,11701.2603329313,-1110.2414966093,-8731.4418985686,-6170.5675867281,-8961.6060516714,-22323.8543425089,-11757.1708998328,-4888.5303786756,-6868.5066764921,-2306.1435788522,-24285.9562936924,6427.7318590810,9030.0371786036,13901.6909617858
560730996999,29696,5,0,3459.7142438480,6072.3499379733,11692.4630881284,-1113.3929300865,-8728.8258437517,-6173.9623741417,-8958.2842704387,-22321.8345048363,-11754.3966649571,-4888.7859003089,-6865.4160814990,-2302.9799776782,-24281.7097675012,6431.8445406071,9031.3999606478,13902.8833960745
560730996999,29696,5,0,3465.8710984404,6077.9592462087,11703.8033815673,-1105.6421072103,-8727.9376018836,-6158.3268837242,-8954.3784397585,-22320.7637475158,-11754.2506525953,-4884.7583926605,-6853.6255832776,-2304.4766043875,-24284.0094622007,6430.8954602550,9030.5603895670,13900.4255213162
560730996999,29696,5,0,3468.9008549494,6081.6460583460,11714.9246564635,-1098.8890354735,-8727.7429187344,-6144.7842371603,-8950.7281307117,-22319.8268348605,-11756.8180366249,-4880.2198417456,-6848.2109581914,-2305.0484861381,-24287.9639636682,6427.2816542985,9028.2850302611,13897.4079325041
560730996999,29696,5,0,3467.9274392035,6079.9912515781,11714.5839609525,-1100.7141899970,-8727.9010987931,-6148.1425214834,-8952.0665773622,-22317.4297985864,-11758.1078124881,-4882.9089027434,-6854.1122911505,-2303.9777288177,-24290.3244968518,6426.6854371542,9029.1367690387,13899.2939255117
560731029302,29697,5,0,3466.3578063134,6077.1683459152,11704.0832385943,-1107.4550940369,-8730.4319797323,-6163.3764779057,-8953.0886638953,-22316.4928859310,-11757.2317383169,-4885.6831376191,-6861.0965491269,-2299.2323270568,-24287.1365602842,6425.1279719609,9030.2683648432,13904.1123334536
560731029302,29697,5,0,3464.5204840931,6074.4671172205,11698.7051165985,-1111.0202292060,-8727.0858631060,-6169.0831277157,-8950.1684166578,-22312.1733535589,-11752.2186472258,-4881.4001083374,-6855.9982841581,-2295.9957197019,-24285.0680518243,6431.9175467881,9035.6586545358,13909.5634616303
560731029302,29697,5,0,3469.7769291206,6079.5897175830,11707.0764920127,-1102.7461953664,-8724.0561065971,-6154.9807670979,-8946.1409090094,-22312.4288751921,-11749.8216109517,-4877.8836439556,-6845.8139219173,-2295.8132042495,-24282.4033262201,6434.7647878446,9036.9849334895,13905.7184694342
560731029302,29697,5,0,3471.1032080743,6083.0210080870,11717.0418357107,-1096.3094837471,-8724.8470068906,-6141.5111267149,-8946.4816045204,-22314.1566881410,-11751.2208960863,-4876.6668742733,-6842.1636128704,-2299.8407118979,-24285.8954552083,6432.1974038150,9034.9407604232,13903.2727623728
560731029302,29697,5,0,3468.5114886510,6079.1760158910,11717.1391772853,-1099.4609172242,-8727.2805462551,-6146.1348515076,-8951.1418324036,-22317.0525999849,-11753.4597523018,-4878.8935627919,-6850.3768082259,-2302.1647419911,-24285.9806290860,6431.2969942501,9033.3832952299,13903.6621286711
560731029302,29697,5,0,3465.0193596628,6074.8929866093,11705.4946914257,-1107.0535600417,-8728.7893406612,-6162.4639006440,-8955.0963338711,-22318.0138480339,-11753.8856216906,-4882.7993934720,-6860.8896982809,-2299.7433703233,-24285.4452504258,6433.5723535560,9035.7803315040,13912.3620318995
560731029302,29697,5,0,3465.3357197802,6073.3963599001,11696.9164651656,-1110.3023350935,-8725.3702178539,-6171.4558285962,-8952.4802790542,-22314.4243774711,-11749.0063752646,-4880.8282265867,-6858.1884695862,-2294.4747575990,-24281.2717304156,6435.9937252238,9037.7514983893,13914.9294159292
560731029302,29697,5,0,3466.4551478879,6076.6816380423,11703.0733197580,-1105.6786103007,-8724.2264543526,-6160.9307708443,-8949.5965349071,-22314.0106757791,-11749.9311202231,-4876.5086942146,-6848.1622874041,-2296.2269059415,-24282.9995433644,6434.0712291257,9036.5833994943,13915.6716454354
560731065042,29698,5,0,3467.8300976289,6079.5532144925,11711.9314030451,-1099.4609172242,-8726.0394411792,-6146.9987579821,-8950.0102365991,-22316.8335814420,-11753.7761124192,-4877.2387560240,-6843.5263949146,-2300.3517551645,-24287.9031251841,6430.8224540740,9036.3643809515,13909.8554863540
560731065042,29698,5,0,3465.6764152913,6077.5820476072,11712.1504215879,-1102.1378105253,-8730.0304457371,-6148.8117448087,-8955.2910170203,-22320.1431949779,-11757.6089369184,-4879.5871215108,-6851.6665840891,-2303.2963377956,-24287.1608956779,6431.7593667294,9035.3179590247,13908.8090644272
560731065042,29698,5,0,3463.1577020489,6073.3598568096,11706.4316040811,-1108.1364850590,-8730.4684828228,-6164.1917135929,-8958.9048229767,-22320.3013750366,-11755.9419624536,-4880.8647296772,-6860.0379595033,-2300.8627984310,-24283.2428973009,6436.7359547300,9038.5423986828,13915.5012976799
560731065042,29698,5,0,3464.1554531884,6073.7370554111,11700.4450972442,-1110.5821921204,-8725.7960872428,-6172.0277103469,-8955.7655571964,-22314.5582221361,-11749.2375615042,-4880.2441771392,-6858.2858111608,-2294.1340620880,-24275.2852235787,6445.8617273472,9044.0300299500,13922.0353508738
560731065042,29698,5,0,3467.9517745972,6077.9105754214,11703.3410090881,-1104.4253375280,-8724.0439389002,-6162.8897700328,-8950.5821183498,-22313.5726386935,-11747.8261086727,-4878.2121717698,-6848.8558461230,-2293.2701556135,-24274.9931988549,6446.7134661248,9043.0687819010,13920.4413825900
560731065042,29698,5,0,3468.9616934335,6082.6073063951,11717.0905064980,-1097.1125517374,-8724.8835099810,-6146.9865902852,-8948.8908084914,-22315.8114949089,-11751.2330637832,-4876.5451973050,-6843.8184196383,-2299.6216933551,-24278.8016879605,6440.9338101339,9040.0511930889,13913.4449569168
560731065042,29698,5,0,3468.3411408955,6081.1958535636,11720.3879523370,-1097.4289118548,-8727.7185833408,-6145.3439512141,-8952.6384591129,-22319.4253008653,-11755.3822483998,-4879.0030720633,-6849.0018584849,-2302.6879529545,-24281.7341028948,6437.7823766567,9035.1719466629,13908.0668349210
560731065042,29698,5,0,3468.5114886510,6077.5455445167,11713.1238373337,-1102.2716551903,-8728.8988499326,-6160.1155351572,-8956.7633083358,-22319.9363441319,-11755.8811239695,-4882.7020518975,-6859.0523760606,-2300.3395874677,-24280.5660039998,6438.5002707693,9040.1850377539,13913.6761431564
560731096170,29699,5,0,3467.3433897560,6075.1971790299,11702.4527672200,-1110.2293289125,-8729.0326945977,-6174.6802682543,-8959.6105493924,-22319.7051578923,-11753.6909385414,-4883.3956106164,-6862.0577971759,-2299.3175009345,-24279.9332837650,6439.6440342706,9040.4040562967,13918.4458803110
560731096170,29699,5,0,3469.9716122698,6077.6672214849,11703.4991891468,-1107.4550940369,-8729.2882162309,-6169.7888541314,-8957.4812024484,-22319.7173255891,-11752.5836781305,-4881.0107420391,-6855.3533962265,-2300.3760905581,-24280.6025070903,6438.7679600994,9041.7425029473,13917.0830982668
560731096170,29699,5,0,3474.1694676737,6084.7609887327,11714.1945946541,-1098.7065200212,-8728.8258437517,-6152.9852648190,-8955.5708740472,-22319.9363441319,-11753.8247832064,-4879.6844630854,-6847.9797719518,-2302.8339653164,-24283.5835928119,6435.6895328032,9037.4108028783,13912.5080442614
560731096170,29699,5,0,3472.5024932089,6084.4689640090,11718.8669902341,-1096.8326947105,-8731.6487494146,-6148.4953846913,-8959.1846800036,-22322.4550573742,-11757.4142537692,-4880.0981647773,-6852.3844782017,-2306.2165850331,-24288.7305285680,6430.9076279518,9033.8700031028,13909.1740953319
560731096170,29699,5,0,3468.0977869590,6079.5775498861,11710.1427516121,-1104.4010021343,-8734.2283011410,-6164.0943720183,-8964.9400006009,-22324.9616029198,-11758.6553588452,-4884.6367156923,-6863.8707840025,-2306.7641313902,-24289.4484226806,6429.3866658489,9033.2372828680,13911.2426037918
560731096170,29699,5,0,3466.0171108023,6074.8808189125,11697.7317008527,-1111.5434401694,-8732.7803452191,-6178.0993910615,-8964.5019635152,-22321.3843000538,-11755.3700807030,-4885.6709699223,-6865.4525845895,-2302.2499158689,-24286.2848215066,6433.0613102894,9036.7172441594,13917.6914831080
560731096170,29699,5,0,3467.4650667243,6075.3675267854,11698.8511289604,-1111.2757508393,-8730.2494642799,-6170.9691207233,-8958.9048229767,-22319.5226424399,-11751.9752932894,-4881.6312945770,-6855.9617810676,-2299.6338610519,-24285.2262318830,6434.5701046955,9036.7415795530,13917.5211353525
560731096170,29699,5,0,3470.0567861475,6080.0520900622,11711.1648381452,-1104.5713498899,-8728.5946575120,-6153.6666558410,-8956.1670911915,-22319.6808224986,-11752.7905289765,-4878.1635009825,-6846.3371328807,-2301.1304877611,-24287.6111004603,6433.9373844607,9036.6807410689,13915.1606021688
560731120847,29700,5,0,3467.8544330226,6079.0543389228,11715.7642275443,-1102.6853568823,-8730.9430229989,-6148.6413970532,-8959.2698538814,-22323.3189638487,-11756.5503472948,-4880.4996987725,-6849.3547216927,-2304.0872380891,-24289.4240872869,6430.2749077170,9032.3003702127,13910.9992498554
560731120847,29700,5,0,3466.6376633403,6075.3553590886,11710.0210746439,-1108.7935406874,-8732.5734943731,-6159.4828149224,-8962.4821258426,-22323.6474916629,-11756.3799995393,-4882.5317041419,-6858.0546249212,-2303.6735363971,-24288.7426962648,6429.6300197854,9032.5680595428,13915.0754282911
560731120847,29700,5,0,3468.0856192622,6078.2877740229,11703.8763877483,-1109.8764657047,-8727.7672541281,-6170.9812884201,-8958.6006305561,-22317.7218233101,-11749.4687477438,-4879.8791462345,-6857.6774263196,-2295.0588070465,-24283.0482141517,6436.7237870331,9039.3698020668,13923.6293191576
560731120847,29700,5,0,3472.7701825391,6083.2643620235,11703.6817045991,-1104.0238035328,-8720.9290085136,-6164.0457012310,-8949.6452056944,-22310.5428821846,-11743.3240608483,-4875.3284276228,-6846.8725115409,-2289.6928527476,-24277.5484151877,6442.8198031414,9044.7235886689,13926.6469079697
560731120847,29700,5,0,3475.7634359575,6087.4622174274,11714.2919362287,-1096.6015084708,-8718.7144876918,-6146.1956899918,-8945.5325241683,-22310.3847021259,-11744.1636319290,-4870.3153365317,-6836.1162675494,-2291.2868210314,-24279.2397250461,6441.7125427305,9043.0809495978,13922.2056986293
560731120847,29700,5,0,3467.4285636338,6081.5608844683,11715.4235320332,-1096.0782975074,-8723.4355540591,-6139.4912890423,-8946.5059399141,-22313.2684462729,-11747.4975808585,-4870.0598148984,-6837.6615650459,-2293.9515466356,-24283.6687666897,6437.7458735663,9039.3089635827,13917.1196013573
560731120847,29700,5,0,3455.7475746838,6071.2426775624,11703.3045059976,-1106.4695105942,-8724.1412804748,-6147.7166520946,-8948.1120758947,-22311.9908381065,-11746.8526929269,-4871.9701432996,-6844.5241460540,-2290.9947963076,-24280.6998486649,6439.8508851166,9041.0854473188,13920.1250224726
560731120847,29700,5,0,3452.1702718178,6065.1588291510,11694.9818013707,-1113.0644022723,-8719.1890278679,-6160.0790320667,-8945.5325241683,-22306.0773374506,-11740.8905214837,-4868.7457036415,-6843.9644320002,-2283.8158551821,-24272.3771440380,6449.0496639148,9049.5176612171,13932.7185886843
560731158085,29701,5,0,3461.8435907921,6068.7239643201,11699.7758739189,-1110.2293289125,-8715.3318679750,-6159.7991750398,-8942.4175937816,-22305.0430832206,-11736.9116846226,-4866.4703443357,-6838.4037945521,-2282.1245453237,-24269.1162012894,6450.1690920225,9050.4910769630,13933.0714518922
560731158085,29701,5,0,3479.7787759091,6081.6095552556,11719.1103441706,-1098.8403646862,-8717.3273702540,-6147.0474287694,-8943.8168789162,-22309.5329633483,-11742.1559619532,-4871.3617584585,-6836.6638139064,-2289.6563496571,-24274.0319508059,6444.0000697333,9045.1007872704,13921.9866800865
560731158085,29701,5,0,3489.0140577977,6091.6235697409,11731.0955255412,-1091.6614235607,-8722.4499706164,-6140.5985494532,-8950.9593169513,-22317.7948294910,-11749.5417539248,-4875.8394708893,-6844.4876429636,-2300.2909166804,-24280.9432026013,6435.6651974095,9035.1232758756,13908.9550767891
560731158085,29701,5,0,3488.3691698661,6088.4234654764,11729.6232342256,-1097.0760486469,-8726.5139813553,-6150.8924209654,-8959.4036985464,-22322.0900264695,-11753.2650691526,-4880.2563448360,-6857.7260971069,-2303.7465425781,-24284.4109961959,6431.8445406071,9032.1908609413,13905.7793079183
560731158085,29701,5,0,3487.0550586092,6084.8826657009,11718.0274191534,-1103.4154186917,-8724.6888268319,-6167.6230040970,-8959.7200586638,-22319.1211084447,-11749.7729401644,-4882.6898842006,-6859.8797794446,-2299.0984823917,-24280.3348177602,6437.2469979965,9035.8168345945,13912.2646903250
560731158085,29701,5,0,3493.2362485952,6088.9466764398,11715.9832460871,-1100.6776869065,-8717.6072272809,-6166.8807745908,-8949.6695410881,-22312.4775459794,-11742.5453282516,-4876.3870172464,-6847.9797719518,-2291.1651440632,-24273.4844044489,6442.6981261732,9041.6573290695,13919.5166376314
560731158085,29701,5,0,3501.4007731634,6096.2229591399,11731.1806994190,-1090.8340201768,-8711.1826833584,-6147.1691057376,-8942.1864075420,-22308.3526967564,-11737.6295787351,-4868.0399772258,-6836.7611554810,-2289.3643249334,-24270.3208032749,6444.9004792982,9043.1417880819,13918.8595820030
560731158085,29701,5,0,3513.4832961086,6106.4194890776,11748.8846982963,-1081.1607012025,-8706.9848279545,-6130.1099947918,-8940.7384516200,-22309.5451310451,-11736.3641382655,-4865.5090962866,-6838.5498069140,-2290.4229145570,-24268.6903319006,6443.7567157968,9042.7524217836,13915.1849375625
560731186908,29702,5,0,3519.6158153074,6109.4370778896,11753.7031062382,-1080.3576332122,-8704.7946425264,-6132.6408757310,-8941.4076749453,-22307.5617964630,-11734.5511514389,-4864.9250468391,-6844.6336553254,-2287.5270027131,-24266.8286742867,6446.2997644328,9046.2323830749,13918.7744081252
560731186908,29702,5,0,3521.8425038260,6109.4857486769,11747.7165994013,-1083.9349360781,-8703.7847236900,-6149.4079619530,-8940.9696378597,-22304.2643506239,-11732.8598415805,-4866.1661519151,-6845.1568662888,-2282.9032779204,-24264.2126194698,6448.3926082863,9049.1404626156,13928.5694040677
560731186908,29702,5,0,3521.7329945546,6110.0332950340,11739.1140377475,-1085.6627490270,-8706.2669338419,-6159.4949826192,-8938.5847692824,-22302.2201775577,-11733.8819281136,-4869.9259702334,-6837.3573726253,-2281.3214773334,-24265.6240723012,6448.3317698022,9048.5929162586,13931.1367880973
560731186908,29702,5,0,3523.0592735083,6112.3208220367,11745.1248799780,-1080.2116208503,-8704.3931085312,-6144.2488585001,-8935.9565467686,-22301.8916497435,-11733.4195556344,-4866.4703443357,-6829.7403944142,-2283.2683088251,-24266.4271402916,6448.5994591323,9046.0133645321,13927.2917959013
560731186908,29702,5,0,3521.8790069164,6112.8440330001,11757.2560737105,-1075.3932129084,-8702.5436186141,-6126.2528348990,-8936.6136023970,-22304.5198722572,-11731.3023763872,-4858.4883352198,-6830.3244438617,-2287.1863072021,-24266.3663018074,6446.8716461835,9044.3463900674,13923.6901576417
560731186908,29702,5,0,3519.1047720408,6107.9404511804,11755.5647638521,-1078.7880003220,-8703.0546618807,-6127.5426107622,-8942.3932583879,-22307.3062748297,-11730.2924575509,-4856.6631806964,-6839.9004212613,-2288.2813999161,-24264.9183458855,6447.8693973230,9045.4536504783,13922.8749219546
560731186908,29702,5,0,3514.0551778593,6101.4915718643,11742.3384774056,-1088.4126485090,-8703.4075250885,-6144.3218646810,-8943.9142204908,-22305.4689526094,-11731.3875502649,-4858.7560245499,-6844.0617735748,-2285.3854880723,-24263.0080174843,6449.9379057829,9048.5564131681,13932.6577502002
560731186908,29702,5,0,3511.3296137710,6097.2328779762,11734.1982882310,-1092.8781932430,-8702.3854385554,-6153.7153266283,-8940.8722962851,-22304.6415492254,-11730.0491036144,-4856.4198267599,-6835.9945905812,-2283.1831349473,-24258.9440067455,6449.9014026924,9046.1228738035,13937.8411890468
560731276879,29703,5,0,3511.4634584360,6098.5469892331,11738.4326467254,-1088.5829962645,-8700.3899362764,-6141.9978345878,-8937.3923349937,-22305.2742694602,-11729.3677125923,-4855.2395601681,-6826.7836440862,-2285.3368172850,-24259.1995283787,6452.5417929030,9046.0985384099,13932.3292223860
560731276879,29703,5,0,3512.8870789643,6100.7736777517,11749.3470707756,-1084.9691903081,-8698.1754154547,-6122.8945505758,-8938.4144215268,-22306.7343930790,-11728.1144398196,-4851.3945679720,-6827.2095134750,-2288.7072693049,-24259.2116960756,6452.4687867220,9044.7357563657,13924.4080517543
560731276879,29703,5,0,3514.7244011846,6097.8047597269,11755.1023913729,-1085.0056933986,-8695.3890128822,-6119.8526263701,-8940.1544021725,-22307.8538211867,-11725.1576894916,-4847.7077558347,-6834.9116655639,-2288.5369215494,-24257.7880755473,6456.0825926784,9047.6560036032,13924.2012009083
560731276879,29703,5,0,3512.0718432772,6095.0670279418,11748.6048412694,-1091.0895418100,-8693.9045538698,-6132.3853540977,-8939.1566510330,-22304.0940028684,-11723.6975658728,-4848.1336252235,-6837.4060434126,-2282.0637068396,-24253.3225308133,6460.5846405029,9053.3869888068,13930.9299372513
560731276879,29703,5,0,3507.6184662400,6093.6799105039,11736.4493121433,-1093.7177643238,-8694.4277648332,-6145.6238082411,-8935.8348698004,-22300.0178244327,-11722.9553363666,-4851.7717665735,-6829.2901896317,-2278.0118637976,-24253.2251892387,6462.4706335105,9057.3658256679,13937.0381210565
560731276879,29703,5,0,3505.4404485087,6094.3978046165,11738.3839759381,-1092.7200131843,-8696.7639626232,-6138.6152148711,-8932.2332315408,-22299.7379674058,-11724.9995094329,-4851.0052016737,-6819.0571566036,-2279.1556272989,-24255.7317347842,6460.1222680237,9056.0273790174,13936.3810654280
560731276879,29703,5,0,3507.4359507876,6096.2107914431,11751.4277469323,-1086.0156122349,-8697.2628381930,-6122.4443457934,-8932.5130885677,-22301.9646559244,-11726.4231299612,-4848.7663454583,-6819.9940692590,-2282.4287377443,-24259.0535160169,6457.7495671432,9053.9345351638,13929.7861737500
560731276879,29703,5,0,3507.2656030321,6096.4298099859,11755.5769315490,-1085.4193950905,-8698.7351295085,-6120.4610112112,-8936.5284285193,-22305.9799958760,-11728.1752783037,-4852.1489651750,-6832.4051200184,-2284.4729108105,-24261.0976890831,6454.8779906930,9052.6690946943,13926.6834110601
560731288565,29704,5,0,3505.4161131150,6091.6965759218,11746.4511589317,-1093.2432241477,-8700.9374826335,-6137.7756437903,-8938.5604338887,-22304.1061705652,-11726.9341732277,-4855.1300508967,-6840.2289490755,-2281.4553219984,-24259.3942115279,6457.5548839940,9055.2973172080,13930.8690987672
560731288565,29704,5,0,3504.2358465232,6091.2950419266,11735.6705795466,-1095.6645958155,-8699.4651913179,-6152.2552030096,-8934.0462183674,-22298.9227317187,-11725.2306956725,-4857.5757579581,-6831.9670829328,-2275.0916165600,-24257.1066845252,6460.4142927474,9058.4852537756,13938.6077539466
560731288565,29704,5,0,3503.7126355598,6092.2562899757,11733.3222140598,-1093.9611182602,-8699.5381974988,-6147.6193105200,-8929.1061334573,-22298.0466575474,-11725.3037018535,-4861.0922223399,-6823.3766889758,-2274.8604303204,-24256.1941072635,6461.5215531583,9059.0084647390,13936.2715561566
560731288565,29704,5,0,3503.7491386503,6092.3536315502,11743.0685392150,-1090.1769645483,-8698.8446387799,-6129.1852498333,-8927.6460098385,-22299.9204828581,-11725.4618819122,-4858.5978444912,-6820.3712678605,-2277.9388576166,-24259.6497331612,6458.1145980479,9056.6844346458,13931.4044774274
560731288565,29704,5,0,3502.9339029631,6089.1291918922,11746.6093389904,-1091.2112187783,-8698.2849247261,-6123.2474137837,-8931.1503065235,-22302.5365376751,-11725.7295712423,-4856.8821992392,-6828.2559354018,-2280.0682045606,-24260.5744781197,6455.8879095293,9056.8791177950,13931.2341296719
560731288565,29704,5,0,3497.6531225420,6084.7609887327,11736.3641382655,-1098.9377062608,-8699.8180545258,-6136.3641909588,-8934.2774046070,-22301.2589295087,-11725.6809004550,-4859.5469248434,-6837.5277203809,-2276.8437649026,-24257.1918584030,6458.6013059208,9060.1522282404,13936.6487547581
560731288565,29704,5,0,3496.1443281359,6081.8285737984,11723.9165844157,-1103.3424125107,-8700.5481163351,-6150.9410917527,-8934.0340506706,-22298.4360238457,-11723.0648456381,-4858.4761675230,-6831.9305798423,-2272.2687108971,-24255.2206915176,6461.5702239456,9063.3401648080,13944.1683913947
560731288565,29704,5,0,3495.6576202630,6082.1205985221,11723.2838641809,-1101.3104071413,-8702.3246000713,-6148.7874094150,-8932.4157469931,-22300.0664952200,-11726.6178131104,-4858.1598074056,-6824.4109432057,-2275.0429457728,-24257.2891999775,6459.5747216666,9061.1013085926,13943.1706402552
560731295813,29705,5,0,3496.8500545517,6084.8948333978,11732.7625000059,-1095.3847387885,-8703.1155003648,-6130.4750256965,-8930.1525553841,-22301.6726312007,-11726.3987945675,-4855.1057155030,-6822.6222917727,-2278.6445840323,-24259.7105716453,6457.1898530893,9058.1567259614,13937.3544811739
560731295813,29705,5,0,3499.9528172415,6087.0120126450,11743.5552470879,-1090.0309521864,-8700.7062963938,-6119.0617260766,-8932.2575669344,-22302.9259039734,-11724.5249692568,-4849.6180842359,-6826.6984702084,-2279.4841551131,-24258.9926775327,6458.4431258621,9059.9332096976,13937.6221705040
560731295813,29705,5,0,3496.7162098866,6082.4126232459,11740.0996211902,-1094.6911800696,-8701.3998551128,-6130.1830009728,-8934.5572616340,-22300.8817309072,-11722.0305914081,-4848.2553021917,-6833.1473495246,-2276.1623738805,-24255.5005485446,6460.7549882585,9062.9629662065,13944.0588821233
560731295813,29705,5,0,3495.2439185710,6078.2269355388,11724.4032922886,-1101.4199164127,-8701.4241905064,-6147.4611304613,-8935.1778141719,-22297.8398067014,-11722.0549268017,-4851.3824002752,-6831.0910087615,-2272.7554187700,-24254.2229403782,6462.1421056963,9063.1454816588,13950.5077614395
560731295813,29705,5,0,3493.5282733190,6079.1030097101,11722.9066655794,-1098.5118368720,-8702.9086495188,-6146.2078576886,-8933.0849703184,-22298.1926699093,-11723.4055411491,-4851.3580648816,-6821.5880375428,-2272.7432510732,-24255.0016729748,6459.1610199746,9061.2351532576,13947.9038743194
560731295813,29705,5,0,3495.8158003217,6081.9137476762,11735.9504365735,-1092.4401561574,-8703.7725559932,-6128.2483371779,-8933.9367090960,-22301.4414449610,-11724.2816153203,-4848.5108238250,-6819.6168706575,-2278.3768947022,-24258.1774418456,6454.8901583898,9055.9543728365,13940.8101070716
560731295813,29705,5,0,3498.6143705910,6082.9480019061,11745.7332648192,-1090.2621384261,-8705.8045613627,-6117.9057948784,-8937.1246456636,-22304.1913444430,-11727.5547257657,-4849.0096993947,-6828.4262831573,-2283.1709672505,-24260.5136396356,6451.2276816461,9053.1558025672,13933.0836195890
560731295813,29705,5,0,3497.8843087816,6081.6217229524,11743.5917501784,-1092.0386221622,-8704.6973009518,-6126.5691950163,-8938.8646263093,-22302.0498298022,-11727.0801855896,-4849.1678794534,-6835.0698456226,-2279.7761798369,-24259.8079132199,6454.9266614803,9054.2508952812,13939.2039710909
560731314618,29706,5,0,3497.3245947278,6080.7699841748,11736.0477781481,-1096.0174590233,-8704.2470961693,-6141.9978345878,-8934.3382430912,-22297.2800926476,-11725.1698571884,-4849.6059165391,-6828.6209663065,-2272.2200401098,-24254.6853128574,6457.4697101163,9056.7087700395,13944.9714593850
560731314618,29706,5,0,3500.7558852318,6085.1746904247,11734.4051390770,-1090.4689892721,-8701.0104888144,-6139.9901646121,-8925.0177873248,-22291.4395981726,-11721.8480759558,-4847.9511097711,-6814.8958042902,-2268.1316939773,-24253.3712016005,6461.7892424884,9060.5780976292,13949.9602150824
560731314618,29706,5,0,3505.3796100245,6089.5428935841,11746.4633266286,-1081.7934214373,-8696.8978072883,-6121.3370853825,-8921.8663538476,-22291.0623995710,-11719.1225118674,-4844.0331113941,-6810.6614457958,-2271.3196305449,-24253.3712016005,6459.9397525713,9056.8547824014,13942.4770815363
560731314618,29706,5,0,3506.8762367338,6090.0782722443,11758.1199801849,-1078.7028264443,-8698.2119185451,-6111.3960770781,-8926.1493831293,-22296.6108693223,-11721.0693433591,-4845.3958934383,-6821.0648265794,-2278.0118637976,-24258.2261126329,6454.2574381550,9048.1305437793,13930.6135771340
560731314618,29706,5,0,3502.8487290854,6085.8682491436,11754.5548450158,-1085.9791091444,-8701.3268489318,-6125.1090713976,-8932.4522500836,-22299.1782533519,-11725.2063602789,-4851.9299466322,-6834.8143239893,-2280.7252601891,-24259.5158884961,6450.9478246192,9045.6970044147,13927.4621436568
560731314618,29706,5,0,3498.2736750799,6080.4536240574,11737.7999264906,-1093.0120379081,-8704.6729655581,-6146.0010068426,-8932.4400823868,-22297.4139373126,-11726.2406145088,-4857.9407888628,-6834.8994978671,-2275.2619643156,-24257.7029016695,6453.0406684727,9048.8362701950,13934.1543769094
560731314618,29706,5,0,3499.4904447622,6084.4567963121,11736.4249767496,-1091.2477218687,-8702.2880969808,-6149.7973282513,-8925.4314890168,-22292.0844861042,-11724.1477706553,-4857.1255531756,-6820.6876279779,-2269.9690161976,-24256.4739642904,6452.4687867220,9049.2378041902,13938.4252384943
560731314618,29706,5,0,3503.0555799314,6088.5573101415,11745.8427740906,-1082.3166324007,-8699.5990359830,-6130.8887273885,-8919.6761684195,-22290.6730332727,-11721.4708773542,-4852.8911946812,-6813.8493823634,-2269.2876251755,-24256.2792811412,6451.2398493429,9048.8971086792,13934.6532524792
560731340755,29707,5,0,3504.9415729389,6088.6911548065,11755.4795899744,-1078.7758326252,-8698.8568064768,-6115.1437276996,-8922.2313847523,-22292.9240571850,-11722.8093240048,-4851.1147109451,-6818.3879332784,-2272.5120648336,-24260.9638444181,6448.3439374991,9047.9845314174,13930.6379125276
560731340755,29707,5,0,3500.3786866303,6084.2256100725,11750.8193620912,-1084.0322776527,-8701.8257245016,-6122.4321780965,-8927.6946806258,-22294.8465532830,-11724.3059507140,-4852.7208469257,-6830.5556301013,-2273.0839465843,-24263.7502469905,6447.0054908485,9046.8286002193,13933.1931288604
560731340755,29707,5,0,3495.1222416028,6076.7303088296,11736.3398028719,-1093.9002797761,-8704.1254192011,-6142.2168531307,-8929.7875244794,-22293.0700695468,-11724.5371369536,-4855.6289264664,-6832.8553248008,-2267.8031661631,-24261.0003475085,6448.4656144673,9049.6271704885,13939.9096975067
560731340755,29707,5,0,3496.9838992167,6079.0786743164,11728.1874460005,-1092.6835100938,-8702.5071155236,-6147.8869998501,-8924.7622656915,-22290.8312133314,-11721.5682189288,-4854.6311753269,-6821.4176897873,-2262.7657396784,-24258.5911435376,6452.3471097538,9055.0539632716,13946.8696200894
560731340755,29707,5,0,3500.5490343858,6085.6979013881,11738.4813175127,-1084.1661223178,-8699.8423899194,-6130.6332057552,-8920.6982549526,-22289.2129096540,-11719.8160705863,-4848.2066314044,-6811.6713646321,-2264.1893602067,-24259.4428823152,6450.9234892255,9053.5695042592,13942.4284107490
560731340755,29707,5,0,3504.7225543961,6090.5041416331,11749.2375615042,-1076.4396348352,-8699.3800174401,-6113.9026226237,-8920.9659442827,-22291.8167967741,-11721.0815110559,-4845.9799428858,-6814.9931458648,-2267.6936568917,-24261.8642539830,6447.9910742912,9051.3306480437,13935.6510036187
560731340755,29707,5,0,3504.0289956772,6089.5793966746,11750.5638404579,-1078.9461803807,-8700.7671348780,-6116.5795159247,-8926.8429418482,-22294.0799883831,-11723.0405102444,-4848.8393516392,-6827.1000042036,-2270.1880347404,-24264.3707995285,6445.8130565599,9050.4910769630,13934.7992648410
560731340755,29707,5,0,3499.4539416718,6084.1161008011,11738.9680253856,-1086.2589661713,-8704.7094686486,-6136.6197125921,-8930.4567478046,-22292.5955293707,-11724.8534970710,-4851.7474311799,-6834.3032807228,-2269.1172774200,-24263.3487129954,6445.5575349266,9049.8705244250,13940.3477345923
560731374822,29708,5,0,3500.8653945032,6084.9191687914,11733.1640340011,-1087.5244066409,-8703.6752144186,-6144.6503924952,-8927.7433514131,-22293.5811128134,-11723.2108579999,-4851.5892511212,-6827.8909044971,-2266.3917133316,-24261.2923722323,6450.0595827511,9052.9854548117,13944.4969192089
560731374822,29708,5,0,3502.3498535156,6088.2652854177,11736.7778399575,-1082.6694956086,-8704.3931085312,-6132.1420001613,-8924.6162533296,-22293.2404173024,-11725.0725156138,-4852.2098036592,-6818.7651318799,-2268.9225942708,-24263.8840916556,6447.0054908485,9049.7975182440,13936.9651148755
560731374822,29708,5,0,3497.6044517547,6085.9290876277,11743.9446133862,-1081.4405582294,-8708.2867715145,-6120.8260421159,-8928.9601210954,-22300.8330601199,-11730.9495131793,-4853.8159396398,-6820.7849695525,-2278.1943792499,-24271.8904361651,6439.4128480310,9041.5478197981,13928.1435346789
560731374822,29708,5,0,3492.7008699350,6080.5874687225,11741.6692540803,-1087.2688850076,-8712.5332977057,-6124.0018109867,-8935.6280189544,-22307.4522871915,-11734.9161823436,-4855.9817896743,-6831.5898843313,-2283.4751596711,-24274.6890064343,6437.5268550235,9039.6253237001,13928.7762549137
560731374822,29708,5,0,3488.6003561057,6073.8343969857,11729.0756878686,-1096.1269682947,-8712.2534406788,-6140.0996738835,-8938.5239307982,-22303.5221211177,-11732.2636244362,-4858.1354720119,-6839.5597257503,-2280.0803722575,-24267.8994316071,6443.4646910731,9043.6649990453,13935.5293266504
560731374822,29708,5,0,3488.5881884089,6071.5955407703,11722.6633116429,-1101.1643947794,-8709.3696965318,-6147.8018259724,-8936.6866085780,-22302.6095438560,-11728.6741538734,-4855.7871065251,-6836.5178015445,-2276.7950941153,-24264.6628242522,6449.2200116703,9049.4203196425,13940.4085730764
560731374822,29708,5,0,3492.4940190890,6077.2535197930,11730.6574884556,-1094.7763539474,-8707.6783866734,-6137.2159297364,-8931.6856851838,-22303.0719163353,-11726.8003285627,-4853.6577595811,-6826.3091039101,-2276.7707587216,-24267.4613945215,6445.8495596503,9044.1273715246,13935.1277926553
560731374822,29708,5,0,3497.2150854563,6082.6438094855,11741.6327509899,-1086.2833015650,-8707.3620265560,-6121.1302345365,-8929.5806736334,-22304.3373568049,-11727.9440920641,-4853.1102132241,-6819.4465229020,-2279.7761798369,-24269.5177352846,6445.4845287457,9043.7745083167,13932.9862780144
560731410625,29709,5,0,3498.2371719895,6083.5563867472,11748.0086241251,-1084.1417869241,-8710.6716400918,-6122.0063087077,-8932.8294486851,-22305.5419587903,-11731.6065688078,-4853.9254489112,-6824.8003095041,-2282.6964270744,-24270.0652816416,6443.8418896746,9041.9006830060,13932.1588746305
560731410625,29709,5,0,3496.6432037057,6080.1981024241,11739.6007456204,-1091.7100943480,-8712.2656083756,-6139.0410842599,-8936.5770993066,-22305.0917540079,-11731.4483887491,-4856.4928329408,-6834.0842621800,-2280.7009247954,-24265.7700846631,6446.7986400025,9046.3175569527,13936.9164440882
560731410625,29709,5,0,3497.1785823659,6079.6505560671,11732.0202704997,-1096.0174590233,-8709.8929074952,-6149.5904774054,-8936.0903914337,-22301.7943081689,-11726.0337636629,-4858.0746335278,-6832.8066540135,-2275.6513306139,-24261.1585275672,6452.2376004824,9052.3527345769,13942.6474292918
560731410625,29709,5,0,3500.2083388748,6081.0863442922,11737.6052433415,-1091.9656159813,-8706.3764431133,-6139.7103075851,-8930.0795492031,-22299.5554519535,-11724.5614723473,-4853.7064303684,-6822.4641117140,-2274.0330269365,-24259.9904286722,6454.0627550058,9052.9854548117,13943.3166526171
560731410625,29709,5,0,3501.0479099556,6081.2688597445,11746.0374572398,-1087.3053880981,-8706.8388155926,-6124.2208295295,-8929.2399781223,-22302.6825500370,-11726.9828440150,-4852.9520331654,-6816.7817972977,-2277.8658514357,-24264.3951349221,6448.7576391910,9049.2864749775,13938.2670584356
560731410625,29709,5,0,3497.7747995102,6080.1615993336,11748.3736550298,-1087.2688850076,-8710.4404538522,-6124.8657174611,-8932.1480576630,-22304.3616921985,-11731.8620904410,-4857.7461057136,-6822.9508195870,-2281.0537880033,-24268.0089408785,6445.0464916600,9046.9502771875,13934.8236002347
560731410625,29709,5,0,3492.5426898763,6075.0998374553,11738.2379635763,-1094.9101986124,-8711.1826833584,-6137.9703269394,-8935.3359942306,-22304.3008537144,-11730.1586128858,-4858.7803599436,-6830.7503132505,-2277.7441744675,-24265.1008613379,6443.9392312491,9045.8673521702,13935.6753390123
560731410625,29709,5,0,3492.8712176906,6073.5423722620,11731.5092272332,-1098.5483399625,-8707.5932127956,-6148.7509063246,-8932.6591009296,-22299.6406258312,-11724.6344785282,-4856.5171683345,-6830.0202514411,-2270.7234134006,-24259.7470747358,6451.3980294016,9052.1945545182,13943.6451804313
560731424996,29710,5,0,3497.4462716960,6082.0597600380,11736.3641382655,-1092.4401561574,-8702.9208172156,-6139.4912890423,-8928.2665623765,-22297.1097448920,-11722.6633116429,-4855.4950818014,-6822.1234162030,-2271.7089968433,-24258.4816342662,6453.6855564043,9052.4014053642,13941.1751379763
560731424996,29710,5,0,3500.4881959017,6086.9268387672,11744.9301968289,-1084.5676563129,-8703.7238852059,-6123.6124446884,-8927.4391589925,-22301.2710972055,-11726.8246639563,-4855.3734048331,-6817.5970329849,-2278.0727022817,-24264.0301040174,6449.7310549369,9047.0719541557,13931.3558066402
560731424996,29710,5,0,3499.1862523417,6084.6271440677,11750.6490143357,-1084.6893332812,-8708.6031316319,-6120.0594772161,-8931.6613497901,-22305.9434927855,-11731.2415379031,-4858.1233043151,-6823.8390614550,-2283.7550166980,-24267.3275498565,6446.9933231517,9042.3873908789,13928.0705284980
560731424996,29710,5,0,3497.7747995102,6083.6537283218,11743.5917501784,-1089.2035488025,-8707.6297158861,-6130.8643919948,-8933.3039888612,-22305.0430832206,-11731.0225193603,-4860.0823035036,-6833.9747529086,-2279.9586952892,-24263.4582222668,6450.1082535384,9045.8551844734,13933.7041721270
560731424996,29710,5,0,3497.1542469722,6080.8673257494,11732.5799845536,-1094.4599938300,-8704.7338040422,-6143.7499829303,-8932.1480576630,-22300.7478862421,-11725.8877513010,-4858.9993784864,-6835.7025658574,-2274.9091011077,-24259.5158884961,6454.3182766391,9050.1260460583,13941.9660382698
