timestamp,sequence,battery,flags,EEG-ch1,EEG-ch2,EEG-ch3,EEG-ch4,EEG-ch5,EEG-ch6,EEG-ch7,EEG-ch8,EEG-ch9,EEG-ch10,EEG-ch11,EEG-ch12,EEG-ch13,EEG-ch14,EEG-ch15,EEG-ch16
561268325406,40457,-2,0,6869.8816262331,9382.3771755055,13552.2712121214,1307.1635019918,-6295.4933300093,-3530.2382146338,-6235.7499386086,-20727.6228670944,-8719.6514003472,-2857.3402449315,-5269.3792892337,99.3614122561,-21780.3111577312,9825.0501536210,12169.1204434703,15477.1400110267
561268325406,40457,-2,0,6868.4823410984,9381.3429212756,13552.6119076324,1306.9931542363,-6295.7610193394,-3526.0403592299,-6237.8671178558,-20731.3461823222,-8720.4666360343,-2858.4475053424,-5274.3437095375,98.3149903294,-21778.0601338190,9824.8311350782,12168.7310771719,15475.1810118382
561268325406,40457,-2,0,6864.7955289611,9376.8408734511,13545.1652771768,1301.1891628518,-6297.1724721708,-3535.3121442090,-6241.5782653868,-20732.1735857062,-8720.8560023326,-2858.4231699487,-5279.0769436016,98.9720459578,-21776.4296624447,9827.0334882031,12169.2907912258,15481.0458417069
561268325406,40457,-2,0,6862.0091263886,9371.5722607268,13534.6645548186,1294.8011220197,-6296.5519196328,-3544.4135814325,-6241.8216193233,-20728.7544628989,-8718.1669413348,-2858.0459713472,-5276.3270441196,103.4497583887,-21770.8446896030,9831.7302191768,12172.4908954902,15488.0057642896
561268325406,40457,-2,0,6866.0609694306,9375.5024268006,13534.8714056646,1297.4901830176,-6294.7511005031,-3540.0453782731,-6237.4899192543,-20726.8441344977,-8716.1836067526,-2856.9752140268,-5270.8029097620,104.2041555917,-21768.9586965954,9834.2489324191,12173.7320005662,15489.3077078496
561268325406,40457,-2,0,6870.9888866439,9382.5231878674,13547.8543381747,1306.7863033903,-6292.3783996226,-3528.2427123548,-6235.4092430976,-20726.9171406787,-8714.1637690800,-2853.2518987990,-5267.5541347103,102.6466903983,-21770.6621741506,9833.0078273432,12172.7950879108,15487.5312241135
561268325406,40457,-2,0,6871.9988054802,9385.5286089827,13556.0066950460,1310.4974509213,-6292.2810580480,-3523.1687827797,-6237.2100622274,-20727.8783887277,-8715.1858556131,-2851.1103841581,-5270.7299035811,100.8702066622,-21772.7185149137,9832.2777655338,12173.4643112361,15489.4658879083
561268325406,40457,-2,0,6869.6261045998,9381.3064181851,13548.8399216173,1305.6182044953,-6294.6172558380,-3531.9416921890,-6241.2375698758,-20727.3186746738,-8717.5585564936,-2854.1644760607,-5275.8038331562,102.0261378604,-21771.6842606838,9831.9370700228,12174.1578699550,15494.0896127011
561268331907,40458,-2,0,6863.0677160122,9375.6727745561,13536.7452309753,1298.1715740397,-6296.2355595155,-3542.9899609043,-6242.4300041644,-20725.9558926297,-8718.0209289729,-2856.0626367651,-5275.1832806183,105.7981238755,-21772.5846702487,9830.9393188833,12174.0726960772,15500.3316411712
561268331907,40458,-2,0,6858.6508420655,9371.0368820665,13530.3693578401,1294.9593020784,-6298.4744157309,-3543.1116378725,-6242.2109856216,-20726.6251159549,-8719.6879034376,-2856.9387109363,-5272.1778595030,104.1676525012,-21774.9573711291,9828.5301149123,12172.3448831284,15501.0860383743
561268331907,40458,-2,0,6858.0667926180,9374.6750234166,13536.5870509166,1297.7822077413,-6301.0661351542,-3534.5212439155,-6241.0550544234,-20728.6206182339,-8722.2552874673,-2857.5957665648,-5271.8493316888,99.8724555227,-21777.2327304350,9827.9582331617,12170.3128777589,15497.1558723004
561268331907,40458,-2,0,6858.7603513369,9375.2834082577,13543.6078119835,1301.0188150963,-6302.5627618634,-3530.7249225067,-6242.4056687708,-20730.7986359652,-8724.7131622255,-2860.5038461054,-5274.5140572930,98.0473009993,-21778.4738355110,9828.0555747362,12168.8162510497,15494.9535191755
561268331907,40458,-2,0,6858.9306990924,9372.9958812550,13542.9507563550,1300.0332316536,-6303.8038669393,-3537.8673605418,-6245.7031146098,-20729.3506800433,-8726.1611181474,-2862.1221497829,-5280.0138562570,100.1523125496,-21778.8388664157,9827.3133452300,12169.9113437638,15499.4677346968
561268331907,40458,-2,0,6858.1763018894,9374.4316694801,13532.3405247254,1296.4680964845,-6302.8182834967,-3547.7110272716,-6243.4642583944,-20726.0410665074,-8724.2142866558,-2864.8477138712,-5279.1134466921,105.5791053327,-21775.5170851830,9830.3309340421,12172.8559263949,15504.8580243894
561268331907,40458,-2,0,6860.2083072588,9376.5853518178,13529.8096437862,1297.2711644748,-6301.3946629684,-3546.9931331590,-6239.2298999000,-20724.2280796808,-8723.1191939417,-2865.7846265266,-5273.2972876107,106.3091671420,-21774.0934646547,9830.6229587659,12173.0992803314,15507.8026070205
561268331907,40458,-2,0,6862.6418466234,9378.7025310650,13539.7141490001,1301.6637030279,-6300.4090795257,-3536.8574417055,-6237.6967701003,-20726.9293083755,-8721.9754304403,-2864.8720492649,-5272.2752010776,101.4542561097,-21775.7726068163,9828.5301149123,12170.9577656905,15503.1180437437
561268365648,40459,-2,0,6862.4714988679,9381.4402628502,13546.4428853432,1305.3383474684,-6300.6159303717,-3531.7105059494,-6239.8626201348,-20730.6526236033,-8724.0561065971,-2868.1086566198,-5275.8525039435,98.6800212341,-21777.5977613397,9827.2160036555,12167.9036737880,15497.8250956257
561268365648,40459,-2,0,6858.6751774591,9375.7092776466,13540.7484032301,1300.2522501964,-6303.2198174918,-3539.3153164637,-6244.9122143163,-20734.1690879851,-8727.1588692869,-2870.9924007668,-5285.0391150449,96.6723512583,-21779.0822203521,9824.9406443496,12166.5043886534,15497.9832756844
561268365648,40459,-2,0,6855.3655639233,9368.7128519734,13528.0453277469,1288.5225904591,-6305.1544812867,-3552.6146090912,-6248.1974924585,-20735.6778823912,-8728.2417943042,-2872.0266549968,-5288.4460701553,97.4997546422,-21779.5810959219,9824.2227502370,12165.2511158806,15502.8260190199
561268365648,40459,-2,0,6852.9928630428,9367.5082499879,13522.7523796289,1286.2107280627,-6304.8989596534,-3555.8877195366,-6247.8446292506,-20734.6801312517,-8727.1953723774,-2873.3407662536,-5283.5546560325,96.7575251360,-21777.4760843715,9825.8410539145,12162.6593964573,15501.9864479392
561268365648,40459,-2,0,6857.3367308086,9372.7160242281,13530.2963516592,1293.5843523374,-6304.8502888661,-3546.2144005623,-6244.3281648688,-20734.3759388311,-8726.1367827538,-2871.2722577937,-5278.6997450001,94.9567060062,-21774.9330357355,9826.9239789317,12165.5918113916,15502.9233605945
561268365648,40459,-2,0,6860.8775305841,9377.6561091382,13542.2085268488,1299.7898777171,-6303.2928236728,-3535.1782995439,-6242.7950350691,-20735.4345284547,-8724.5671498636,-2864.9693908395,-5277.1787828972,94.0441287445,-21776.0524638432,9826.2790910001,12164.2411970443,15503.2153853183
561268365648,40459,-2,0,6858.1397987989,9376.4271717591,13541.4176265553,1297.9890585873,-6302.3315756237,-3537.4414911530,-6245.0460589813,-20736.4809503815,-8725.3337147635,-2864.3853413920,-5282.6664141644,95.3582400014,-21775.6265944544,9826.1452463350,12167.1736119786,15507.0238744238
561268365648,40459,-2,0,6854.0757880601,9370.4284972254,13529.3594390038,1291.2238191538,-6302.5992649539,-3546.6524376480,-6246.2506609668,-20733.5242000535,-8725.0051869493,-2864.2514967269,-5283.3964759738,99.4830892244,-21775.3224020338,9828.4206056409,12168.3295431768,15514.4583371827
561268395577,40460,-2,0,6855.4507378010,9371.4262483649,13526.0984962552,1290.4450865571,-6300.0318809242,-3546.7741146162,-6243.9631339641,-20730.2389219113,-8722.4256352228,-2858.3136606773,-5276.8502550830,101.0648898114,-21773.2538935739,9829.2480090249,12169.2907912258,15518.3398324692
561268395577,40460,-2,0,6858.8333575178,9375.7457807370,13534.4577039726,1296.4072580004,-6297.8781985865,-3535.4824919645,-6239.2298999000,-20728.8518044735,-8721.1480270564,-2855.0283825351,-5270.1945249209,101.8679578017,-21772.0736269821,9831.2313436070,12170.1425300034,15516.0888085569
561268395577,40460,-2,0,6862.0821325695,9377.6439414414,13543.8268305263,1302.3207586563,-6296.0287086695,-3524.2882108874,-6238.7310243302,-20728.5354443561,-8721.6225672325,-2854.0549667893,-5269.0750968132,99.8237847354,-21772.5725025518,9831.9005669323,12171.4323058666,15513.3389090750
561268395577,40460,-2,0,6860.2569780461,9376.8287057543,13547.4284687859,1299.2666667537,-6299.5573407481,-3527.9750230247,-6241.7851162328,-20729.4601893147,-8723.0705231544,-2855.0648856256,-5272.9565920997,99.3857476498,-21775.5414205766,9828.8343073329,12172.0163553141,15514.7625296032
561268395577,40460,-2,0,6855.3533962265,9372.0224655092,13536.3436969802,1292.5987688948,-6300.2387317702,-3538.9259501654,-6245.1190651623,-20727.8297179404,-8723.8979265384,-2857.0360525109,-5277.4708076210,101.5515976843,-21773.3512351485,9827.6662084379,12169.9965176415,15515.3465790507
561268395577,40460,-2,0,6854.2339681187,9368.2018087068,13527.3396013312,1288.2305657353,-6298.0850494325,-3543.5740103518,-6242.5760165263,-20725.8463833583,-8720.6369837898,-2856.6466862126,-5273.9300078455,103.9242985647,-21770.4066525174,9831.4260267562,12173.9875221995,15522.4403462985
561268395577,40460,-2,0,6857.4219046864,9373.8719554263,13538.0228391417,1293.1584829486,-6295.8826963076,-3534.2657222822,-6239.5462600174,-20727.1604946151,-8718.7996615696,-2852.9720417720,-5268.8195751799,102.5250134301,-21769.1777151382,9834.3097709032,12174.5229008597,15520.8342103179
561268395577,40460,-2,0,6860.6706797381,9375.7944515243,13548.7425800427,1299.3031698442,-6296.8317766598,-3527.5491536359,-6240.5075080664,-20731.7112132269,-8720.0042635550,-2854.8702024764,-5272.3725426522,97.6335993073,-21769.6157522239,9832.7401380131,12172.9532679695,15515.7237776523
561268426803,40461,-2,0,6860.1839718652,9374.3221602087,13547.9638474461,1297.8795493159,-6299.0341297847,-3531.9660275827,-6245.5205991574,-20733.5607031440,-8722.7541630370,-2860.4673430150,-5280.7560857632,95.6259293315,-21770.4066525174,9830.6959649468,12170.4223870303,15515.5290945031
561268426803,40461,-2,0,6857.5800847451,9370.2946525603,13540.8457448047,1292.1972348996,-6301.0783028510,-3545.0828047578,-6248.4408463949,-20731.9423994665,-8723.8735911447,-2864.5800245411,-5285.5501583114,97.0495498598,-21771.5260806251,9830.8663127023,12172.1380322824,15521.0410611639
561268426803,40461,-2,0,6856.1807996104,9368.0922994354,13533.0705865348,1289.3986646303,-6300.9809612764,-3551.8967149786,-6246.9928904730,-20729.1924999846,-8722.5229767974,-2867.9139734706,-5283.6641653039,99.6656046767,-21772.0614592853,9832.8009764972,12174.2673792264,15526.7598786707
561268426803,40461,-2,0,6859.9771210192,9372.0954716901,13537.4509573910,1294.0102217262,-6299.0341297847,-3543.8660350755,-6243.3425814261,-20728.9856491386,-8722.9610138830,-2870.7977176176,-5277.8966770098,99.8116170386,-21770.1511308841,9833.3241874606,12174.5472362533,15524.8252148758
561268426803,40461,-2,0,6861.5954246966,9374.4195017833,13547.2824564240,1298.2567479174,-6297.3914907136,-3533.4626542919,-6241.4322530249,-20730.4214373637,-8722.5473121910,-2869.7512956909,-5276.5460626624,98.1568102707,-21770.2728078523,9832.1195854751,12173.9996898963,15523.9369730077
561268426803,40461,-2,0,6861.5102508189,9372.9715458614,13549.9715174219,1298.5974434285,-6298.4379126404,-3533.2436357491,-6244.1334817196,-20731.7598840142,-8724.7618330128,-2869.1672462434,-5280.9386012155,97.5484254295,-21769.3967336811,9829.6860461105,12171.5904859253,15522.2213277557
561268426803,40461,-2,0,6856.1807996104,9367.6177592593,13538.4852116210,1290.7006081904,-6301.8692031445,-3545.9467112322,-6248.5868587568,-20732.6237904886,-8728.2782973946,-2874.3750204836,-5287.6916729523,98.9598782610,-21771.3800682632,9828.5422826092,12173.3304665710,15529.5584489399
561268426803,40461,-2,0,6849.7075849006,9358.9543591214,13523.2634228955,1280.3945689814,-6305.9210461865,-3557.2991723680,-6252.5535279211,-20735.4588638484,-8729.7140856197,-2876.8328952418,-5289.6263367471,96.4168296250,-21774.9330357355,9825.1474951956,12169.3029589226,15531.7242989744
561268459515,40462,-2,0,6848.8193430325,9357.1413722947,13523.8353046462,1282.2683942921,-6308.1842377956,-3553.2473293260,-6253.4782728796,-20738.0749186653,-8731.9772772288,-2877.0397460878,-5287.7525114364,92.9733714241,-21776.7338548653,9822.7747943151,12166.5530594406,15529.5462812431
561268459515,40462,-2,0,6853.8932726077,9363.8944440315,13535.7231444422,1289.8853725033,-6308.0260577369,-3542.9899609043,-6251.0569012119,-20739.3768622254,-8732.3058050430,-2875.1172499898,-5285.1851274067,90.6128382404,-21775.7239360290,9822.8234651024,12166.0541838709,15527.1492449690
561268459515,40462,-2,0,6854.7815144758,9363.0548729507,13540.0305091175,1291.8687070854,-6308.2085731892,-3540.8971170507,-6253.4904405765,-20740.2164333061,-8732.0016126225,-2873.4137724346,-5288.0202007665,89.7367640692,-21775.8212776036,9822.8478004960,12166.9059226485,15528.9500640988
561268459515,40462,-2,0,6851.0581992480,9360.2319672878,13533.4964559236,1286.7461067229,-6310.5934417665,-3549.9620511838,-6257.0799111392,-20739.0239990175,-8732.9263575810,-2873.6936294615,-5291.1838019404,92.8760298495,-21777.5369228556,9823.7482100609,12170.3250454558,15535.1677571753
561268459515,40462,-2,0,6851.4475655463,9356.2287950330,13523.1660813209,1283.8136917886,-6310.8367957030,-3557.9805633901,-6256.9460664742,-20735.7143854817,-8732.2084634684,-2873.9004803075,-5289.3343120234,95.7841093902,-21778.7415248411,9824.8189673813,12170.5805670890,15540.9960839535
561268459515,40462,-2,0,6851.5205717272,9357.4577324121,13526.3661855853,1285.8091940676,-6310.6299448570,-3554.2572481623,-6253.9163099653,-20734.6436281612,-8731.6609171114,-2872.8418906839,-5285.3311397686,95.0297121872,-21780.5666793645,9822.2759187453,12167.6481521547,15536.3723591608
561268459515,40462,-2,0,6856.9230291166,9362.5803327746,13540.3955400222,1292.9394644058,-6310.4474294046,-3540.1913906350,-6250.8987211532,-20735.8603978435,-8731.0281968766,-2869.0090661847,-5280.8290919441,92.7178497908,-21782.7325293990,9823.0911544325,12167.5994813674,15537.0415824860
561268459515,40462,-2,0,6859.8067732637,9364.0769594838,13547.0512701844,1297.0764813256,-6309.0968150573,-3535.0809579693,-6251.4827706007,-20735.6413793007,-8730.3224704609,-2867.9383088643,-5282.7394203453,94.0197933509,-21781.9781321960,9824.2835887211,12169.2177850449,15537.4431164812
561268537398,40463,-2,0,6859.0888791511,9362.7993513174,13543.4739673184,1294.4117557214,-6307.4298405926,-3539.9480366985,-6251.7991307181,-20731.6868778333,-8727.3778878297,-2864.6773661157,-5283.8953515435,98.2906549357,-21777.9141214571,9828.6152887901,12172.6855786394,15543.5756356800
561268537398,40463,-2,0,6855.2925577423,9359.2220484515,13536.0516722564,1290.8466205523,-6305.2274874676,-3546.9322946749,-6250.3390070993,-20727.6593701849,-8724.3968021081,-2861.1852371275,-5279.9530177729,102.6588580952,-21772.7793533978,9829.8077230787,12175.2772980627,15549.8663349374
561268537398,40463,-2,0,6855.5724147693,9361.6677555129,13534.5915486377,1291.7835332076,-6302.4654202888,-3542.4545822440,-6245.6301084288,-20726.6007805613,-8722.5351444942,-2860.6376907705,-5274.0516848137,102.7683673666,-21771.9641177107,9830.6229587659,12175.6909997547,15549.6594840914
561268537398,40463,-2,0,6858.7725190337,9365.4884123153,13544.3743768833,1299.6438653553,-6301.8448677508,-3530.7857609908,-6241.6147684773,-20725.1163215489,-8720.6734868803,-2858.4353376455,-5268.8195751799,102.5736842174,-21771.0393727522,9831.0609958515,12175.7761736324,15548.4548821060
561268537398,40463,-2,0,6860.8531951904,9366.7538527849,13554.6317453050,1304.1824162702,-6303.4145006410,-3526.2958808632,-6240.6656881251,-20726.1140726884,-8721.8659211689,-2858.0703067408,-5271.0705990921,100.6511881194,-21774.9938742196,9828.8099719393,12175.2894657595,15547.7613233871
561268537398,40463,-2,0,6858.1397987989,9362.1179602953,13546.2603698909,1298.9016358491,-6307.7462007100,-3538.5122484734,-6244.1821525069,-20726.1749111725,-8724.9686838588,-2863.5579380080,-5277.2761244718,102.1234794350,-21777.0137118922,9826.6927926921,12175.1677887913,15551.0587692261
561268537398,40463,-2,0,6854.9031914440,9356.1436211553,13533.5207913172,1292.5866011980,-6306.9553004165,-3549.1103124062,-6243.0748920960,-20723.2789993286,-8725.6865779713,-2865.1762416854,-5277.4099691369,107.1487382228,-21775.2128927624,9827.1186620809,12174.0848637740,15556.6924128551
561268537398,40463,-2,0,6858.8820283051,9361.7894324811,13535.8691568041,1296.4072580004,-6302.8304511935,-3544.6447676722,-6236.2123110879,-20718.9351315628,-8720.5518099121,-2860.7837031324,-5267.9556687054,110.9815627221,-21772.5603348550,9833.0321627368,12179.0736194715,15565.2828068121
561268544363,40464,-2,0,6865.9027893720,9370.1851432889,13550.3122129329,1307.0904958109,-6296.9656213248,-3528.2062092644,-6229.7877671654,-20717.7183618805,-8716.2201098431,-2856.7805308776,-5261.5311247829,112.1253262234,-21769.1898828351,9836.2931054854,12179.8523520681,15563.6888385283
561268544363,40464,-2,0,6870.1979863504,9374.1639801500,13559.6813394866,1311.4952020608,-6296.0043732758,-3521.0881066230,-6229.4592393511,-20718.8986284724,-8716.0740974812,-2857.2185679632,-5264.9989183775,109.9473084921,-21770.3093109428,9834.1029200572,12178.3678930557,15558.9921075546
561268544363,40464,-2,0,6864.0532994549,9368.5911750051,13554.0233604639,1305.7033783731,-6299.3991606894,-3528.5347370786,-6235.6282616404,-20722.8166268493,-8720.4179652470,-2860.0779767166,-5272.6767350727,106.4186764135,-21773.1200489089,9829.5522014455,12175.8613475102,15561.0727837114
561268544363,40464,-2,0,6858.5900035814,9361.9232771462,13537.2076034546,1297.1251521129,-6302.4654202888,-3541.5906757696,-6237.6115962225,-20721.9040495876,-8720.6978222739,-2863.7404534603,-5275.3414606770,107.8179615481,-21774.2638124102,9829.2236736312,12177.0902848893,15567.1687998197
561268544363,40464,-2,0,6857.6530909260,9362.6411712587,13532.4743693905,1296.6627796336,-6299.1679744498,-3540.3495706937,-6234.3628211708,-20719.9815534896,-8716.4756314764,-2859.9319643548,-5268.9169167545,111.3344259299,-21770.4674910015,9833.2025104923,12179.3169734079,15572.5590895122
561268544363,40464,-2,0,6862.3498218997,9368.5181688242,13544.5812277293,1304.2067516639,-6295.6515100680,-3525.8700114744,-6229.9459472241,-20718.2172374503,-8712.3142791629,-2854.0306313956,-5261.7014725385,111.7481276219,-21767.8027653972,9836.4999563314,12179.9253582491,15574.3720763388
561268544363,40464,-2,0,6864.3209887850,9370.1486401985,13552.0886966690,1308.1125823440,-6293.4126538525,-3517.5351391507,-6229.0820407496,-20718.8742930787,-8710.8541555442,-2851.2807319136,-5262.5532113161,112.0644877393,-21765.2353813676,9838.6414709722,12180.9109416917,15574.5789271848
561268544363,40464,-2,0,6864.3453241786,9370.5866772841,13550.8962623804,1307.7232160457,-6291.7700147814,-3520.5162248723,-6229.6052517130,-20716.4042506237,-8709.7225597396,-2849.4799127838,-5266.0575080011,114.7900518276,-21762.0352771032,9842.0727614763,12183.3809841468,15578.9227949506
561268558089,40465,-2,0,6860.4638288921,9365.7074308581,13540.6510616555,1301.3351752136,-6291.4536546640,-3529.5811590054,-6230.6395059430,-20713.2406494497,-8707.1551757100,-2847.7520998350,-5266.6415574486,118.1605038476,-21759.7355824036,9844.3116176917,12185.2913125480,15586.3329223158
561268558089,40465,-2,0,6859.4782454494,9363.9066117283,13536.2828584960,1298.8286296681,-6291.0034498816,-3529.5933267022,-6227.7800971896,-20711.3059856548,-8705.2691827024,-2846.6813425146,-5261.5432924798,119.9734906742,-21759.1758683498,9845.1998595598,12186.8974485286,15588.8394678613
561268558089,40465,-2,0,6864.4670011468,9369.6254292351,13545.1774448736,1308.3316008868,-6285.9660233969,-3516.2088601970,-6222.1221181669,-20708.9211170775,-8702.3976062522,-2843.1892135264,-5255.5202825524,119.6084597695,-21758.5796512055,9845.7717413104,12187.2016409492,15588.0607352646
561268558089,40465,-2,0,6866.9127082083,9372.6430180472,13555.3983102049,1311.9332391464,-6284.3963905067,-3505.6716347483,-6221.7327518686,-20710.7949423883,-8701.2173396604,-2839.8795999905,-5255.1552516477,117.4669451287,-21760.9523520859,9843.9830898775,12186.2160575065,15586.2355807412
561268558089,40465,-2,0,6866.6450188782,9370.1243048048,13555.1427885716,1308.6844640947,-6285.8200110350,-3510.2101856632,-6224.8841853457,-20712.1698921293,-8702.9329849124,-2840.3054693794,-5261.2025969687,115.9094799353,-21763.8360962330,9839.0916757547,12182.3710653105,15585.5055189318
561268558089,40465,-2,0,6862.3984926869,9363.4564069458,13543.5713088930,1300.8971381280,-6288.6185813043,-3522.2318701243,-6228.6440036640,-20711.1721409898,-8704.5634562867,-2844.5519955706,-5263.4657885778,118.5011993586,-21764.1281209567,9841.1845196082,12184.2570583180,15593.3171802922
561268558089,40465,-2,0,6859.6242578113,9361.5704139383,13535.7231444422,1297.1494875066,-6290.2612203754,-3528.0966999930,-6227.4394016785,-20710.3082345154,-8704.6729655581,-2844.9170264752,-5260.7888952767,118.0023237889,-21764.4201456805,9838.2277692802,12182.1155436772,15596.6754646153
561268558089,40465,-2,0,6862.0091263886,9366.8876974499,13545.1044386927,1304.3649317226,-6289.8840217739,-3518.5815610774,-6223.5944094825,-20710.5029176645,-8705.0866672501,-2843.0918719518,-5255.5446179460,117.3939389477,-21767.6567530354,9836.1592608203,12178.9397748064,15593.3293479890
561268591686,40466,-2,0,6867.6914408049,9371.4140806681,13557.6006633298,1312.8093133177,-6286.8177621745,-3509.1150929492,-6221.9030996241,-20709.4078249505,-8704.1132515043,-2843.9071076389,-5254.1209974178,116.5787032606,-21767.6324176417,9836.3174408790,12177.7351728209,15591.4676903751
561268591686,40466,-2,0,6868.9812166682,9371.8399500569,13560.1315442690,1312.8214810145,-6284.6275767464,-3509.4557884602,-6222.1707889542,-20709.1644710140,-8703.1033326680,-2842.3983132329,-5257.1264185330,116.6517094415,-21766.3669771721,9836.7798133583,12179.7671781904,15593.9864036174
561268591686,40466,-2,0,6868.6891919444,9369.5280876605,13553.5123171973,1308.1125823440,-6283.4838132450,-3519.3481259773,-6224.0081111745,-20707.0716271605,-8701.3390166286,-2842.6660025630,-5258.5257036677,120.7157201804,-21763.3250529664,9839.1038434515,12183.2836425722,15599.7417242147
561268591686,40466,-2,0,6868.1294778905,9369.1143859685,13546.9660963066,1305.1314966224,-6280.9407646090,-3523.0836089019,-6221.2947147830,-20704.2973922848,-8698.5161109657,-2842.1306239028,-5255.1917547382,124.5242092860,-21759.8207562814,9841.5373828161,12181.4949911392,15602.8566546013
561268591686,40466,-2,0,6869.3219121792,9372.7646950154,13550.9814362582,1309.4510289945,-6281.4518078756,-3516.0628478351,-6219.7129141960,-20706.1712175956,-8697.8468876405,-2842.8850211058,-5251.4076010262,121.2389311438,-21759.1637006530,9837.8749060724,12180.2173829728,15601.5912141318
561268591686,40466,-2,0,6871.0375574312,9375.4172529228,13562.6259221177,1314.5736293570,-6280.9042615185,-3508.1781802938,-6219.4573925627,-20709.8215266424,-8699.2705081687,-2841.0720342792,-5251.2372532707,116.9802372558,-21760.7820043304,9840.1989361655,12180.3025568506,15600.7029722637
561268591686,40466,-2,0,6870.9645512503,9373.6164337930,13561.6890094624,1313.8679029413,-6281.0989446677,-3509.5774654285,-6223.0346954286,-20710.3569053027,-8699.3800174401,-2843.3595612819,-5256.9682384743,116.7977218034,-21755.7932486330,9842.2431092318,12178.4165638430,15599.9485750607
561268591686,40466,-2,0,6867.4845899589,9367.6664300466,13552.2468767277,1307.3460174442,-6283.3499685800,-3520.4553863882,-6226.3808120549,-20711.3424887453,-8700.7062963938,-2844.3208093309,-5261.1417584846,118.7323855983,-21755.0266837332,9844.4089592663,12181.0934571441,15607.1031807925
561268627957,40467,-2,0,6864.0046286676,9364.2351395425,13545.7128235338,1301.5298583628,-6285.4793155240,-3531.4671520129,-6225.8697687884,-20708.5317507792,-8701.8013891079,-2846.2554731258,-5259.8641503182,119.0609134125,-21757.3628815232,9842.0849291731,12181.9938667090,15610.6926513553
561268627957,40467,-2,0,6866.2921556703,9368.3356533718,13548.7669154364,1305.0098196542,-6286.0025264874,-3524.6167387016,-6224.9085207394,-20712.4619168530,-8703.8698975678,-2847.8859445000,-5256.4206921173,117.0532434367,-21761.8040908635,9839.5905513244,12180.0713706109,15607.0910130957
561268627957,40467,-2,0,6871.7432838470,9372.2658194457,13558.7200914376,1310.0472461389,-6288.7645936662,-3516.6955680699,-6227.3055570135,-20716.6232691665,-8706.6076293530,-2851.3050673073,-5258.2823497312,112.1861647075,-21766.2453002039,9836.4391178473,12176.8712663465,15600.6421337796
561268627957,40467,-2,0,6869.8694585362,9370.7570250396,13560.7764322006,1308.2464270091,-6291.7456793878,-3518.3868779283,-6233.6935978455,-20721.3443355338,-8710.5256277300,-2854.6876870241,-5267.0187560501,107.1365705260,-21768.2164670892,9835.4778697982,12172.5273985807,15594.6677946395
561268627957,40467,-2,0,6864.4183303596,9365.6222569803,13550.1053620869,1300.5564426170,-6293.4491569430,-3529.6906682768,-6239.8991232252,-20721.6606956512,-8711.3773665076,-2859.8224550834,-5274.2220325693,106.2726640516,-21767.3647283116,9835.8063976125,12176.2628815054,15600.7881461414
561268627957,40467,-2,0,6862.9582067408,9364.5514996599,13538.5095470146,1296.5289349686,-6294.5320819602,-3538.7921055003,-6240.8482035774,-20721.5268509861,-8710.5134600331,-2861.6111065163,-5275.0251005596,109.4484329224,-21764.9920274311,9837.8627383755,12175.7640059356,15604.4627905820
561268627957,40467,-2,0,6865.9271247656,9370.4284972254,13543.1211041105,1301.9557277516,-6293.5464985176,-3533.8276851966,-6236.9788759877,-20718.0833927852,-8708.9803302334,-2857.8877912885,-5268.3206996101,109.8986377048,-21763.9577732012,9837.4490366836,12175.8735152070,15605.8377403230
561268627957,40467,-2,0,6873.1547366784,9378.2036554953,13555.2888009335,1311.1423388529,-6291.1494622435,-3520.0295169994,-6234.3384857771,-20719.4461748294,-8708.1042560622,-2856.0748044619,-5266.0331726074,108.7792095971,-21764.7121704042,9837.6193844391,12176.4819000482,15605.7403987484
561268650439,40468,-2,0,6879.5184421168,9384.0198145766,13562.9301145383,1316.5569639391,-6289.3973139010,-3516.8902512190,-6233.6692624519,-20718.8134545946,-8709.4305350159,-2854.1766437575,-5267.6514762849,109.2172466827,-21765.4057291231,9838.8361541214,12177.8081790019,15609.1230184652
561268650439,40468,-2,0,6882.0614907528,9384.2996716035,13559.0972900391,1314.0382506968,-6290.8696052165,-3525.6753283252,-6236.1028018165,-20717.8157034551,-8709.3453611381,-2851.5362535469,-5272.9930951901,111.1519104776,-21765.2353813676,9839.2741912070,12178.8546009286,15616.6669904954
561268650439,40468,-2,0,6884.0448253350,9383.4844359164,13551.3708025565,1309.2928489359,-6290.7844313388,-3534.7037593678,-6235.9446217578,-20716.8422877093,-8709.7590628301,-2853.6777681878,-5271.8493316888,110.8477180570,-21764.7243381010,9839.2620235102,12179.5116565571,15620.4389765105
561268650439,40468,-2,0,6890.4572015606,9390.8580601911,13555.4469809922,1314.3424431174,-6288.3995627615,-3530.0556991815,-6233.0608776107,-20717.4628402472,-8708.2259330304,-2851.6822659088,-5266.6172220549,109.4606006192,-21763.8725993234,9836.9623288106,12176.3480553831,15617.8715924808
561268650439,40468,-2,0,6898.1228505591,9399.6674726909,13572.7007750871,1323.8575820329,-6284.8344275924,-3515.0407613020,-6229.5930840162,-20717.3046601886,-8704.3809408344,-2844.5033247833,-5259.5721255944,108.1829924528,-21762.7531712157,9835.4657021014,12175.4354781214,15614.9635129402
561268650439,40468,-2,0,6909.0981130934,9408.9757607605,13588.5431163506,1332.3141313249,-6282.4860621055,-3508.2025156875,-6228.0964573070,-20716.6232691665,-8702.2272584967,-2841.1815435506,-5261.4337832084,108.9860604431,-21759.5652346481,9834.3097709032,12173.7806713535,15611.9459241281
561268650439,40468,-2,0,6917.6398362631,9414.8770937196,13587.1681666096,1333.3605532516,-6284.1165334798,-3516.6834003731,-6233.0973807012,-20717.5115110345,-8704.6486301645,-2843.8949399421,-5268.6613951212,108.2073278464,-21762.3394695237,9833.4580321256,12174.4985654660,15616.7034935858
561268650439,40468,-2,0,6918.8809413390,9415.4246400766,13580.0013931809,1328.9680146985,-6287.0611161110,-3530.8831025654,-6236.4556650243,-20718.1442312693,-8706.6806355339,-2847.3018950525,-5269.4522954147,109.3024205605,-21763.8482639298,9832.5576225607,12173.2452926933,15619.0761944663
561268688066,40469,-2,0,6928.6516018879,9424.5260773002,13583.9923977388,1333.8107580341,-6286.3067189079,-3529.8001775482,-6233.7057655424,-20716.7692815283,-8704.3322700471,-2847.9467829842,-5264.1350119030,109.1442405018,-21763.5684069029,9835.3196897395,12173.9875221995,15619.5629023392
561268688066,40469,-2,0,6941.7805467598,9436.4260847930,13600.2119376038,1344.6886789938,-6282.4495590151,-3517.4499652729,-6229.5079101384,-20715.2848225159,-8702.7383017633,-2845.6957590719,-5259.4626163230,110.0324823699,-21759.4922284672,9837.6072167423,12175.4233104246,15617.5795677571
561268688066,40469,-2,0,6952.1960952403,9440.5631017128,13614.7888383977,1348.3024849502,-6281.6099879343,-3509.6018008221,-6227.8287679769,-20715.5403441492,-8701.5458674746,-2844.3573124214,-5259.9614918928,110.7747118761,-21759.6625762227,9840.8559917940,12178.9519425032,15617.8837601777
561268688066,40469,-2,0,6960.0564273879,9443.8483798550,13616.8695145544,1348.2781495566,-6280.3202120710,-3518.2773686569,-6231.7832694443,-20714.8467854303,-8703.4561958758,-2848.5551678253,-5266.8119052041,112.0644877393,-21759.1150298657,9838.7266448500,12179.7306750999,15619.1248652536
561268688066,40469,-2,0,6963.1591900777,9444.3715908184,13606.9041708564,1343.1190461036,-6281.9141803549,-3529.0822834356,-6232.4768281632,-20714.3357421638,-8704.1740899884,-2851.7674397866,-5267.2377745929,115.5201136370,-21758.7621666578,9836.8041487519,12179.8401843713,15623.2375467798
561268688066,40469,-2,0,6965.2398662344,9449.0318187016,13607.4273818198,1346.9275352092,-6278.0570204620,-3523.7163291367,-6226.1252904217,-20710.2838991217,-8698.7351295085,-2845.3915666513,-5258.0998342789,119.1339195934,-21755.9392609949,9839.8460729577,12181.3976495646,15629.1510474357
561268688066,40469,-2,0,6978.4783203778,9460.2504351724,13624.3526481005,1360.4701817731,-6271.6811473268,-3507.4967892717,-6218.4109706359,-20707.1324656446,-8693.4178459969,-2839.1982089685,-5251.0060670311,120.4115277598,-21753.5908955081,9842.9488356475,12183.9528658975,15631.2073881988
561268688066,40469,-2,0,6986.3021494350,9468.3906243469,13637.6519407280,1369.7054636618,-6266.5828823579,-3494.8910553632,-6214.2374506256,-20705.1247956688,-8691.0208097228,-2835.5600676184,-5249.9353097107,121.5066204739,-21751.8995856497,9843.7032328505,12184.4030706799,15632.0347915828
561268710366,40470,-2,0,6991.7289422180,9469.9237541466,13640.5113494814,1371.2264257646,-6263.6382997268,-3497.4584393928,-6214.3834629875,-20703.2388026612,-8689.9500524024,-2833.4428883712,-5253.7559665131,124.1470106845,-21753.5665601144,9843.1313510999,12185.1453001861,15637.5102551531
561268710366,40470,-2,0,6990.7433587753,9468.1107673200,13632.6753527274,1368.3305139208,-6263.6869705141,-3507.6671370273,-6214.8823385573,-20700.5010708761,-8689.7066984659,-2835.2680428947,-5254.2670097796,127.4566242203,-21753.3962123589,9842.9245002539,12187.4571625825,15645.8937982641
561268710366,40470,-2,0,6991.0597188927,9468.1716058041,13627.3824046094,1367.7221290796,-6262.9569087047,-3508.3606957462,-6211.9499236229,-20697.1306188561,-8687.8693762456,-2834.7569996281,-5249.3269248695,131.2894487195,-21752.3132873416,9845.1876918629,12188.6130937806,15650.3836783918
561268710366,40470,-2,0,6994.7221956364,9473.5497277998,13637.3355806106,1374.2683499704,-6260.2313446164,-3495.8766388058,-6209.1756887473,-20696.1693708071,-8686.5309295951,-2830.9363428257,-5243.4012565168,129.7684866167,-21753.5057216303,9846.8181632372,12189.1606401377,15648.9843932571
561268710366,40470,-2,0,6995.9389653187,9474.2919573060,13646.1693285040,1376.0204983129,-6257.8708114327,-3485.5949349904,-6208.7741547521,-20697.6903329100,-8685.9955509349,-2826.5681396662,-5241.8681267171,128.2961953011,-21752.3741258258,9849.6532365970,12190.4260806073,15648.0718159954
561268710366,40470,-2,0,6991.2178989514,9467.9039164740,13642.9692242396,1371.2872642487,-6256.8243895059,-3486.8360400664,-6209.9179182535,-20695.6704952374,-8683.1848129688,-2823.4897123700,-5243.9366351770,131.8491627734,-21750.7679898451,9852.8655085582,12194.2832405001,15651.1137402011
561268710366,40470,-2,0,6985.3287336891,9458.6929699790,13632.8578681797,1364.0231492454,-6254.3421793541,-3495.1709123901,-6209.1148502632,-20692.8475895744,-8680.5809258487,-2821.9687502672,-5243.2674118517,134.9397577664,-21747.2271900697,9855.6884142211,12197.0088045885,15657.0150731603
561268710366,40470,-2,0,6979.3787299427,9454.7871392989,13626.0682933525,1359.9469708098,-6252.4683540433,-3495.7427941408,-6207.9589190650,-20692.6285710316,-8678.0500449095,-2817.9777457093,-5238.8262025113,136.9230923486,-21745.8035695414,9857.5257364414,12198.2620773612,15659.0105754392
561268742014,40471,-2,0,6977.0060290622,9454.0084067022,13628.9763728932,1363.1714104678,-6252.0789877450,-3487.4809279980,-6205.7322305464,-20693.8453407139,-8677.9892064254,-2817.5397086236,-5235.2123965549,133.0294293652,-21745.2560231843,9856.4306437273,12196.5829351997,15652.0993236438
561268742014,40471,-2,0,6974.5603220008,9455.7118842574,13637.0557235837,1366.3715147323,-6252.3466770751,-3480.9347071072,-6206.0607583606,-20696.9967741911,-8678.6705974475,-2817.0408330539,-5237.9866314305,130.3525360642,-21746.6796437126,9853.2305394629,12194.4535882556,15645.8937982641
561268742014,40471,-2,0,6967.9289272323,9449.5915327555,13633.2837375685,1361.1637404921,-6256.7027125377,-3487.2984125456,-6210.5506384883,-20699.4911520398,-8680.6539320296,-2818.4766212790,-5244.5450200181,129.8414927976,-21748.6508105979,9851.7825835410,12193.3219924511,15645.0298917897
561268742014,40471,-2,0,6956.4426214315,9441.0619772826,13615.6770802657,1351.7946139384,-6261.7644744161,-3502.5932074521,-6214.4686368653,-20700.8052632966,-8684.5719304066,-2823.8669109716,-5250.5436945518,129.7198158294,-21749.9162510675,9851.0646894284,12192.0322165879,15647.6824496971
561268742014,40471,-2,0,6946.7449670636,9433.4084959809,13602.7914893302,1342.9000275608,-6264.4413677171,-3510.7455643235,-6216.3546298728,-20700.5740770570,-8687.5895192187,-2827.8700832263,-5248.4873537887,129.5129649834,-21752.4714674003,9849.4220503573,12191.6185148959,15649.2277471936
561268742014,40471,-2,0,6941.9752299090,9427.8235231392,13600.3701176625,1341.4277362452,-6268.4323722750,-3505.5864608705,-6215.9165927872,-20702.6425855169,-8689.8283754341,-2828.9773436372,-5245.1655725561,125.7044758778,-21754.5034727698,9847.3170388070,12189.3309878932,15646.6846985576
561268742014,40471,-2,0,6940.4907708966,9426.8379396966,13607.5490587880,1343.4110708274,-6269.2841110526,-3499.0280722830,-6215.8192512126,-20705.8426897813,-8692.1889086178,-2832.1044417207,-5247.4165964683,122.7598932467,-21755.6594039680,9844.7861578678,12185.5590018781,15641.2944088650
561268742014,40471,-2,0,6935.2464935659,9422.9199413196,13604.2881160395,1339.9797803233,-6273.0195939773,-3503.9073187090,-6221.2703793893,-20707.0107886763,-8696.8613041978,-2835.9616016136,-5255.0579100731,120.0586645520,-21758.2511233912,9843.8735806061,12185.7415173304,15646.0763137164
561268773087,40472,-2,0,6927.9702108658,9415.2542923211,13592.7896425418,1331.4867279409,-6280.4662244329,-3520.2728709358,-6225.6385825487,-20709.4564957378,-8700.3656008828,-2839.9647738683,-5260.7402244894,120.4115277598,-21760.5143150003,9842.2552769286,12185.6441757558,15651.5882803772
561268773087,40472,-2,0,6925.5488391980,9413.0641068930,13583.6638699246,1327.7025742290,-6278.4828898508,-3522.3535470925,-6223.8377634189,-20707.0594594636,-8699.4651913179,-2841.4857359712,-5258.0998342789,123.1370918482,-21757.7887509120,9844.9078348360,12185.8631942987,15656.5283652873
561268773087,40472,-2,0,6925.2446467774,9415.8626771623,13586.7057941303,1333.0563608311,-6275.1976117086,-3513.3494514436,-6219.0436908707,-20706.4024038352,-8697.9807323055,-2838.7966749733,-5251.9673150801,123.1249241514,-21757.2533722518,9844.8469963519,12185.9848712669,15655.8713096589
561268773087,40472,-2,0,6923.8696970364,9417.1037822382,13596.9509948552,1339.1037061521,-6274.3945437183,-3501.2912638920,-6216.6953253839,-20706.4632423193,-8696.0339008138,-2836.9958558435,-5250.7140423073,121.5309558675,-21756.4989750487,9844.8226609583,12185.2426417607,15655.1534155463
561268773087,40472,-2,0,6920.0733756277,9413.2952931326,13595.5517097206,1337.1082038731,-6274.9542577721,-3501.9483195205,-6220.1144481911,-20707.9477013317,-8697.1654966184,-2837.1783712959,-5256.7248845379,119.8031429187,-21757.7157447310,9844.6158101123,12186.0213743573,15654.9343970035
561268773087,40472,-2,0,6910.8259260423,9403.9383342758,13581.3398398314,1326.8751708450,-6277.8380019192,-3514.5540534290,-6224.5313221379,-20709.4686634346,-8700.3534331860,-2841.7412576045,-5263.0155837953,120.1560061266,-21759.1150298657,9844.0439283616,12185.9848712669,15658.1831720553
561268773087,40472,-2,0,6903.4036309803,9396.6620515757,13569.5736770036,1317.9075782865,-6280.3810505552,-3525.0182726968,-6228.8265191164,-20710.8314454787,-8700.8644764525,-2843.4447351597,-5263.1737638540,119.9613229774,-21760.5629857876,9844.1899407235,12186.9826224064,15663.6099648383
561268773087,40472,-2,0,6902.7830784423,9397.2095979327,13568.7219382260,1318.7228139736,-6282.5225651960,-3520.4918894786,-6228.9725314782,-20712.8026123641,-8703.4805312695,-2845.5010759227,-5261.6649694480,116.7003802288,-21761.7067492890,9843.4963820046,12186.1308836288,15661.7726426180
561268840724,40473,-2,0,6902.0651843297,9398.1221751944,13575.7305315960,1320.9616701891,-6285.2968000716,-3512.4003710914,-6232.9392006425,-20719.2758270739,-8706.1695922673,-2847.0950442066,-5264.3053596586,111.4804382918,-21763.4345622378,9842.3647862000,12183.9893689879,15656.8325577079
561268840724,40473,-2,0,6900.3738744713,9394.8612324459,13579.1253190096,1319.8057389909,-6288.6064136075,-3514.9434197274,-6239.9234586189,-20724.7269552505,-8709.5035411968,-2849.5650866616,-5273.3459583980,105.3357513962,-21766.7198403800,9838.8361541214,12182.2737237359,15654.0583228323
561268840724,40473,-2,0,6895.5676342263,9389.0085702740,13569.6466831846,1312.9918287700,-6290.4194004341,-3525.3224651173,-6244.9365497099,-20725.6395325123,-8709.8807397983,-2850.6480116789,-5278.6267388192,106.0901485992,-21764.6513319201,9839.5540482339,12182.6874254279,15656.9055638888
561268840724,40473,-2,0,6892.3431945682,9385.9788137651,13559.8273518484,1309.0008242121,-6286.3067189079,-3530.2138792402,-6239.9842971030,-20719.3123301643,-8705.5855428198,-2848.0441245587,-5273.1512752488,111.7359599251,-21758.6648250832,9845.2120272566,12187.5788395507,15661.7848103148
561268840724,40473,-2,0,6892.7812316538,9391.8314759369,13565.5826724457,1315.0725049267,-6280.1741997092,-3521.9763484910,-6231.9049464126,-20714.3357421638,-8700.0127376749,-2841.1328727633,-5263.0764222794,114.5466978912,-21755.1483607014,9848.2417837655,12189.6960187979,15664.2183496794
561268840724,40473,-2,0,6894.2048521821,9396.2240144900,13576.0955625007,1320.9251670986,-6276.8889215670,-3506.5112058291,-6225.8454333947,-20714.6277668875,-8696.7031241391,-2837.4338929291,-5257.2480955013,116.4326908987,-21754.0776033810,9849.2273672082,12189.7811926756,15664.6928898555
561268840724,40473,-2,0,6893.9980013361,9393.5106180985,13578.1762386574,1322.3974584142,-6275.8424996402,-3503.1772568996,-6224.6408314093,-20713.6178480512,-8696.3624286281,-2836.5578187579,-5256.2990151491,118.6715471142,-21754.6129820412,9849.9452613207,12190.9979623579,15665.5081255427
561268840724,40473,-2,0,6889.5567919958,9389.5317812374,13571.4596700112,1316.6786409074,-6277.5946479827,-3511.8528247343,-6226.3564766613,-20707.5705027302,-8695.7297083933,-2836.6064895452,-5257.0290769584,124.2686876527,-21754.7954974935,9850.7726647047,12193.3706632384,15674.4027119202
561268847986,40474,-2,0,6883.8379744890,9381.9391384199,13558.6227498630,1308.5141163392,-6279.5779825648,-3522.3170440021,-6225.2492162504,-20705.8426897813,-8696.5449440804,-2837.5799052910,-5254.0358235400,128.3813691789,-21754.8806713713,9850.9916832475,12195.9988857522,15682.1048640092
561268847986,40474,-2,0,6882.1223292369,9381.9756415104,13555.6538318382,1308.7453025788,-6281.5126463597,-3522.3535470925,-6223.3753909397,-20706.2442237765,-8698.7351295085,-2840.0621154429,-5250.7992161851,127.8581582155,-21756.9491798312,9849.9209259271,12194.1493958351,15682.5550687916
561268847986,40474,-2,0,6883.9231483667,9384.0563176671,13564.7796044554,1313.1621765255,-6283.3743039736,-3512.9965882357,-6224.7381729838,-20710.6245946328,-8701.2173396604,-2840.9381896141,-5250.0813220725,122.6503839753,-21760.7698366336,9846.6113123912,12191.2413162944,15676.6780712261
561268847986,40474,-2,0,6883.2174219510,9385.6867890414,13571.4109992239,1315.3888650441,-6283.8001733624,-3508.8230682254,-6227.0622030770,-20711.4641657135,-8703.6022082377,-2842.1062885091,-5256.7127168410,118.8662302633,-21760.9888551764,9844.8834994424,12189.7690249788,15674.4148796171
561268847986,40474,-2,0,6880.3336778040,9382.2798339309,13564.4024058539,1310.1689231071,-6287.0124453237,-3518.5085548965,-6231.4547416301,-20712.7052707895,-8705.8897352404,-2847.2410565684,-5263.3927823968,118.0509945762,-21761.1348675383,9844.5306362345,12188.7347707489,15676.6415681357
561268847986,40474,-2,0,6873.9334692751,9374.8332034753,13551.0301070455,1300.8241319471,-6290.4559035246,-3531.2603011669,-6235.3362369166,-20713.3988295084,-8709.2236841699,-2852.0107937230,-5266.3251973312,118.1848392412,-21761.7554200762,9842.0970968699,12186.7636038636,15678.6492381114
561268847986,40474,-2,0,6871.0375574312,9373.6894399739,13546.4793884337,1298.0377293746,-6292.4027350162,-3533.2923065364,-6237.1735591369,-20714.6764376748,-8711.0488386933,-2855.1987302906,-5264.6825582601,115.6661259989,-21763.6049099933,9843.8492452124,12188.9416215949,15682.1900378869
561268847986,40474,-2,0,6873.9943077592,9377.3397490208,13555.3983102049,1303.3428451894,-6291.4049838767,-3522.6699072099,-6237.2587330147,-20718.0833927852,-8712.0344221360,-2855.7706120413,-5262.7113913748,114.6562071626,-21761.7797554699,9843.1313510999,12187.4814979761,15678.4180518718
561268904525,40475,-2,0,6874.3228355734,9376.9990535098,13560.8007675943,1305.5938691017,-6293.7655170604,-3518.9587596789,-6240.3493280077,-20720.9671369323,-8713.1173471532,-2857.9242943790,-5266.8119052041,111.1762458712,-21761.9379355286,9842.2917800191,12185.0357909147,15675.3031214851
561268904525,40475,-2,0,6868.7013596412,9371.3045713966,13553.2202924736,1296.8939658733,-6298.3162356722,-3528.8876002865,-6244.9608851036,-20722.6341113970,-8718.0087612761,-2861.8301250591,-5274.4653865057,110.6286995142,-21765.3327229422,9837.8262352851,12182.8091023961,15675.9236740231
561268904525,40475,-2,0,6861.1938907015,9364.8800274741,13538.0106714449,1288.7902797892,-6299.6425146259,-3540.4225768746,-6245.3259160083,-20720.9549692354,-8719.2985371393,-2864.3001675142,-5275.7429946721,112.2591708885,-21765.8194308151,9836.9988319011,12182.1763821613,15680.2675417889
561268904525,40475,-2,0,6858.3953204322,9362.7993513174,13532.3161893318,1287.2206468990,-6299.0828005720,-3539.3518195542,-6242.4543395580,-20720.5777706339,-8717.1448548016,-2861.7936219687,-5269.8659971066,113.5489467517,-21766.5616603213,9838.2034338866,12180.8987739949,15681.1922867474
561268904525,40475,-2,0,6861.8631140267,9365.9142817041,13542.5613900567,1292.1120610219,-6297.5253353787,-3528.1210353866,-6240.9820482425,-20723.0843161794,-8715.2588617941,-2858.2528221932,-5267.2134391992,110.5313579396,-21768.0339516369,9837.1083411725,12179.8645197649,15678.3693810845
561268904525,40475,-2,0,6863.8221132152,9368.8101935479,13550.7624177153,1296.7236181178,-6295.7975224298,-3520.2972063295,-6242.3448302866,-20724.5809428887,-8714.3949553197,-2856.9387109363,-5269.8538294098,108.2803340274,-21766.9388589228,9837.1570119598,12178.3192222684,15675.3396245756
561268904525,40475,-2,0,6860.7315182222,9364.7948535964,13546.6010654019,1292.9394644058,-6296.4910811487,-3528.7172525309,-6248.2948340331,-20727.2335007961,-8716.7311531097,-2858.9220455185,-5276.2662056355,108.1464893623,-21767.4012314021,9834.3949447810,12177.1389556766,15676.9579282531
561268904525,40475,-2,0,6857.4827431705,9358.9665268182,13536.8912433372,1284.5072505075,-6298.1215525230,-3538.9867886495,-6249.2682497789,-20724.9459737934,-8716.3661222050,-2859.3479149073,-5277.4708076210,110.0081469762,-21766.8415173482,9834.8451495634,12178.0758683320,15683.3094659946
561268911617,40476,-2,0,6855.4507378010,9357.6767509550,13529.5541221530,1282.8281083460,-6297.3793230168,-3541.9435389775,-6245.7396177002,-20720.9062984481,-8715.5873896083,-2859.7616165992,-5272.8105797378,111.6872891378,-21763.6779161743,9837.0718380820,12180.2782214569,15688.8092649586
561268911617,40476,-2,0,6858.6630097623,9363.1035437380,13538.2783607750,1288.9849629384,-6293.8628586350,-3529.3013019784,-6240.4223341886,-20718.4362559931,-8711.3408634171,-2855.1378918065,-5266.7632344168,112.1374939202,-21761.0861967510,9840.4301224052,12181.0691217504,15688.3103893889
561268911617,40476,-2,0,6865.4647522863,9370.6110126777,13554.6317453050,1298.5366049444,-6289.1782953581,-3516.7077357667,-6237.4534161638,-20719.4705102230,-8709.9659136761,-2850.9765394931,-5265.0719245584,110.6286995142,-21761.1592029319,9839.7852344736,12179.1709610460,15687.2639674621
561268911617,40476,-2,0,6865.2944045308,9370.4284972254,13553.6583295592,1298.0377293746,-6290.4802389182,-3520.9907650484,-6239.7166077729,-20719.5800194944,-8711.3165280234,-2854.1888114543,-5271.7641578110,110.8842211475,-21763.4588976315,9838.5319617008,12176.9442725274,15685.1954590022
561268911617,40476,-2,0,6860.3664873175,9364.3811519044,13540.5902231714,1291.6983593299,-6294.6050881412,-3532.8664371476,-6243.7927862086,-20720.7602860863,-8714.7234831339,-2858.0216359536,-5276.2053671514,109.8864700080,-21767.2065482529,9835.7212237347,12174.2187084391,15687.2031289780
561268911617,40476,-2,0,6858.3466496449,9362.4464881095,13535.2486042661,1287.7925286497,-6294.9701190459,-3537.4658265466,-6241.8946255042,-20720.3830874848,-8714.6869800434,-2859.5669334501,-5272.8227474346,109.6309483747,-21768.1921316956,9834.8573172603,12174.1943730455,15688.7727618681
561268911617,40476,-2,0,6861.7414370585,9366.0846294596,13543.0237625360,1294.1562340881,-6291.5144931482,-3525.2737943300,-6236.4678327212,-20718.2294051471,-8711.1096771775,-2855.3082395620,-5266.1183464852,110.6895379983,-21764.6513319201,9837.8262352851,12178.3800607525,15689.4784882839
561268911617,40476,-2,0,6867.1438944479,9372.1684778711,13556.4812352221,1303.6470376100,-6285.1142846193,-3510.6968935362,-6230.4204874002,-20713.6300157480,-8705.8167290595,-2848.9810372141,-5260.5090382498,115.3375981847,-21761.0010228732,9841.6712274811,12182.7360962152,15691.5469967438
561268921767,40477,-2,0,6868.9690489713,9373.9571293040,13561.1414631053,1304.2189193607,-6282.3035466532,-3508.4945404112,-6228.6805067545,-20710.7827746915,-8704.3566054407,-2844.9291941721,-5260.5455413403,118.1483361508,-21757.9834340611,9842.7298171047,12184.0745428657,15695.7083490572
561268921767,40477,-2,0,6865.7689447069,9369.4185783891,13550.2878775393,1297.7457046509,-6282.9606022816,-3520.4067156009,-6229.1672146274,-20707.0837948573,-8703.8090590837,-2846.0242868861,-5262.8574037366,122.1393407087,-21756.0122671758,9842.4499600778,12183.4053195404,15698.4582485392
561268921767,40477,-2,0,6863.6152623692,9367.7759393180,13539.9940060270,1295.0931467435,-6283.8123410592,-3524.8479249412,-6228.4006497276,-20705.7818512972,-8706.5711262625,-2848.7011801872,-5261.2025969687,122.0663345278,-21758.1172787262,9841.9997552953,12181.6775065916,15700.3320738499
561268921767,40477,-2,0,6864.4061626627,9369.1387213622,13545.8831712893,1298.4879341571,-6284.6519121400,-3518.4598841092,-6228.2789727593,-20709.6025080996,-8708.3476099987,-2849.2243911506,-5259.1705915993,117.1140819208,-21760.4413088194,9838.6171355786,12177.0537817988,15695.8056906318
561268921767,40477,-2,0,6866.6571865750,9372.5821795631,13556.2135458920,1303.9390623338,-6284.3598874163,-3509.4314530666,-6229.2767238988,-20712.7904446672,-8708.2624361209,-2848.9810372141,-5260.2900197070,114.1329961992,-21760.1127810051,9837.6315521359,12175.3746396373,15692.3378970373
561268921767,40477,-2,0,6870.5143464678,9375.8431223116,13560.0828734817,1304.9368134732,-6283.6784963942,-3510.2831918442,-6231.1383815127,-20712.7782769704,-8707.4106973433,-2849.2852296347,-5265.0597568616,116.0189892068,-21758.8473405356,9838.6171355786,12178.3192222684,15693.5303313259
561268921767,40477,-2,0,6868.9933843650,9373.1418936169,13552.6484107229,1301.4811875755,-6282.7172483452,-3519.7253245788,-6232.2943127109,-20710.4177437868,-8704.9771579787,-2846.4258208813,-5266.9335821723,119.7058013441,-21756.6084843201,9840.5517993734,12181.7505127725,15700.9404586911
561268921767,40477,-2,0,6866.5476773036,9369.8687831715,13543.9606751913,1298.7799588808,-6281.8168387803,-3525.2859620269,-6231.4547416301,-20708.4100738110,-8704.7216363454,-2847.1802180843,-5264.5973843823,120.7522232709,-21757.1438629803,9841.7685690557,12182.9794501516,15705.0044694299
561268975489,40478,-2,0,6869.0177197586,9373.3000736756,13547.5744811477,1302.3450940500,-6281.7194972057,-3519.8470015470,-6229.5687486226,-20708.3005645396,-8703.9307360519,-2846.8516902701,-5259.5234548071,120.5088693344,-21757.8130863056,9841.1845196082,12183.3809841468,15704.1162275619
561268975489,40478,-2,0,6870.1614832600,9377.2910782335,13558.4402344106,1307.2608435664,-6281.8290064771,-3508.8474036191,-6229.0333699623,-20710.0283774884,-8705.7558905754,-2846.1824669448,-5258.9759084501,118.0023237889,-21763.5562392060,9839.4932097498,12180.6554200584,15701.8165328623
561268975489,40478,-2,0,6870.6603588297,9377.0842273875,13560.9832830466,1306.8471418744,-6283.0822792499,-3508.8717390127,-6231.5520832047,-20711.6831842564,-8707.9947467908,-2846.9003610574,-5263.4292854873,117.8684791238,-21766.4156479594,9837.2178504439,12180.3633953347,15702.4005823098
561268975489,40478,-2,0,6868.0929748001,9374.5046756611,13550.7259146249,1301.8097153897,-6285.5279863113,-3520.5770633564,-6234.6913489850,-20710.5272530582,-8709.1141748985,-2850.2343099869,-5268.9777552386,119.6206274663,-21766.1114555389,9837.6193844391,12181.5436619265,15707.7300335183
561268975489,40478,-2,0,6862.6905174107,9367.6907654402,13539.5438012446,1295.3486683768,-6288.1683765218,-3532.5865801206,-6236.2488141783,-20711.8048612246,-8708.8586532652,-2852.1689737817,-5267.3472838643,120.2411800043,-21765.3570583358,9837.7288937105,12182.6022515501,15710.9058023891
561268975489,40478,-2,0,6862.2159772346,9369.4307460859,13542.3667069075,1296.3585872131,-6290.0665372262,-3529.9218545164,-6238.0983040954,-20714.2018974987,-8709.5522119841,-2853.1910603148,-5265.2666077076,117.1384173145,-21763.6049099933,9838.9334956960,12182.7239285183,15708.8494616260
561268975489,40478,-2,0,6863.8829516993,9371.9372916314,13550.4338899011,1300.9701443090,-6288.9227737249,-3518.7275734393,-6239.4489184428,-20718.1442312693,-8709.3210257445,-2853.9576252147,-5265.7898186710,113.2325866343,-21763.9942762917,9839.4810420530,12182.2980591295,15704.8827924617
561268975489,40478,-2,0,6863.8221132152,9370.0147955334,13553.9625219798,1301.2621690327,-6288.2900534901,-3516.3062017715,-6240.3736634013,-20719.3731686484,-8709.7225597396,-2852.4001600214,-5267.4446254389,113.4394374803,-21763.8360962330,9839.0551726642,12184.1718844403,15706.0508913567
561269000893,40479,-2,0,6860.3299842270,9367.4474115038,13548.6695738618,1294.6429419610,-6289.4946554755,-3524.3733847652,-6242.2718241057,-20716.7206107410,-8709.4183673191,-2853.0937187403,-5270.8029097620,115.7756352703,-21763.8847670203,9840.0407561068,12186.8487777413,15711.2830009906
561269000893,40479,-2,0,6857.2515569308,9361.8381032684,13535.7718152295,1288.7294413051,-6290.5410774023,-3533.6816728347,-6240.8117004870,-20712.7417738799,-8710.2336030062,-2856.3789968825,-5269.0142583290,120.4845339408,-21763.8360962330,9840.1989361655,12187.4328271888,15714.4466021645
561269000893,40479,-2,0,6856.4728243342,9364.1499656648,13537.2441065451,1290.1895649238,-6290.9547790943,-3531.4914874066,-6237.3560745892,-20711.9995443737,-8711.2556895393,-2856.5858477284,-5263.7578133015,120.2290123075,-21766.2818032944,9837.5342105613,12186.2403929002,15713.3758448441
561269000893,40479,-2,0,6862.4349957774,9369.9174539588,13550.6042376566,1297.9525554969,-6290.2247172849,-3520.9907650484,-6235.8472801832,-20712.0725505547,-8709.9659136761,-2854.4930038749,-5260.8010629736,117.9171499111,-21768.2651378765,9836.8041487519,12183.4296549341,15708.4844307213
561269000893,40479,-2,0,6866.3286587608,9372.0589685997,13555.7998442000,1301.8948892675,-6288.8862706344,-3518.5328902901,-6236.7841928386,-20711.9752089801,-8709.7225597396,-2854.8458670828,-5266.2400234534,117.3817712509,-21764.2011271377,9838.5076263071,12183.8555243229,15706.9391332248
561269000893,40479,-2,0,6865.3917461054,9371.3775775776,13551.9670197008,1298.7921265777,-6287.9736933727,-3525.3954712983,-6238.5728442715,-20710.7097685105,-8709.6617212555,-2855.1622272002,-5270.9002513366,119.0730811093,-21761.4512276557,9839.5297128403,12184.9019462496,15709.0198093815
561269000893,40479,-2,0,6864.1749764231,9369.5280876605,13545.4573019005,1293.9858863326,-6287.6695009521,-3533.5721635633,-6239.0960552349,-20709.4929988282,-8709.3331934413,-2854.9188732637,-5269.9390032876,119.3529381362,-21760.4656442130,9838.5197940040,12183.3444810563,15713.2541678759
561269000893,40479,-2,0,6865.3309076213,9370.2824848635,13544.3622091865,1294.4239234182,-6286.7447559936,-3530.4450654798,-6236.5043358116,-20710.8922839629,-8709.3818642286,-2857.2915741442,-5266.1791849693,118.1118330603,-21760.5994888781,9838.2277692802,12182.1277113740,15711.0518147509
561269019537,40480,-2,0,6870.5630172551,9377.2059043558,13552.8309261752,1302.0895724167,-6285.3454708589,-3518.5815610774,-6235.5917585499,-20712.6931030927,-8709.4792058032,-2856.6831893030,-5265.2787754044,114.5223624975,-21762.4733141888,9836.9866642043,12180.8257678140,15707.6813627310
561269019537,40480,-2,0,6871.2322405804,9376.3541655782,13561.3239785577,1303.7930499719,-6286.7325882967,-3515.7708231113,-6238.6823535429,-20716.1730643840,-8710.7446462728,-2855.1743948970,-5269.8903325003,110.6895379983,-21764.2741333186,9837.0109995979,12179.6576689190,15705.7953697234
561269019537,40480,-2,0,6868.1051424969,9371.1342236411,13554.2180436131,1296.3220841226,-6289.5554939597,-3524.9696019095,-6243.5372645753,-20719.2271562866,-8713.1538502437,-2860.4795107118,-5277.7263292543,109.7039545556,-21764.1524563504,9838.4102847326,12178.8302655350,15706.0995621440
561269019537,40480,-2,0,6863.3840761296,9365.2572260756,13541.0404279538,1289.1066399066,-6290.7357605515,-3536.1760506834,-6246.6035241747,-20720.2127397292,-8714.1272659895,-2862.8035408050,-5279.3811360222,110.7747118761,-21763.1425375141,9837.7288937105,12179.0736194715,15710.6259453621
561269019537,40480,-2,0,6861.4737477284,9365.2328906820,13538.9840871907,1288.4252488845,-6290.3463942531,-3534.2048837981,-6245.0338912845,-20720.3709197879,-8713.0686763660,-2860.3213306531,-5273.6014800313,109.9351407953,-21761.3417183843,9835.0154973190,12176.1777076276,15709.6038588290
561269019537,40480,-2,0,6866.5355096067,9371.0247143697,13549.6794926981,1297.5023507144,-6286.3797250889,-3521.8181684323,-6239.4975892301,-20717.4628402472,-8711.3408634171,-2856.1721460365,-5267.4689608325,112.3078416758,-21760.1614517924,9839.9434145323,12179.2317995301,15711.4655164429
561269019537,40480,-2,0,6871.8284577247,9378.1671524048,13561.1171277117,1304.2554224512,-6284.8952660765,-3512.8019050865,-6236.8815344131,-20715.9905489317,-8711.0245032997,-2855.0162148383,-5267.2499422897,112.5390279154,-21762.4976495824,9838.6658063658,12179.9131905522,15710.9301377827
561269019537,40480,-2,0,6866.4990065163,9373.5190922184,13556.3595582539,1299.0111451205,-6287.0611161110,-3519.0804366472,-6239.9356263157,-20717.7548649710,-8713.9325828404,-2857.5470957775,-5273.2851199139,112.8432203360,-21765.6855861501,9837.9357445565,12179.2683026206,15715.1401608834
561269052090,40481,-2,0,6861.8752817236,9365.9021140073,13543.4252965311,1291.8443716918,-6286.9516068395,-3529.2647988880,-6239.5219246237,-20714.6155991907,-8712.1926021947,-2859.9441320516,-5273.6379831218,115.7999706639,-21763.9456055044,9838.0087507374,12181.3976495646,15719.5692025270
561269052090,40481,-2,0,6859.9162825351,9366.1941387310,13536.4045354643,1289.7758632319,-6285.3698062526,-3528.5834078659,-6235.9202863641,-20712.4375814594,-8711.0245032997,-2858.6543561883,-5267.8704948277,116.0676599940,-21762.9965251522,9838.8969926055,12181.9330282248,15721.1510031140
561269052090,40481,-2,0,6860.0622948969,9367.7637716212,13543.3887934406,1293.2193214327,-6286.8299298713,-3520.7230757183,-6235.6769324277,-20713.9585435622,-8711.6328881408,-2857.8512881980,-5264.9989183775,112.6363694900,-21765.7342569373,9837.4733720772,12179.9983644300,15717.1843339497
561269052090,40481,-2,0,6860.1839718652,9368.9440382130,13549.7646665759,1295.4338422545,-6288.3630596710,-3516.4157110429,-6238.1226394891,-20717.2073186140,-8714.6504769529,-2859.3844179977,-5270.3040341923,110.0811531572,-21767.9366100623,9835.1980127713,12179.0006132905,15713.4731864187
561269052090,40481,-2,0,6856.6675074833,9364.4906611758,13545.0557679054,1291.0656390951,-6293.3396476716,-3525.1521173618,-6244.1334817196,-20718.5579329613,-8718.0087612761,-2863.8742981254,-5278.1765340367,109.1320728050,-21770.5039940919,9833.8717338176,12178.4043961462,15715.4686886977
561269052090,40481,-2,0,6850.9000191893,9356.0097764902,13532.6325494492,1284.0205426346,-6295.8096901266,-3539.0232917400,-6246.2628286636,-20717.5723495187,-8717.0961840143,-2864.1663228491,-5280.1963717093,111.6507860473,-21768.0339516369,9834.9303234412,12179.9010228554,15723.1343376961
561269052090,40481,-2,0,6850.0604481085,9356.1557888521,13528.5563710135,1282.1102142334,-6293.4856600335,-3538.5974223512,-6243.7562831181,-20715.9783812349,-8715.1128494322,-2864.0446458809,-5274.7452435326,114.3033439547,-21766.8658527419,9837.1448442630,12181.1177925377,15727.5877147333
561269052090,40481,-2,0,6855.0370361091,9362.3369788381,13536.6843924912,1288.5347581559,-6291.1372945466,-3529.4229789467,-6239.2055645063,-20715.7471949952,-8713.6405581166,-2862.3046652352,-5269.7686555321,112.3443447662,-21766.3183063848,9836.0619192457,12179.5968304348,15726.0180818432
561269089392,40482,-2,0,6858.7116805496,9366.2306418215,13549.0346047665,1295.0323082594,-6289.5189908692,-3518.7275734393,-6238.3294903351,-20717.0613062521,-8711.5112111726,-2858.3501637678,-5271.1071021826,111.7481276219,-21764.5174872551,9836.4026147568,12179.8280166745,15724.9229891291
561269089392,40482,-2,0,6861.5345862125,9369.0657151812,13553.8895157988,1296.5654380591,-6287.6816686489,-3520.3458771168,-6240.4101664918,-20717.1829832203,-8711.3286957203,-2858.2649898900,-5275.9863486086,110.3001717000,-21761.3173829906,9836.9988319011,12178.7572593541,15724.7769767672
561269089392,40482,-2,0,6859.8554440509,9365.8047724327,13543.2914518661,1291.1143098824,-6286.8907683554,-3528.8389294992,-6239.7409431665,-20714.7372761589,-8710.1240937348,-2861.3677525799,-5279.5149806872,112.7458787614,-21759.4678930735,9838.5806324881,12179.0492840778,15730.3011111248
561269089392,40482,-2,0,6858.6143389750,9364.6245058409,13537.9863360513,1287.9142056179,-6286.7812590840,-3532.7569278762,-6239.4975892301,-20714.2018974987,-8709.8320690111,-2860.4308399245,-5274.9034235913,113.0865742724,-21759.0906944720,9837.9965830406,12178.4043961462,15733.5012153893
561269089392,40482,-2,0,6863.3475730391,9368.5911750051,13545.4451342037,1293.9615509389,-6285.4306447367,-3523.5459813812,-6236.3339880561,-20714.2140651955,-8709.1506779890,-2860.2726598658,-5271.6303131460,111.7116245314,-21759.4678930735,9837.8749060724,12177.4674834908,15731.3475330516
561269089392,40482,-2,0,6866.9248759051,9371.0855528538,13554.5952422146,1297.8430462255,-6284.9682722574,-3515.5518045685,-6236.1758079974,-20716.6962753474,-8710.0267521602,-2858.7516977629,-5271.8249962951,109.4240975287,-21758.5918189023,9834.6504664143,12175.4963166055,15725.7868956035
561269089392,40482,-2,0,6866.3286587608,9369.6254292351,13555.5808256572,1295.7745377656,-6287.5478239839,-3518.5937287743,-6239.6070985015,-20716.9517969807,-8711.7058943218,-2859.2262379390,-5277.0814413227,109.4606006192,-21761.3417183843,9835.1493419840,12177.7351728209,15729.8387386456
561269089392,40482,-2,0,6860.9992075523,9363.8214378505,13545.2382833577,1287.5613424101,-6288.0223641600,-3529.9096868196,-6242.6976934945,-20715.2361517286,-8713.3120303024,-2860.5525168927,-5280.5005641299,113.9748161405,-21762.4124757047,9833.7257214557,12177.5891604591,15733.8297432035
561269122125,40483,-2,0,6856.8986937230,9360.9741967940,13532.6690525396,1283.1566361602,-6287.9006871917,-3534.8011009424,-6240.3736634013,-20715.4795056651,-8712.2534406788,-2860.8323739197,-5275.9741809118,116.7490510161,-21761.9866063159,9835.8063976125,12179.5846627380,15737.0541828616
561269122125,40483,-2,0,6858.3953204322,9364.4663257822,13540.0670122080,1288.6320997305,-6286.5744082380,-3525.6631606284,-6237.1370560464,-20715.4673379683,-8711.0245032997,-2856.7561954840,-5270.6447297033,113.1839158470,-21764.0307793821,9835.3805282237,12177.2119618575,15734.1704387145
561269122125,40483,-2,0,6860.8531951904,9368.2383117973,13550.6772438376,1294.1440663913,-6287.7546748299,-3516.9754250968,-6237.9887948240,-20717.6210203059,-8712.0709252265,-2855.3934134398,-5271.7519901142,109.8377992207,-21766.3548094753,9833.9690753922,12176.1290368403,15730.0699248852
561269122125,40483,-2,0,6862.2281449314,9367.9097839830,13550.1418651774,1293.6695262152,-6288.9592768153,-3518.8979211948,-6240.3493280077,-20718.8621253819,-8714.6504769529,-2857.9729651663,-5279.4541422031,108.7062034162,-21767.6567530354,9832.6914672258,12174.5959070406,15729.4372046504
561269122125,40483,-2,0,6859.3687361780,9365.5735861930,13543.2671164724,1290.6276020095,-6288.9957799058,-3528.6077432595,-6242.0893086534,-20716.9031261934,-8714.7356508307,-2858.7395300661,-5282.2283770788,110.7990472697,-21766.8171819546,9833.4215290352,12175.4598135150,15735.8252454824
561269122125,40483,-2,0,6856.3511473659,9362.0449541144,13534.3603623980,1286.5027527865,-6288.3995627615,-3534.2292191917,-6241.3349114503,-20714.7372761589,-8713.5797196325,-2859.2749087263,-5278.5293972446,113.7557975977,-21765.6490830596,9835.2466835586,12178.2340483907,15741.6535722606
561269122125,40483,-2,0,6855.5845824661,9362.0936249017,13535.1999334788,1287.8533671338,-6288.1197057345,-3528.7172525309,-6238.4268319097,-20715.1509778509,-8714.3462845324,-2861.0148893720,-5275.1224421342,112.2470031916,-21767.9001069718,9834.2732678128,12178.2827191780,15740.1691132482
561269122125,40483,-2,0,6856.7040105738,9367.5082499879,13544.9705940276,1293.1219798582,-6291.0034498816,-3519.6523183978,-6240.3979987950,-20718.0590573916,-8716.4026252954,-2861.6232742131,-5276.4243856942,107.4650983402,-21771.5504160187,9832.5576225607,12176.1898753244,15735.4723822746
561269155349,40484,-2,0,6856.4119858501,9366.9607036309,13549.0467724633,1293.1098121613,-6294.5320819602,-3523.6189875621,-6244.1091463260,-20720.8941307513,-8718.4467983617,-2862.0978143892,-5281.3523029075,103.5836030537,-21771.6964283806,9831.0853312452,12174.9244348548,15733.8175755067
561269155349,40484,-2,0,6854.7571790821,9363.1278791316,13540.5537200809,1288.0358825862,-6291.9525302338,-3531.0169472305,-6246.1411516954,-20722.1109004336,-8717.9600904888,-2863.8742981254,-5285.7935122479,106.8932165895,-21769.8712738571,9832.8131441940,12177.2119618575,15737.9667601233
561269155349,40484,-2,0,6853.7472602458,9360.9133583099,13533.3991143490,1284.2638965711,-6288.7767613630,-3535.7501812946,-6243.4399230007,-20716.6597722569,-8713.0686763660,-2861.3434171862,-5279.7096638364,112.2470031916,-21764.4566487709,9838.0330861311,12181.3976495646,15747.2628804960
561269155349,40484,-2,0,6858.3831527354,9362.3856496254,13537.9863360513,1288.1088887671,-6285.3454708589,-3527.3301350931,-6237.3317391956,-20712.6322646085,-8708.9803302334,-2856.1356429460,-5270.0606802558,114.4858594071,-21760.9401843891,9841.4765443319,12185.8996973891,15750.7550094842
561269155349,40484,-2,0,6861.9361202077,9368.7858581543,13548.7790831332,1296.2247425480,-6282.2670435627,-3515.8316615954,-6234.4966658358,-20713.8490342908,-8707.5567097052,-2855.1500595033,-5267.3594515611,113.1839158470,-21761.0740290542,9841.9510845080,12186.2525605970,15748.3579732101
561269155349,40484,-2,0,6862.0091263886,9369.4429137827,13552.1130320627,1296.3220841226,-6285.0899492256,-3516.5860587985,-6238.3051549414,-20716.7692815283,-8710.4161184586,-2857.4254188092,-5273.7596600900,110.8477180570,-21762.8748481840,9839.2011850261,12184.3178968021,15745.7540860900
561269155349,40484,-2,0,6855.2317192582,9362.8480221047,13543.5226381057,1287.9263733148,-6289.0566183899,-3528.3522216263,-6243.2087367611,-20717.6575233964,-8713.5432165420,-2860.6376907705,-5280.3910548585,110.8477180570,-21762.3759726142,9838.6293032754,12182.3710653105,15747.2263774055
561269155349,40484,-2,0,6854.5868313266,9359.6844209307,13531.4644505542,1282.0007049620,-6290.2733880722,-3539.0962979209,-6244.7296988639,-20715.5281764524,-8712.6549746740,-2862.7670377145,-5279.3446329317,112.1861647075,-21759.6504085259,9841.7442336621,12183.1619656040,15752.5923317045
561269176649,40485,-2,0,6855.1222099868,9361.1567122463,13530.8804011067,1283.2539777348,-6290.1030403167,-3535.3486472994,-6242.3569979835,-20715.7715303889,-8710.8298201505,-2861.1852371275,-5273.5406415472,112.9405619105,-21757.6914093374,9842.9366679507,12183.7703504451,15752.6775055822
561269176649,40485,-2,0,6859.2348915130,9366.4861634548,13541.9773406092,1289.0336337257,-6286.4405635730,-3522.8159195718,-6241.4079176313,-20718.4362559931,-8708.6518024192,-2857.4984249902,-5269.7686555321,111.2735874458,-21755.2578699728,9843.1678541903,12184.4760768608,15750.2074631272
561269176649,40485,-2,0,6862.3619895965,9369.8566154747,13549.5578157299,1293.5965200343,-6283.5689871228,-3515.5274691749,-6240.8238681838,-20717.9860512106,-8706.0357476023,-2856.3303260952,-5272.3238718649,112.5998663995,-21754.2722865301,9844.8956671392,12186.0578774478,15750.2074631272
561269176649,40485,-2,0,6861.0722137332,9367.2892314451,13545.2139479641,1289.4108323272,-6283.4108070641,-3522.4752240608,-6242.6855257977,-20716.2095674745,-8706.8996540767,-2856.9265432395,-5275.9011747308,114.8265549181,-21752.9581752733,9845.7960767041,12189.0754662599,15755.4395727610
561269176649,40485,-2,0,6857.4462400800,9362.3613142318,13534.7983994836,1282.2440588985,-6286.8420975681,-3534.0467037394,-6244.6810280766,-20716.9761323743,-8708.2259330304,-2858.6908592788,-5277.2517890782,114.0964931087,-21754.1019387746,9840.2597746497,12184.9506170369,15757.4715781305
561269176649,40485,-2,0,6856.8013521484,9360.9985321876,13530.8804011067,1281.2828108494,-6289.7136740184,-3538.0620436910,-6246.1289839986,-20721.1131492941,-8712.4724592216,-2864.4096767856,-5278.3225463986,108.9860604431,-21759.4557253767,9838.7753156373,12181.3124756869,15755.2935603992
561269176649,40485,-2,0,6857.3123954150,9363.2860591903,13537.9741683544,1284.6897659599,-6292.2810580480,-3529.7393390641,-6248.9518896615,-20725.0554830648,-8715.7090665765,-2866.2713343995,-5279.2594590540,103.4740937823,-21762.7045004284,9837.3151920185,12178.6964208699,15751.7162575332
561269176649,40485,-2,0,6860.8166921000,9367.9706224672,13549.8498404536,1290.1043910461,-6291.7943501751,-3523.7893353176,-6248.1001508839,-20724.9824768838,-8716.3661222050,-2865.3709248346,-5281.1819551520,103.4010876014,-21763.5319038124,9837.3760305026,12179.2926380143,15751.5580774745
561269207840,40486,-2,0,6858.9063636988,9366.7903558753,13545.9683451671,1287.1354730213,-6291.8795240528,-3530.9317733527,-6249.4385975344,-20724.3132535586,-8716.6946500192,-2866.9405577248,-5286.3288909081,105.3114160026,-21763.5562392060,9837.6558875295,12179.6455012221,15753.8091013868
561269207840,40486,-2,0,6853.0658692237,9359.1490422705,13529.2377620356,1277.6933402867,-6296.2963979996,-3543.7321904105,-6251.4827706007,-20724.1064027126,-8719.4445495012,-2870.2501712606,-5288.3243931871,105.6277761200,-21765.7829277246,9835.8550683997,12178.8180978382,15757.1430503162
561269207840,40486,-2,0,6849.4277278737,9356.3991427885,13525.6969622601,1277.0849554455,-6296.1260502440,-3543.0021286011,-6250.5580256421,-20723.7292041111,-8719.5905618630,-2869.5444448449,-5282.0823647169,105.9198008437,-21765.8681016024,9835.3440251332,12177.4188127035,15759.3454034412
561269207840,40486,-2,0,6853.9784464855,9363.1157114348,13535.5041258994,1284.7871075344,-6293.0232875542,-3530.1165376656,-6245.1068974654,-20721.0158077195,-8716.1227682685,-2864.5313537538,-5275.8890070340,107.8179615481,-21764.6148288296,9837.4490366836,12180.9839478727,15759.1872233825
561269207840,40486,-2,0,6857.1785507499,9367.8732808926,13542.8777501741,1291.3089930315,-6291.2711392117,-3520.2972063295,-6242.8437058564,-20719.1176470152,-8714.4314584101,-2862.3411683257,-5276.2662056355,108.9860604431,-21762.6071588539,9840.1624330751,12183.4783257214,15759.5644219840
561269207840,40486,-2,0,6855.7305948280,9366.6930143008,13542.2571976361,1289.6176831732,-6291.8430209624,-3525.9430176553,-6244.4741772307,-20720.0667273674,-8715.4778803369,-2861.5502680322,-5280.0138562570,109.3754267414,-21763.5075684188,9837.1083411725,12183.6973442642,15760.1728068252
561269207840,40486,-2,0,6851.9464411160,9361.3635630923,13531.5861275224,1283.3513193093,-6293.4491569430,-3538.7434347130,-6247.1875736222,-20719.3488332548,-8716.4147929923,-2864.5191860570,-5281.9606877487,111.0545689030,-21765.0772013089,9837.5707136518,12184.0258720784,15766.6581892318
561269207840,40486,-2,0,6852.4818197762,9361.1688799431,13526.1471670425,1281.0759600034,-6293.0719583415,-3539.5099996129,-6245.5692699447,-20718.6309391423,-8716.0740974812,-2863.8499627317,-5276.0836901832,112.8553880328,-21762.5706557634,9839.1160111483,12183.6851765673,15770.0164735549
561269272913,40487,-2,0,6855.8036010089,9367.1553867800,13537.0494233959,1288.1210564639,-6290.2977234659,-3527.5126505455,-6242.2109856216,-20719.5070133135,-8716.0375943908,-2861.1122309466,-5270.4865496446,110.7260410888,-21762.5219849761,9839.2498558134,12183.1984686944,15766.8407046841
561269272913,40487,-2,0,6859.2105561193,9369.4915845700,13546.6254007955,1293.3775014914,-6289.9813633485,-3519.1291074345,-6242.7706996754,-20719.4826779199,-8716.0497620876,-2859.8832935675,-5273.2486168234,108.4993525702,-21763.8969347171,9837.7410614073,12184.0502074720,15766.1228105716
561269272913,40487,-2,0,6858.4196558258,9367.1067159927,13545.3477926291,1289.9462109874,-6291.2346361212,-3525.5901544474,-6246.5426856906,-20719.8233734309,-8719.3958787139,-2864.9815585363,-5280.9386012155,107.6232783989,-21764.2497979249,9836.8406518424,12182.9794501516,15765.6604380923
561269272913,40487,-2,0,6853.3822293411,9361.4122338796,13534.9079087551,1281.5018293923,-6293.2179707034,-3536.5654169817,-6249.0613989329,-20719.9085473087,-8719.5175556821,-2866.6972037883,-5284.0535316022,108.5845264479,-21764.2132948345,9836.8406518424,12183.3566487531,15771.1602370563
561269272913,40487,-2,0,6853.3822293411,9361.4122338796,13530.1381716005,1280.4189043750,-6291.3319776958,-3538.0742113878,-6246.3966733287,-20716.5137598951,-8716.4512960827,-2866.1983282186,-5279.0282728143,111.4561028981,-21762.4003080079,9839.3593650848,12185.0966293988,15775.1269062206
561269272913,40487,-2,0,6860.9870398555,9372.0833039933,13540.3833723254,1291.6010177553,-6285.3941416462,-3524.9939373031,-6240.8360358806,-20715.0779716700,-8713.0443409723,-2864.0446458809,-5273.1269398552,111.7967984092,-21757.6184031564,9842.4256246841,12184.0745428657,15772.2796651640
561269272913,40487,-2,0,6865.2822368340,9377.9846369524,13550.8962623804,1297.9160524064,-6283.2526270054,-3515.8438292923,-6239.1325583254,-20715.0901393668,-8711.0001679061,-2861.5381003354,-5274.0516848137,110.5435256364,-21756.2921242027,9845.1755241661,12186.6784299858,15774.4211798048
561269272913,40487,-2,0,6865.1118890785,9375.2955759546,13551.7236657644,1294.7281158388,-6284.3112166290,-3519.3846290677,-6243.8901277832,-20717.4263371568,-8712.5819684930,-2864.5313537538,-5280.7074149759,109.1320728050,-21757.3750492200,9843.8857483029,12184.4395737704,15773.6667826018
561269280575,40488,5,0,6858.1032957084,9368.5911750051,13537.8889944767,1288.0967210703,-6288.5334074265,-3535.1296287566,-6249.7427899550,-20720.5412675435,-8716.8284946842,-2870.7855499208,-5287.9228591919,108.8157126876,-21759.0298559879,9840.7951533099,12181.8356866503,15776.0759865727
561269280575,40488,5,0,6852.7860121968,9365.1598845011,13526.2445086171,1282.7307667714,-6292.4757411972,-3543.3793272026,-6250.0834854660,-20721.8188757099,-8719.5418910758,-2873.9734864884,-5285.8908538225,107.6354460957,-21762.1326186778,9836.9379934170,12179.7671781904,15778.4730228469
561269280575,40488,5,0,6856.0712903390,9367.0580452054,13533.9466607060,1287.9750441021,-6292.1593810798,-3534.4482377345,-6246.6400272651,-20721.9040495876,-8719.1646924742,-2870.2623389574,-5279.9773531665,106.0171424183,-21764.4444810741,9836.9379934170,12179.9861967332,15776.7817129885
561269280575,40488,5,0,6862.2889834155,9374.4438371770,13545.9683451671,1296.2490779417,-6288.4360658519,-3522.9375965400,-6244.9365497099,-20719.5191810103,-8717.0961840143,-2864.9815585363,-5277.6898261638,107.4042598561,-21763.5805745997,9838.2764400675,12180.7892647235,15775.6622848808
561269280575,40488,5,0,6864.0167963644,9375.7457807370,13549.4118033680,1297.5753568954,-6286.4770666635,-3520.7960818992,-6244.2916617783,-20717.4263371568,-8715.6238926988,-2860.6011876800,-5280.2450424966,108.6210295384,-21761.7310846826,9839.3715327816,12181.6531711979,15779.5072770768
561269280575,40488,5,0,6861.4737477284,9372.7160242281,13542.3788746043,1292.8177874376,-6285.9781910937,-3529.0336126483,-6244.2794940815,-20713.5570095671,-8713.5188811484,-2857.5227603838,-5279.8556761983,111.9549784679,-21759.7720854941,9841.1601842146,12184.0502074720,15786.5523735373
561269280575,40488,5,0,6859.5269162367,9371.4384160617,13532.9732449602,1290.9804652173,-6284.8465952892,-3533.0246172063,-6242.9532151278,-20710.5272530582,-8711.9857513487,-2855.6976058604,-5276.0593547895,115.0334057641,-21759.0055205943,9840.8073210067,12183.2958102690,15791.3464460855
561269280575,40488,5,0,6863.0920514059,9373.5920983994,13539.5803043351,1295.0079728657,-6280.9651000027,-3523.1687827797,-6239.3880799587,-20710.8557808724,-8710.2701060967,-2852.2176445690,-5270.2066926177,113.4637728739,-21759.2245391371,9840.6856440385,12183.4053195404,15789.9228255572
561269302570,40489,5,0,6868.5675149762,9380.4060086202,13555.6781672318,1302.4059325341,-6278.5680637285,-3510.6847258393,-6237.5994285257,-20713.2406494497,-8708.6152993288,-2848.6890124904,-5269.3792892337,109.2415820764,-21759.9667686433,9838.3494462485,12181.0691217504,15785.3721069455
561269302570,40489,5,0,6872.9357181356,9382.3771755055,13561.4213201322,1303.9877331210,-6277.9110081001,-3508.7865651350,-6239.5705954110,-20712.6931030927,-8708.1164237590,-2850.0761299282,-5274.4775542025,107.8301292449,-21760.0641102179,9838.1547630993,12181.2151341123,15783.3522692729
561269302570,40489,5,0,6870.4778433774,9379.6029406299,13553.9868573734,1298.9381389395,-6279.8213365013,-3519.8591692438,-6241.4322530249,-20712.2672337039,-8709.4183673191,-2852.1568060849,-5277.9696831907,108.6940357193,-21761.5120661398,9837.3151920185,12181.7748481661,15785.8709825152
561269302570,40489,5,0,6865.8662862815,9373.8111169422,13543.0359302328,1291.6861916331,-6283.2647947022,-3530.8100963845,-6243.9509662673,-20712.8269477577,-8710.2092676126,-2855.6124319826,-5276.2418702419,107.3677567656,-21761.9622709222,9837.5828813486,12181.4341526551,15787.3554415276
561269302570,40489,5,0,6863.8829516993,9373.6772722771,13543.8755013136,1292.9516321026,-6285.6009924922,-3528.1210353866,-6243.8657923895,-20714.2018974987,-8712.3386145566,-2857.6322696552,-5272.7010704664,104.9463850979,-21762.8626804871,9837.2665212312,12181.9451959217,15787.9151555815
561269302570,40489,5,0,6866.8518697241,9376.8287057543,13553.9138511925,1296.4680964845,-6286.2823835143,-3518.7154057425,-6244.1578171133,-20716.6841076506,-8712.6671423708,-2856.3546614888,-5272.1413564125,101.6489392589,-21763.8482639298,9837.5707136518,12183.1011271198,15785.3477715518
561269302570,40489,5,0,6867.8374531668,9376.7070287860,13558.8052653153,1297.1008167193,-6287.4261470156,-3519.1656105249,-6245.8247915780,-20718.0225543011,-8713.3607010897,-2856.4885061539,-5276.0836901832,99.5195923148,-21764.0916178663,9836.4512855441,12183.6486734769,15785.7736409406
561269302570,40489,5,0,6864.8563674452,9371.9007885410,13551.9426843072,1291.4671730902,-6286.3067189079,-3527.9385199343,-6247.6986168887,-20714.9562947017,-8712.9713347914,-2858.8977101248,-5281.4131413916,101.2230698701,-21761.4633953525,9838.5441293976,12185.2061386702,15789.8254839827
561269329895,40490,5,0,6865.0145475039,9372.6186826535,13543.8268305263,1290.0557202588,-6285.1142846193,-3535.7380135978,-6243.9387985704,-20712.0725505547,-8709.9050751920,-2860.7350323451,-5278.3955525795,104.0581432298,-21755.0753545204,9840.6734763416,12185.6198403622,15794.1815194453
561269329895,40490,5,0,6867.2655714161,9374.1883155437,13547.3554626049,1292.2215702933,-6279.7848334108,-3529.1674573134,-6239.9477940125,-20713.8490342908,-8709.0411687176,-2861.5989388195,-5274.0881879042,101.8922931953,-21755.2943730633,9841.7807367525,12184.5612507386,15792.1008432886
561269329895,40490,5,0,6869.5409307220,9374.0909739691,13555.6781672318,1295.7623700687,-6280.9772676995,-3520.0295169994,-6240.3371603109,-20717.5966849123,-8710.0875906443,-2865.3100863505,-5277.1301121099,97.9742948183,-21756.3651303837,9842.6446432270,12182.7239285183,15785.4329454296
561269329895,40490,5,0,6869.2367383014,9374.4195017833,13558.1360419901,1294.7767866261,-6284.2503781449,-3520.8934234738,-6244.8878789226,-20722.2082420082,-8714.8208247085,-2871.6981271825,-5284.7349226243,92.7543528813,-21760.5508180908,9839.0308372705,12181.3003079900,15783.8268094490
561269329895,40490,5,0,6863.3719084328,9366.0602940660,13548.1341952016,1287.5126716228,-6288.1562088250,-3532.9759464190,-6249.7184545613,-20724.3254212554,-8718.0330966697,-2875.6039578627,-5291.1959696373,91.5254155022,-21763.1425375141,9836.7311425710,12179.4873211634,15786.3455226913
561269329895,40490,5,0,6857.3488985054,9359.9521102608,13532.6325494492,1278.1070419787,-6288.9592768153,-3543.9025381660,-6250.4606840675,-20723.1086515731,-8718.8483323569,-2877.9644910464,-5291.5123297547,93.7277686271,-21762.3881403110,9836.8284841456,12180.4485692124,15790.4825396111
561269329895,40490,5,0,6859.5390839336,9364.1134625743,13532.6812202365,1281.8546926001,-6286.8542652650,-3538.1837206592,-6245.6909469130,-20720.7967891767,-8716.1714390558,-2874.3141819995,-5283.5059852452,96.0761341140,-21759.6625762227,9840.3084454369,12182.2372206454,15791.5167938411
561269329895,40490,5,0,6864.9658767166,9370.5258388000,13545.3112895387,1290.8101174618,-6285.0777815288,-3524.9452665158,-6240.6535204283,-20719.0081377438,-8713.1781856374,-2866.8675515438,-5277.8966770098,95.1392214586,-21758.2511233912,9842.2917800191,12184.1840521371,15791.4924584474
561269363079,40491,5,0,6867.5940992303,9372.4726702916,13553.1594539895,1296.3707549099,-6285.0047753479,-3520.1511939676,-6241.5417622963,-20719.5800194944,-8714.1637690800,-2864.6530307221,-5281.8633461741,92.9855391209,-21759.5408992545,9842.4621277746,12184.1962198339,15791.4437876601
561269363079,40491,5,0,6863.3962438264,9369.4064106923,13546.2482021940,1292.1607318091,-6288.1075380377,-3528.5469047754,-6246.7008657493,-20720.6872799053,-8716.8163269874,-2868.3276751626,-5288.5069086394,89.6759255851,-21760.2466256702,9841.4157058478,12182.9064439707,15793.2446067899
561269363079,40491,5,0,6854.7085082948,9361.3148923050,13532.5352078746,1282.7429344682,-6293.9967033000,-3540.9579555348,-6251.2880874515,-20723.6318625365,-8719.7000711345,-2870.8828914954,-5290.8066033389,88.3374789346,-21762.9965251522,9838.8848249087,12180.7892647235,15797.6128099493
561269363079,40491,5,0,6852.8346829841,9361.5339108478,13528.9944080991,1282.1588850207,-6295.9557024885,-3541.7731912220,-6252.2371678037,-20726.1992465661,-8722.0606043181,-2873.4016047378,-5289.1761319647,84.5533252226,-21763.3493883600,9836.3539439695,12178.8059301413,15794.7412334991
561269363079,40491,5,0,6857.6165878355,9364.3933196012,13538.3148638655,1290.4450865571,-6296.3572364837,-3530.2138792402,-6251.7139568403,-20728.9978168354,-8723.7397464797,-2872.8297229871,-5288.7015917886,80.2946313346,-21765.7342569373,9833.5918767907,12175.6909997547,15789.2292668383
561269363079,40491,5,0,6856.1929673072,9364.5393319631,13544.3622091865,1291.2846576379,-6299.8006946846,-3527.8533460565,-6254.7558810460,-20731.1028283858,-8725.4432240349,-2872.5498659601,-5291.2568081214,76.7051607718,-21766.8536850451,9831.7058837831,12174.1822053486,15785.3721069455
561269363079,40491,5,0,6854.0879557569,9360.8281844321,13541.4297942522,1287.1598084149,-6300.4090795257,-3533.7668467125,-6258.9050656627,-20732.7211320632,-8727.2440431647,-2872.1970027523,-5297.2919857456,76.8876762242,-21767.6932561258,9832.9469888591,12173.7441682630,15790.2513533715
561269363079,40491,5,0,6850.7783422210,9355.5960747982,13528.1670047151,1280.1268796513,-6302.6236003475,-3545.0097985769,-6260.8762325480,-20732.5629520045,-8727.5604032821,-2874.3993558772,-5298.3384076723,80.0391097013,-21766.0262816611,9835.0641681063,12175.7518382388,15795.6659784577
561269395672,40492,5,0,6850.7175037369,9355.1458700158,13526.6338749155,1277.8150172549,-6302.0638862936,-3545.0463016673,-6259.5986243816,-20731.6990455301,-8726.5626521426,-2873.3651016473,-5293.4591612463,79.7592526744,-21766.1236232357,9836.3174408790,12176.9321048306,15797.9900085509
561269395672,40492,5,0,6856.7283459675,9360.2076318941,13538.8502425257,1287.2084792022,-6301.7110230858,-3534.2657222822,-6256.1673338775,-20731.8572255888,-8725.6987456682,-2870.6517052558,-5289.3829828106,77.9827689382,-21766.6224988054,9834.9059880476,12175.5084843023,15795.1671028879
561269395672,40492,5,0,6858.0302895275,9362.8115190142,13547.3797979986,1291.9538809632,-6301.2729860002,-3527.6464952105,-6256.2890108457,-20732.9036475156,-8726.6599937172,-2872.2578412364,-5291.0134541849,75.3180433340,-21767.4012314021,9833.3728582479,12174.2673792264,15791.7358123839
561269395672,40492,5,0,6857.8721094688,9359.6965886276,13545.1287740863,1288.3035719163,-6304.2175686313,-3535.1539641503,-6260.3895246751,-20732.4656104299,-8728.4243097565,-2874.7887221756,-5296.4645823616,74.0647705612,-21770.3944848205,9830.3674371326,12172.5882370648,15793.3176129708
561269395672,40492,5,0,6853.9906141823,9354.6591621429,13534.5185424567,1281.6356740573,-6306.2374063039,-3549.0859770125,-6263.2002626412,-20731.2245053540,-8729.8600979816,-2877.2587646306,-5298.9224571198,77.0093531924,-21770.0659570063,9826.8144696603,12172.1988707665,15796.5907234162
561269395672,40492,5,0,6850.7296714337,9352.9070138004,13527.2300920598,1278.8614391817,-6307.1986543529,-3552.0062242501,-6260.0853322545,-20727.8905564245,-8728.0349434582,-2878.3538573447,-5295.0774649238,78.7858369285,-21769.2750567128,9831.1218343356,12175.5571550896,15801.3482928740
561269395672,40492,5,0,6855.9617810676,9358.3216388866,13536.4288708579,1286.6609328452,-6304.6069349296,-3542.4789176377,-6257.5544513153,-20729.6792078575,-8726.5018136585,-2877.5021185671,-5291.6948452070,78.4573091143,-21766.7806788641,9833.2025104923,12175.5328196960,15801.5794791136
561269395672,40492,5,0,6856.7770167547,9362.2883080508,13545.5303080815,1291.1021421856,-6304.6799411106,-3534.2048837981,-6256.3255139362,-20730.4944435446,-8725.7717518491,-2875.6404609532,-5292.3275654418,77.8002534859,-21765.5760768786,9834.1029200572,12175.1312857008,15800.3262063409
561269435623,40493,5,0,6855.7062594343,9361.3148923050,13543.6321473771,1289.2769876621,-6303.1468113109,-3536.2247214707,-6257.7126313740,-20729.8495556130,-8726.5261490521,-2876.6747151831,-5298.7886124548,79.8565942490,-21765.8924369960,9834.3584416905,12176.3602230799,15803.7088260576
561269435623,40493,5,0,6852.5548259572,9356.1071180648,13532.3405247254,1283.9962072410,-6305.0206366216,-3547.4676733351,-6258.0898299755,-20728.9248106545,-8729.1543715659,-2879.4367823619,-5299.6038481419,80.9395192662,-21768.5449949034,9832.3142686243,12175.7396705420,15810.3037177357
561269435623,40493,5,0,6847.8459272867,9352.0431073259,13523.2269198050,1280.1268796513,-6307.3933375021,-3551.6776964358,-6256.0699923029,-20728.9734814417,-8729.0935330818,-2880.1181733840,-5296.4280792711,80.8908484789,-21771.2948943854,9831.0853312452,12175.2772980627,15812.5425739511
561269435623,40493,5,0,6849.5494048419,9355.6082424951,13529.2012589451,1284.7262690503,-6305.5560152818,-3541.9800420679,-6254.1596639017,-20726.6859544390,-8729.0448622945,-2878.6093789780,-5292.2058884736,79.5402341316,-21772.1831362535,9830.3309340421,12176.7252539846,15810.8999348800
561269435623,40493,5,0,6856.8378552389,9362.8845251952,13542.0503467901,1295.0809790467,-6300.8836197018,-3527.8533460565,-6250.4728517644,-20726.8928052850,-8725.7960872428,-2873.3407662536,-5289.0422872996,80.6474945425,-21770.0294539158,9832.6914672258,12177.0537817988,15811.5448228116
561269435623,40493,5,0,6858.4439912195,9363.8336055474,13546.7957485511,1296.0787301861,-6299.3504899021,-3527.2206258217,-6251.2394166642,-20723.6927010206,-8723.6424049051,-2871.4669409429,-5291.1107957595,82.2171274326,-21767.3160575243,9831.5233683308,12175.7275028451,15810.9972764546
561269435623,40493,5,0,6857.0082029944,9359.2828869356,13537.3049450292,1289.4230000240,-6299.3626575989,-3538.4635776861,-6254.4030178382,-20723.9725580475,-8723.9709327193,-2873.5597847965,-5294.2622292366,83.4704002054,-21767.5229083703,9832.9348211622,12178.5990792954,15817.2028018343
561269435623,40493,5,0,6854.0879557569,9355.4135593459,13527.5099490867,1285.9795418231,-6299.7885269878,-3543.0021286011,-6253.9041422684,-20724.4105951331,-8723.9709327193,-2875.2510946548,-5291.6826775102,84.3708097703,-21767.8879392750,9832.4237778957,12177.4431480972,15820.8287754875
561269479534,40494,5,0,6853.6742540649,9354.9511868666,13532.0971707890,1286.5270881801,-6299.1558067530,-3534.6307531869,-6253.4174343955,-20726.2600850502,-8724.1899512621,-2871.1505808255,-5287.7768468300,82.3388044008,-21768.9465288986,9832.0709146878,12175.7153351483,15818.6994285435
561269479534,40494,5,0,6855.9252779771,9358.1877942215,13541.8799990346,1290.0070494715,-6298.3892418531,-3524.4220555524,-6252.9063911290,-20728.2799227228,-8724.1412804748,-2869.0699046688,-5287.2901389571,78.8588431095,-21769.8347707667,9832.7279703163,12175.3381365468,15815.9373613647
561269479534,40494,5,0,6857.3123954150,9358.9056883341,13545.2139479641,1292.2824087774,-6296.5640873297,-3521.8425038260,-6252.7847141607,-20727.1726623120,-8721.2940394183,-2865.9063034948,-5289.9183614709,79.6984141903,-21766.8536850451,9835.3561928300,12177.8690174860,15817.0324540788
561269479534,40494,5,0,6854.4043158743,9354.6591621429,13536.8182371563,1285.2981508010,-6297.4158261073,-3531.5766612843,-6254.1109931144,-20724.5201044046,-8720.6734868803,-2864.8842169617,-5290.9404480040,83.2148785721,-21764.3228041059,9838.3251108548,12179.9618613395,15822.5322530427
561269479534,40494,5,0,6853.6864217617,9353.1503677368,13529.7244699085,1282.8159406491,-6295.0066221363,-3536.1395475929,-6251.8843045958,-20722.0500619495,-8718.5441399363,-2865.2492478664,-5287.0711204143,86.6218336825,-21759.4313899831,9838.9334956960,12180.4242338188,15824.0653828424
561269479534,40494,5,0,6857.3488985054,9356.4599812727,13534.3846977917,1288.6929382146,-6293.2909768843,-3528.9241033769,-6248.8302126933,-20721.2834970497,-8716.1836067526,-2863.5701057048,-5281.3157998170,87.0598707682,-21759.5043961640,9842.0240906890,12182.7239285183,15824.9779601041
561269479534,40494,5,0,6862.6296789266,9362.7628482269,13550.5799022630,1295.9205501274,-6292.2080518671,-3518.2773686569,-6247.3092505904,-20722.3907574605,-8714.8451601021,-2860.0536413230,-5279.3324652349,84.8940207337,-21759.1271975625,9841.9632522049,12182.1277113740,15823.1163024902
561269479534,40494,5,0,6865.2822368340,9367.0215421150,13555.7268380191,1297.9525554969,-6293.5099954271,-3520.2850386326,-6250.1808270406,-20724.3010858617,-8716.8649977747,-2862.5236837780,-5284.8931026830,82.1562889485,-21759.3705514989,9840.9289979749,12180.0713706109,15822.1307190476
561269503241,40495,5,0,6862.6053435329,9362.0327864176,13547.3432949081,1293.0854767677,-6295.7488516425,-3532.9272756317,-6254.7558810460,-20725.8707187519,-8719.8704188900,-2867.8166318960,-5291.0621249722,81.4992333201,-21761.9987740127,9837.9600799501,12177.5039865813,15823.9315381774
561269503241,40495,5,0,6857.7991032879,9359.0395329991,13534.2873562171,1285.4076600724,-6299.4599991735,-3545.2774879070,-6256.9947372615,-20728.4381027815,-8722.8758400052,-2872.6837106252,-5292.2058884736,78.9075138968,-21767.6932561258,9831.5842068149,12173.2087896028,15823.3961595172
561269503241,40495,5,0,6857.5800847451,9359.7695948085,13535.1147596010,1285.9430387326,-6301.2243152129,-3542.7344392710,-6258.3575193056,-20731.1636668699,-8724.7253299223,-2875.9203179801,-5290.8309387326,74.8313354611,-21771.5869191092,9826.9239789317,12170.2277038812,15819.2713102942
561269503241,40495,5,0,6861.2547291856,9363.6754254887,13544.9705940276,1293.3166630073,-6300.9931289732,-3532.6717539984,-6256.2525077553,-20732.5507843077,-8724.2751251399,-2876.3583550657,-5290.1617154073,72.5924792457,-21773.4242413294,9827.0821589904,12168.8162510497,15815.9738644552
561269503241,40495,5,0,6863.7004362470,9366.8633620563,13552.6119076324,1297.1494875066,-6299.9588747433,-3529.7636744577,-6256.9582341710,-20732.2587595839,-8723.0826908512,-2873.6084555837,-5293.6903474860,73.3833795392,-21772.6820118232,9828.1285809172,12170.9212626001,15817.7260127977
561269503241,40495,5,0,6860.9992075523,9365.1842198947,13546.9295932161,1292.9637997995,-6299.7155208068,-3538.5000807766,-6257.1894204106,-20729.6062016765,-8722.8880077021,-2873.2312569822,-5296.3429053934,77.1675332511,-21768.6788395685,9832.4967840766,12174.7054163120,15822.6539300110
561269503241,40495,5,0,6856.2416380945,9360.7673459480,13533.5086236204,1287.2814853831,-6299.2166452371,-3545.2653202101,-6253.7824653002,-20725.2136631235,-8721.0385177850,-2872.0509903904,-5292.1207145958,82.3266367040,-21763.4710653283,9837.5098751677,12179.5724950412,15828.7012753320
561269503241,40495,5,0,6858.5169974004,9362.5438296841,13536.0273368628,1288.3157396131,-6296.4059072710,-3538.8042731972,-6251.3367582388,-20723.1938254509,-8719.2620340488,-2870.2258358670,-5286.0977046685,81.8764319216,-21762.1569540714,9836.5972979059,12177.6013281559,15826.1217236055
561269520601,40496,5,0,6858.5413327941,9363.7362639728,13544.8002462721,1290.6519374031,-6296.8074412661,-3528.7294202278,-6252.5535279211,-20729.8982264003,-8721.1115239659,-2871.6007856080,-5286.4262324827,76.3401298671,-21765.9532754802,9835.8915714902,12176.4332292609,15822.1307190476
561269520601,40496,5,0,6856.8865260262,9362.4099850191,13545.7493266243,1290.4815896476,-6299.5208376576,-3528.8997679833,-6256.9338987773,-20734.7653051295,-8725.4432240349,-2876.7598890609,-5294.1162168748,71.9475913141,-21767.8636038814,9832.4237778957,12173.4399758424,15819.1861364164
561269520601,40496,5,0,6853.9662787886,9358.7840113658,13539.1422672494,1284.7384367472,-6302.3437433206,-3539.2301425860,-6261.3629404209,-20736.3349380196,-8727.2562108615,-2877.4777831734,-5299.8593697752,71.6677342871,-21770.1146277936,9830.4039402231,12172.3327154315,15821.2059740890
561269520601,40496,5,0,6852.0924534779,9355.6690809792,13529.8461468767,1281.4531586050,-6301.5041722398,-3547.3459963669,-6260.4138600687,-20729.5453631924,-8724.5306467732,-2875.7864733150,-5298.0342152518,75.4032172118,-21765.3570583358,9833.6770506684,12175.8126767229,15828.2875736400
561269520601,40496,5,0,6855.0857068964,9357.2265461725,13530.5762086861,1283.1201330697,-6297.4644968946,-3540.5564215397,-6254.8653903174,-20728.6814567180,-8721.1601947532,-2874.0464926694,-5291.5001620578,78.5789860826,-21757.9712663643,9837.2300181407,12177.2849680385,15828.4457536987
561269520601,40496,5,0,6858.4804943100,9362.8115190142,13542.1233529711,1290.5545958285,-6296.8561120534,-3529.3013019784,-6254.4030178382,-20728.9978168354,-8720.0894374328,-2870.1041588987,-5289.7723491090,76.3522975640,-21759.4192222862,9839.2011850261,12177.7595082146,15826.1095559087
561269520601,40496,5,0,6856.4849920310,9360.5361597083,13545.6276496561,1288.7781120924,-6299.6303469291,-3526.1863715918,-6258.6617117262,-20736.1524225673,-8724.0926096875,-2872.7445491093,-5296.9999610218,72.0814359791,-21764.2619656218,9834.5652925365,12174.7175840088,15824.5885938058
561269520601,40496,5,0,6852.8833537714,9354.1724542699,13536.5262124325,1280.7595998861,-6304.5339287487,-3536.2003860770,-6265.9501621232,-20738.9388251397,-8729.5924086515,-2878.2078449828,-5304.9698024408,69.0151763797,-21767.7784300036,9831.4138590594,12173.2452926933,15824.8927862264
561269549440,40497,5,0,6846.3493005775,9348.9160092424,13523.4459383478,1274.4810683254,-6306.3834186658,-3547.2851578827,-6267.3007764705,-20737.2840183718,-8729.9574395562,-2878.2078449828,-5303.3514987634,70.8038278127,-21768.6788395685,9831.1461697293,12172.5395662775,15830.1857343444
561269549440,40497,5,0,6844.2564567239,9347.8087488315,13521.8032992767,1273.3616402177,-6305.1788166803,-3544.9124570023,-6264.2223491743,-20735.1790068215,-8727.5725709789,-2875.4579455008,-5297.4258304106,70.5361384826,-21766.9510266196,9832.1074177783,12172.6247401553,15831.6215225695
561269549440,40497,5,0,6849.8535972625,9356.8371798742,13533.0584188380,1281.7451833287,-6302.8669542840,-3534.4239023409,-6260.9492387289,-20735.3615222738,-8726.7816706854,-2873.9126480043,-5294.6515955350,68.0052575434,-21766.0141139643,9831.4503621498,12171.4079704730,15827.5088410433
561269549440,40497,5,0,6852.6521675318,9358.9908622118,13542.2571976361,1285.2008092264,-6304.7042765042,-3527.8533460565,-6262.0930022303,-20737.9167386066,-8726.8425091695,-2873.1582508013,-5296.7201039949,65.6325566629,-21766.6468341991,9830.7568034309,12170.8725918128,15823.7003519377
561269549440,40497,5,0,6850.9973607638,9356.9101860551,13539.8358259683,1281.3679847272,-6304.7286118979,-3534.1075422235,-6265.3782803725,-20737.7342231543,-8727.9862726709,-2873.1095800140,-5301.3438287876,66.4477923501,-21766.8536850451,9831.9492377196,12171.9311814364,15827.5696795274
561269549440,40497,5,0,6849.2087093309,9354.6104913556,13530.7952272289,1277.9853650104,-6305.6168537659,-3545.8006988704,-6265.2931064947,-20734.6071250708,-8728.7650052675,-2875.5674547722,-5301.1491456384,69.9520890351,-21764.1767917440,9831.4990329371,12174.1091991677,15830.9888023347
561269549440,40497,5,0,6848.5516537024,9353.6735787002,13525.8794777124,1276.0385335188,-6304.6677734138,-3546.2509036528,-6262.2146791985,-20733.8527278678,-8726.5504844458,-2875.3849393199,-5295.9900421855,71.3270387761,-21764.3593071964,9833.4458644288,12174.4742300724,15830.6481068236
561269549440,40497,5,0,6855.1100422900,9358.2729680993,13540.2130245699,1282.9862884047,-6300.7984458241,-3533.8885236807,-6257.7613021613,-20732.3195980681,-8722.7054922497,-2871.9658165126,-5289.4194859011,70.6091446635,-21762.3394695237,9834.3949447810,12174.5472362533,15827.0829716545
561269584446,40498,5,0,6860.6463443444,9365.9751201882,13551.5046472215,1290.7371112809,-6295.4203238283,-3523.2661243543,-6253.8554714811,-20729.6305370702,-8719.1403570806,-2869.3010909084,-5288.0445361601,73.6267334756,-21758.8351728387,9838.3616139453,12176.8712663465,15825.2456494342
561269584446,40498,5,0,6862.5080019584,9366.4983311516,13551.2247901946,1291.6496885426,-6293.6195046985,-3525.6874960220,-6252.3831801656,-20727.0388176469,-8716.8649977747,-2868.0843212261,-5291.2689758182,76.7173284686,-21756.2556211123,9839.9434145323,12179.5968304348,15827.9468781289
561269584446,40498,5,0,6858.9185313956,9362.6655066524,13541.1742726189,1285.8578648549,-6295.0431252268,-3537.8795282386,-6254.4030178382,-20725.7125386932,-8717.2786994667,-2869.7634633877,-5291.5244974515,79.3942217697,-21756.3286272932,9840.2476069528,12180.2052152760,15833.7021987262
561269584446,40498,5,0,6856.4241535469,9359.4532346911,13530.3206870528,1280.8569414606,-6296.3450687869,-3542.0165451584,-6253.3565959114,-20726.1140726884,-8717.9235873983,-2872.9270645617,-5289.5898336566,80.1607866695,-21756.9856829217,9838.8118187277,12178.5139054176,15834.7729560466
561269584446,40498,5,0,6856.6675074833,9360.6213335861,13534.0561699774,1284.3003996615,-6295.5176654029,-3533.6208343506,-6252.6873725861,-20727.7688794563,-8719.6635680440,-2872.2091704491,-5286.8764372651,76.5956515004,-21758.9446821101,9837.5585459550,12177.7108374273,15833.2154908533
561269584446,40498,5,0,6858.8090221242,9362.7871836206,13544.9219232403,1288.1088887671,-6295.7366839457,-3523.9110122859,-6252.7847141607,-20731.1636668699,-8720.5396422152,-2869.1185754561,-5287.5334928936,74.0769382581,-21759.4070545894,9836.9014903265,12175.4598135150,15831.1956531807
561269584446,40498,5,0,6857.8112709847,9360.7308428575,13544.5568923356,1287.8046963465,-6295.0187898332,-3526.0646946235,-6252.8820557353,-20729.9834002781,-8720.1502759169,-2868.9725630942,-5293.3739873686,76.3157944735,-21757.6792416406,9840.7221471289,12180.0470352173,15838.5327743649
561269584446,40498,5,0,6855.1222099868,9356.3383043044,13533.9831637965,1283.5581701553,-6296.3207333932,-3535.9935352311,-6253.5999498479,-20726.0654019011,-8720.5274745184,-2870.8220530113,-5293.2401427035,80.8421776916,-21756.2434534155,9841.4278735447,12181.2273018091,15845.9307340333
561269640023,40499,5,0,6854.0027818791,9357.2873846566,13528.7145510722,1282.3657358667,-6296.3085656964,-3541.2621479554,-6252.6387017989,-20724.4470982236,-8722.4134675260,-2872.4160212951,-5290.5145786152,81.2193762931,-21756.3651303837,9839.7487313831,12180.0470352173,15848.9361551485
561269640023,40499,5,0,6855.4872408915,9359.5140731752,13533.7763129505,1286.8556159943,-6296.4545780583,-3533.3409773237,-6251.7139568403,-20726.4669358962,-8723.4355540591,-2873.4867786155,-5288.6772563949,77.9340981509,-21758.8230051419,9838.1790984929,12176.8469309529,15843.5823685464
561269640023,40499,5,0,6859.5999224177,9364.7705182027,13543.3401226534,1293.0611413740,-6297.6835154374,-3524.3977201588,-6252.1398262291,-20729.1073261068,-8725.4067209444,-2875.3484362294,-5291.0621249722,72.9453424535,-21763.2520467855,9835.2345158618,12174.0726960772,15838.5206066681
561269640023,40499,5,0,6861.5345862125,9366.3644864865,13549.6551573045,1294.6551096579,-6298.3770741563,-3524.3125462810,-6254.9627318920,-20729.4115185274,-8726.2584597220,-2873.3894370409,-5294.7489371096,72.9575101504,-21766.2818032944,9832.2047593529,12173.1966219060,15838.6422836363
561269640023,40499,5,0,6860.3178165302,9363.3955684617,13541.9530052155,1288.8876213638,-6297.6713477406,-3533.2801388395,-6255.0965765571,-20726.6494513486,-8726.6234906267,-2873.7544679456,-5295.7223528554,76.8390054369,-21767.2552190402,9832.4116101989,12175.2164595786,15843.2173376417
561269640023,40499,5,0,6858.4196558258,9360.9498614003,13532.8759033856,1286.1133864881,-6298.5960926991,-3538.5852546543,-6252.5170248306,-20724.0333965316,-8726.4288074775,-2874.1073311535,-5291.8165221752,78.6398245667,-21767.7419269131,9832.4481132893,12175.3746396373,15843.6310393337
561269640023,40499,5,0,6860.9262013714,9363.6754254887,13538.5825531956,1289.8732048064,-6298.4865834277,-3532.3797292746,-6250.9960627278,-20724.2889181649,-8725.5649010031,-2872.0023196031,-5287.0467850206,76.7294961655,-21769.4210690747,9829.2601767217,12173.8293421408,15838.2285819443
561269640023,40499,5,0,6862.7391881980,9365.7804370390,13550.6529084439,1294.7402835356,-6297.5740061660,-3522.9254288432,-6249.6941191677,-20727.5133578230,-8724.0196035066,-2869.8608049623,-5287.2293004730,74.4784722532,-21771.6355898965,9831.5842068149,12176.4819000482,15837.4133462572
561269649178,40500,5,0,6864.1749764231,9368.5911750051,13554.6804160923,1297.1738229002,-6296.4424103614,-3522.1223608529,-6249.8644669232,-20725.9315572360,-8724.6644914382,-2870.0311527178,-5290.4902432215,76.1819498084,-21769.1777151382,9833.3241874606,12178.0271975447,15837.1943277144
561269649178,40500,5,0,6862.9095359535,9366.5348342421,13546.6497361892,1292.1485641123,-6296.6370935106,-3533.8398528934,-6250.6431995199,-20723.7535395047,-8723.0948585481,-2869.7512956909,-5291.6826775102,79.5280664347,-21766.5251572308,9834.6869695047,12178.7572593541,15843.1808345513
561269649178,40500,5,0,6859.7459347795,9362.9210282856,13536.9885849118,1286.9407898721,-6298.5352542150,-3541.9070358870,-6248.8302126933,-20721.3200001401,-8723.0461877608,-2873.0730769235,-5288.9571134218,82.0467796771,-21764.6513319201,9833.7865599398,12178.7694270509,15845.9307340333
561269649178,40500,5,0,6861.9117848140,9365.3667353471,13539.5924720319,1290.0800556524,-6298.2188940976,-3536.6140877690,-6247.2970828936,-20721.9648880717,-8724.6888268319,-2875.8716471928,-5287.4239836222,80.3067990314,-21765.4300645168,9832.5454548639,12177.3701419162,15842.8158036466
561269649178,40500,5,0,6864.6251812055,9366.7781881785,13550.7867531090,1294.8011220197,-6298.5839250023,-3526.7704210393,-6248.8180449964,-20725.6273648154,-8726.3558012966,-2876.8693983323,-5288.0445361601,75.8777573879,-21768.4354856320,9830.0267416216,12176.0073598721,15839.1168238124
561269649178,40500,5,0,6864.7346904769,9367.7759393180,13555.3009686303,1295.3608360736,-6298.7786081514,-3527.4761474550,-6252.0789877450,-20728.7179598085,-8727.7794218249,-2876.9910753005,-5293.4834966400,74.8678385516,-21768.0826224242,9831.4625298467,12177.5648250654,15840.5404443407
561269649178,40500,5,0,6862.8608651662,9365.0503752297,13547.9638474461,1292.6839427725,-6299.7763592909,-3536.4802431040,-6254.3300116572,-20727.2213330992,-8728.4364774533,-2879.0109129731,-5296.9877933250,78.2261228747,-21765.8315985119,9834.3219386001,12179.6576689190,15847.7558885567
561269649178,40500,5,0,6859.7824378700,9360.4874889211,13534.2873562171,1285.2008092264,-6300.3604087384,-3546.1048912909,-6255.3399304935,-20727.0509853437,-8727.9984403677,-2879.3516084842,-5295.1261357111,77.1188624638,-21762.9600220617,9836.5242917250,12179.8036812808,15853.3165260048
561269670525,40501,5,0,6858.4439912195,9360.5604951020,13534.7132256059,1286.5514235738,-6301.3216567874,-3542.4302468504,-6254.2570054763,-20728.6814567180,-8728.7163344803,-2879.2299315159,-5291.4393235737,76.3522975640,-21763.5805745997,9836.4634532409,12178.9276071096,15851.7468931146
561269670525,40501,5,0,6862.1429710537,9363.5902516109,13544.4717184579,1292.0755579314,-6300.1048871051,-3531.3333073479,-6251.8599692022,-20728.6814567180,-8727.0371923187,-2878.5850435843,-5290.6240878866,73.6267334756,-21765.7707600278,9834.3706093873,12178.0393652415,15848.0479132804
561269670525,40501,5,0,6862.2159772346,9365.5249154057,13548.5722322872,1293.0368059804,-6302.2220663523,-3526.2472100759,-6252.5535279211,-20727.7202086690,-8727.3778878297,-2876.5895413054,-5292.9481179798,74.6731554024,-21767.8149330941,9833.5675413970,12178.9154394128,15849.8487324102
561269670525,40501,5,0,6858.6995128528,9363.0548729507,13543.6321473771,1290.4329188603,-6298.6812665769,-3531.9538598858,-6251.3002551483,-20721.7215341353,-8724.9565161620,-2872.8175552903,-5292.2788946545,81.3167178677,-21767.1700451625,9835.1736773777,12178.6720854763,15852.5377934081
561269670525,40501,5,0,6852.1167888716,9355.6569132823,13528.5198679230,1285.1278030455,-6295.7245162489,-3534.0467037394,-6243.2330721547,-20711.9143704960,-8718.4467983617,-2867.4516009913,-5283.2261282182,91.4889124117,-21762.0596124968,9842.5473016524,12188.8686154139,15866.3237939085
561269670525,40501,5,0,6851.1312054289,9354.9876899571,13528.7388864658,1286.6974359356,-6288.7037551821,-3525.0912788777,-6236.2001433911,-20708.7629370188,-8712.2047698915,-2860.4186722277,-5273.6623185154,95.2487307300,-21758.7865020514,9841.7685690557,12188.5765906902,15865.0461857421
561269670525,40501,5,0,6860.1961395620,9362.5438296841,13545.0070971181,1294.6551096579,-6287.1341222919,-3512.2178556390,-6236.7598574449,-20712.6444323054,-8711.4868757790,-2858.7516977629,-5274.5383926867,90.3816520008,-21761.9257678318,9841.4278735447,12185.8631942987,15859.6802314432
561269670525,40501,5,0,6864.7346904769,9366.3644864865,13551.4316410406,1296.0178917020,-6292.5000765908,-3514.1890225243,-6246.0438101208,-20720.0788950642,-8717.5098857063,-2865.3465894410,-5285.3433074654,81.6330779851,-21766.2209648103,9835.8672360966,12179.9861967332,15851.0289990021
561269696589,40502,5,0,6857.3367308086,9359.2342161483,13540.9187509856,1286.4297466055,-6301.7231907826,-3529.8366806387,-6256.0456569093,-20727.6837055785,-8726.2462920252,-2874.1681696376,-5297.5840104693,75.9750989624,-21770.6865095443,9829.0411581789,12174.3890561946,15847.5733731043
561269696589,40502,5,0,6844.8770092619,9349.4392202058,13523.3120936828,1274.1647082080,-6307.7948714972,-3546.1900651687,-6262.0686668366,-20731.0663252953,-8731.9894449256,-2879.4367823619,-5301.2099841225,73.5172242042,-21775.7117683322,9825.3665137384,12170.7144117541,15847.5003669234
561269696589,40502,5,0,6839.8152473836,9344.5599737798,13515.0623952368,1269.7356665645,-6308.6587779717,-3547.1513132177,-6262.1781761080,-20730.9081452366,-8733.1818792143,-2882.7098928073,-5296.8539486599,72.4708022774,-21775.9307868750,9824.9406443496,12169.5219774654,15846.6607958426
561269696589,40502,5,0,6843.2708732813,9349.7920834137,13527.6924645390,1277.4743217439,-6305.2396551644,-3534.7645978519,-6259.4404443229,-20730.2267542145,-8731.0403645734,-2879.3637761810,-5292.5952547719,71.5338896221,-21775.0668804005,9825.9992339732,12169.7409960083,15844.0082379352
561269696589,40502,5,0,6847.5539025630,9354.2697958445,13539.2031057336,1282.8889468301,-6304.9476304407,-3531.1264565019,-6258.5278670612,-20729.4723570115,-8730.0791165244,-2876.6260443958,-5293.7511859701,72.4829699743,-21772.1588008599,9827.8730592839,12171.8703429523,15845.5535354317
561269696589,40502,5,0,6845.2663755602,9349.6704064455,13533.7154744664,1279.2386377832,-6304.6069349296,-3536.2855599548,-6259.4647797165,-20726.4426005026,-8729.7749241039,-2877.5872924448,-5296.9026194472,76.5104776227,-21769.5062429525,9830.8906480960,12176.3845584736,15853.7302276968
561269696589,40502,5,0,6839.5475580535,9344.9980108654,13519.6009461518,1273.6049941542,-6305.3004936485,-3547.3946671542,-6259.2092580832,-20724.0577319253,-8729.1665392627,-2878.8040621271,-5294.0918814811,81.3410532614,-21767.3160575243,9834.0177461795,12177.8325143955,15861.5418890571
561269696589,40502,5,0,6835.9824228843,9343.9637566355,13513.4562592562,1269.9425174105,-6306.9431327196,-3548.9521323475,-6258.1871715501,-20725.9193895392,-8729.0326945977,-2879.4976208460,-5291.7678513879,78.9196815936,-21768.2529701797,9832.7523057099,12175.8005090261,15861.8582491745
561269753006,40503,5,0,6836.2744476081,9344.6573153544,13520.3066725675,1273.8605157874,-6306.1765678198,-3539.4491611288,-6258.0411591882,-20729.2776738623,-8729.9087687689,-2880.6413843474,-5291.9260314466,73.5050565074,-21769.1777151382,9833.7257214557,12173.9266837153,15855.5067114329
561269753006,40503,5,0,6839.8152473836,9347.8817550125,13530.5640409893,1277.1336262328,-6304.9841335311,-3531.2359657733,-6258.9537364500,-20732.1979210998,-8730.1034519181,-2878.9744098827,-5294.6029247477,70.1346044874,-21769.2872244096,9833.2390135828,12174.3768884978,15852.3674456526
561269753006,40503,5,0,6838.0265959506,9344.5113029925,13529.4689482752,1274.0186958461,-6306.7849526609,-3537.5631681212,-6261.5454558732,-20733.8283924741,-8732.2206311653,-2881.1645953108,-5301.5506796336,70.1467721843,-21771.0758758426,9832.3142686243,12175.4598135150,15854.9104942886
561269753006,40503,5,0,6833.3907034611,9338.8289885762,13516.8875497603,1265.6108173415,-6309.5956906270,-3548.9764677411,-6264.4657031108,-20732.0884118284,-8733.6685870872,-2884.3160287879,-5303.2298217952,72.5194730647,-21772.2926455249,9829.9415677438,12173.4156404488,15857.9645861911
561269753006,40503,5,0,6833.7192312753,9340.2161060140,13512.3368311485,1265.5013080701,-6308.6466102749,-3549.4753433109,-6260.2313446164,-20728.4624381752,-8733.1210407302,-2885.3502830179,-5297.2554826551,74.4054660723,-21771.7329314711,9833.1173366146,12177.3458065226,15862.2354477760
561269753006,40503,5,0,6836.2257768208,9345.6063957066,13523.3972675606,1273.2399632495,-6307.0404742942,-3537.8186897545,-6257.0190726551,-20730.5066112414,-8731.4662339622,-2881.2376014917,-5292.1937207767,73.2495348741,-21775.2372281561,9831.0609958515,12175.2164595786,15859.6802314432
561269753006,40503,5,0,6841.6525696038,9350.5829837072,13532.2310154540,1278.8492714849,-6305.4221706168,-3528.3765570199,-6256.6540417504,-20729.9347294908,-8731.1133707544,-2879.8139809634,-5293.6295090019,70.6334800572,-21776.9772088017,9830.2457601644,12174.1457022582,15856.8573257803
561269753006,40503,5,0,6841.5917311197,9350.0597727438,13531.2454320113,1277.5959987121,-6303.8647054234,-3531.0291149273,-6257.8829791295,-20728.8031336862,-8730.9065199084,-2880.4101981078,-5297.3406565329,72.9818455440,-21778.2061461809,9829.1871705408,12176.2385461117,15858.7068156973
561269771799,40504,5,0,6834.3397838132,9343.4040425816,13518.1164871394,1270.9767716404,-6306.6754433895,-3543.9755443469,-6259.9393198926,-20728.4989412657,-8732.5734943731,-2880.7508936188,-5299.3483265086,73.7240750502,-21777.8411152762,9828.2624255822,12175.3989750309,15864.3526270232
561269771799,40504,5,0,6833.2446910992,9342.7956577405,13511.2904092217,1266.9979347793,-6306.8336234482,-3548.2099028413,-6259.8906491053,-20728.3164258133,-8732.4518174049,-2881.3714461568,-5296.7322716917,74.1742798327,-21775.7482714226,9829.1750028440,12176.1168691435,15866.1291107593
561269771799,40504,5,0,6838.3916268553,9346.7136561175,13519.3332568217,1272.9114354353,-6302.2829048365,-3537.0642925515,-6256.9338987773,-20728.9734814417,-8730.7118367592,-2879.0960868509,-5293.0454595544,73.8335843216,-21774.0204584738,9831.9005669323,12177.6621666400,15865.5937320991
561269771799,40504,5,0,6843.7819165478,9350.3639651644,13533.6668036791,1280.7230967956,-6300.5064211003,-3525.3102974205,-6255.4981105522,-20729.6183693734,-8726.0029380887,-2873.9004803075,-5291.6461744197,73.8457520184,-21770.7960188157,9833.8595661208,12178.6355823858,15865.8249183388
561269771799,40504,5,0,6846.4709775457,9351.9822688418,13536.9399141245,1280.8934445511,-6300.7132719463,-3526.1620361981,-6257.2380911979,-20729.2290030750,-8726.0881119665,-2873.0609092267,-5296.7444393885,74.1742798327,-21767.5594114608,9835.6117144633,12179.5359919507,15867.0051849306
561269771799,40504,5,0,6843.3438794622,9346.7258238143,13525.8064715315,1274.4689006286,-6299.1679744498,-3536.9304478864,-6257.7369667677,-20727.4525193389,-8724.6888268319,-2874.0951634567,-5297.1216379900,77.9949366351,-21763.8969347171,9838.2156015834,12182.1885498581,15874.3544738116
561269771799,40504,5,0,6841.3118740928,9344.6694830512,13517.4594315110,1270.7942561881,-6298.0120432516,-3539.9723720922,-6255.3886012808,-20726.0167311138,-8721.3670455992,-2871.5156117302,-5289.8818583804,80.5988237552,-21762.2786310396,9841.0141718527,12183.7946858388,15878.1751306140
561269771799,40504,5,0,6843.7210780637,9348.0277673744,13526.0498254680,1274.1282051175,-6295.6758454616,-3531.8321829176,-6253.3687636082,-20725.2623339108,-8719.5905618630,-2869.1794139402,-5285.4649844337,79.5889049189,-21761.1835383256,9841.5252151192,12184.7681015846,15875.8997713082
561269803089,40505,5,0,6846.6656606949,9349.3783817217,13533.1070896253,1277.6081664089,-6295.3108145569,-3522.3778824862,-6253.9406453589,-20729.0464876227,-8718.9091708410,-2869.6661218131,-5287.0467850206,76.8146700432,-21760.5873211812,9841.2088550018,12185.1939709734,15869.9132644713
561269803089,40505,5,0,6842.9058423766,9345.7889111589,13533.8858222219,1272.9966093130,-6298.5352542150,-3527.1111165503,-6259.0510780245,-20730.6891266938,-8721.5982318388,-2871.0654069477,-5294.0797137843,75.5857326641,-21762.1691217682,9839.8825760481,12185.7658527241,15870.1444507109
561269803089,40505,5,0,6837.5277203809,9339.5347149919,13522.2048332719,1266.1218606081,-6301.1391413351,-3538.8651116813,-6261.2899342400,-20729.6548724638,-8723.9587650225,-2873.7909710361,-5295.2964834666,78.2626259652,-21761.9136001349,9841.8294075398,12188.2602305728,15877.5059072888
561269803089,40505,5,0,6833.8652436371,9336.0425860038,13511.0105521948,1260.8167447933,-6303.0494697363,-3546.7011084352,-6259.0389103277,-20727.5376932166,-8725.5527333063,-2875.1902561707,-5291.0742926690,82.0711150707,-21759.6260731322,9844.8104932614,12189.9880435216,15883.0665447369
561269803089,40505,5,0,6836.4082922731,9341.1530186694,13516.3035003128,1265.9758482462,-6303.6456868806,-3539.5343350065,-6257.4327743471,-20729.9712325812,-8726.5261490521,-2876.2731811880,-5288.2878900966,79.9417681267,-21759.1150298657,9843.4112081268,12188.0290443331,15880.0367882280
561269803089,40505,5,0,6839.2677010265,9343.9272535450,13527.7776384168,1269.9303497136,-6304.0837239662,-3530.6275809321,-6260.2191769195,-20733.4755292662,-8727.5239001916,-2876.5408705181,-5290.9282803072,75.7195773292,-21762.1326186778,9844.0439283616,12186.7514361667,15877.1652117777
561269803089,40505,5,0,6839.4745518725,9341.8100742978,13527.3517690280,1268.1173628870,-6306.4564248467,-3532.4040646683,-6262.9934117952,-20734.5706219803,-8730.3224704609,-2879.7409747825,-5298.6547677897,74.5636461310,-21763.2885498759,9841.2818611828,12186.0092066605,15876.1066221541
561269803089,40505,5,0,6835.7634043415,9339.8145720189,13519.2602506408,1263.5301411848,-6308.4762625193,-3544.4014137357,-6266.1691806660,-20734.7896405231,-8732.9993637619,-2882.6490543232,-5302.4632568953,74.2229506199,-21766.1357909325,9838.9699987864,12185.6685111495,15881.1683840325
561269833225,40506,5,0,6830.6286362822,9333.4143634900,13507.0438830305,1257.7018144066,-6310.4230940110,-3553.9773911354,-6265.1105910424,-20734.2664295597,-8734.6785059235,-2885.5084630766,-5300.2730714672,75.1720309721,-21765.4422322136,9838.6779740627,12182.6265869438,15885.4270779205
561269833225,40506,5,0,6831.2735242139,9336.6996416322,13507.5184232066,1259.7581551697,-6309.7782060794,-3548.6357722301,-6261.6914682351,-20733.8892309582,-8735.4329031265,-2885.2286060497,-5297.1338056869,72.5803115488,-21766.6590018959,9837.8140675882,12179.5846627380,15881.4725764531
561269833225,40506,5,0,6834.2667776323,9340.8001554615,13521.4504360689,1266.5842330873,-6306.7727849641,-3534.9349456075,-6260.8762325480,-20735.0208267628,-8732.2449665589,-2881.4201169441,-5296.8904517504,70.1102690938,-21766.1966294166,9838.7266448500,12178.6112469922,15877.1165409905
561269833225,40506,5,0,6838.1726083125,9342.2846144739,13529.2986005197,1269.7600019581,-6303.5361776092,-3528.4860662913,-6260.1583384354,-20733.6823801122,-8728.3999743629,-2876.5043674276,-5299.1171402690,71.1688587174,-21763.5075684188,9841.7442336621,12180.4120661220,15878.1386275236
561269833225,40506,5,0,6836.0189259748,9339.7293981411,13522.1074916973,1267.2169533221,-6303.5361776092,-3536.8574417055,-6259.7081336530,-20731.4435238968,-8728.4243097565,-2876.4191935498,-5301.2829903035,75.0990247912,-21760.7333335431,9842.5107985619,12183.3688164499,15881.7402657832
561269833225,40506,5,0,6830.7259778568,9336.0912567911,13509.7816148157,1262.8730855563,-6301.6988553890,-3542.8439485424,-6256.6540417504,-20726.8076314073,-8726.1854535411,-2874.1438342440,-5293.8485275447,80.4771467869,-21756.9370121344,9846.2341137897,12185.3643187289,15886.8385307520
561269833225,40506,5,0,6833.3055295833,9340.3256152854,13513.4440915594,1267.0222701730,-6297.8903662834,-3535.4581565709,-6250.8622180627,-20723.2668316318,-8719.9920958582,-2868.8752215196,-5284.7470903211,82.2049597358,-21752.9216721828,9848.1931129782,12186.0700451446,15886.3883259695
561269833225,40506,5,0,6838.6958192759,9347.4072148364,13526.6338749155,1276.5860798758,-6292.1472133829,-3521.1732805007,-6248.2339955489,-20722.9869746049,-8717.1083517112,-2866.0523158567,-5284.3942271132,80.2216251537,-21751.8630825592,9848.4973053988,12185.6076726654,15882.1783028688
561269865474,40507,5,0,6839.5475580535,9347.5288918046,13532.1458415762,1278.9466130594,-6291.0764560625,-3516.6834003731,-6249.5359391090,-20725.3961785758,-8715.5508865178,-2866.4660175487,-5290.6970940675,79.1265324396,-21753.0311814542,9845.1876918629,12183.1254625135,15877.9074412839
561269865474,40507,5,0,6836.2866153049,9343.7204026990,13525.5144468077,1272.9114354353,-6291.6605055100,-3525.8821791712,-6254.2448377795,-20726.0045634170,-8718.7144876918,-2868.1086566198,-5295.2843157698,78.8588431095,-21757.4358877041,9842.2917800191,12181.1421279314,15880.4383222231
561269865474,40507,5,0,6830.2879407712,9339.9119135935,13512.8965452024,1268.5553999726,-6293.7776847572,-3538.1350498719,-6253.0159004004,-20722.2325774018,-8721.0993562691,-2872.5133628697,-5294.0553783907,81.3653886550,-21760.1249487020,9838.9456633928,12179.2439672270,15883.3464017638
561269865474,40507,5,0,6831.8089028741,9340.9461678234,13511.4120861900,1270.2588775279,-6292.8286044050,-3535.2878088153,-6249.2195789916,-20720.9671369323,-8720.6369837898,-2872.9513999553,-5287.8498530110,81.6695810756,-21761.7432523794,9838.0452538279,12177.6499989432,15882.2756444434
561269865474,40507,5,0,6837.3573726253,9348.0886058585,13526.2810117076,1279.5428302038,-6289.9935310453,-3520.1268585739,-6246.1168163018,-20720.4925967562,-8717.5342211000,-2868.2911720721,-5284.3333886291,82.3388044008,-21761.2808799002,9840.1867684687,12179.2683026206,15880.4261545263
561269865474,40507,5,0,6842.6868238338,9351.2278716388,13536.5748832198,1282.3170650794,-6286.3188866048,-3512.7288989056,-6246.8103750207,-20721.0644785068,-8715.9402528162,-2866.4173467614,-5288.7502625759,81.0125254471,-21758.2511233912,9838.7144771531,12178.2218806938,15877.7370935284
561269865474,40507,5,0,6840.0951044105,9346.8840038730,13530.8682334098,1278.2530543405,-6290.1638788008,-3521.4774729213,-6249.5481068058,-20720.8819630545,-8717.3882087381,-2869.5079417544,-5293.4469935495,81.9129350120,-21760.8793459050,9839.6513898085,12180.9352770854,15883.9912896954
561269865474,40507,5,0,6836.1162675494,9342.3089498676,13519.2967537312,1270.6360761294,-6291.8308532655,-3535.1782995439,-6250.1199885565,-20720.9306338418,-8719.6514003472,-2871.1505808255,-5289.6871752312,84.4924867385,-21760.6359919685,9839.2985266006,12181.2881402932,15890.5983490703
561269898649,40508,5,0,6833.5610512166,9342.6861484691,13517.1187359999,1272.7897584670,-6290.9061083070,-3533.1949649618,-6245.9099654558,-20717.4263371568,-8718.9213385378,-2868.8143830355,-5280.6587441886,87.5465786411,-21758.8595082324,9842.7054817111,12184.2083875307,15894.0661426648
561269898649,40508,5,0,6840.2411167724,9349.0255185138,13529.5906252434,1280.8204383702,-6288.7889290598,-3520.5892310532,-6241.7364454455,-20716.5624306824,-8715.7090665765,-2866.9892285121,-5278.5293972446,86.2811381715,-21757.9590986675,9844.4941331440,12185.6441757558,15891.8881249335
