timestamp,sequence,battery,flags,EEG-ch1,EEG-ch2,EEG-ch3,EEG-ch4,EEG-ch5,EEG-ch6,EEG-ch7,EEG-ch8,EEG-ch9,EEG-ch10,EEG-ch11,EEG-ch12,EEG-ch13,EEG-ch14,EEG-ch15,EEG-ch16
11333317601,24377,-2,0,26244.7973021274,14440.7320987390,5991.8119527023,12210.1742525509,-45292.1707472449,-11380.0088014120,-50157.3999865046,-55351.5585739789,-7832.2734387468,-37863.4633090246,-51954.3984594976,-22407.8966244649,-35959.9609857403,-9194.5931104371,-11373.8641145164,-1316.9463302375
11333317601,24377,-2,0,26243.2520046308,14437.4224852031,5986.4094953129,12208.5559488734,-45295.0788267856,-11383.0628933146,-50158.5680853996,-55358.2751426251,-7834.6096365368,-37864.5097309513,-51954.9216704610,-22409.6852758979,-35960.5450351878,-9197.4768545841,-11376.3463246683,-1316.4352869709
11333317601,24377,-2,0,26238.0929011779,14432.6405803517,5983.0998817770,12203.8348825061,-45298.4979495928,-11384.9732217158,-50164.0800520604,-55362.8988674179,-7838.5398026106,-37869.3159711964,-51959.9104261584,-22412.6298585291,-35963.8424810269,-9202.4291071910,-11381.1647326102,-1318.8323232450
11333317601,24377,-2,0,26233.6030210502,14429.2579606349,5980.1066283586,12198.3107481485,-45303.3771960188,-11389.0980709388,-50169.2269878165,-55369.6519391546,-7841.4722175450,-37872.6742555195,-51965.8725976016,-22416.9250555076,-35967.1520945627,-9205.5440375777,-11385.0340601999,-1321.3632041842
11333317601,24377,-2,0,26235.9392188402,14427.1407813877,5978.1111260796,12200.5982751512,-45305.7498968993,-11390.2418344401,-50173.7168679441,-55373.2292420205,-7843.7354091540,-37874.6819254953,-51968.7076709614,-22420.5996999481,-35969.1962676289,-9208.0870862137,-11386.3968422441,-1321.8864151476
11333317601,24377,-2,0,26233.5543502630,14428.0898617399,5977.5514120258,12201.7177032589,-45305.7133938088,-11391.5316103034,-50174.4469297535,-55373.4969313507,-7845.5848990711,-37876.4827446251,-51970.1556268833,-22421.5001095130,-35971.5446331158,-9209.6567191039,-11386.7740408456,-1324.4659668741
11333317601,24377,-2,0,26230.1595628493,14427.6396569575,5975.0205310866,12195.4756747888,-45306.8936604006,-11393.9164788806,-50175.6880348295,-55374.7867072139,-7847.3978858977,-37879.0014578675,-51971.6644212894,-22422.6195376207,-35974.1241848422,-9209.6932221943,-11390.0836543814,-1326.4006306689
11333317601,24377,-2,0,26233.2379901456,14428.1020294368,5974.0836184312,12199.8195425546,-45306.3096109531,-11394.4883606313,-50175.8097117977,-55373.6551114094,-7846.7408302693,-37878.2835637549,-51971.3845642624,-22423.1305808873,-35972.9925890377,-9206.9919934996,-11385.8006250997,-1326.6561523022
11333350144,24378,-2,0,26234.0532258327,14427.2502906592,5976.2251330721,12201.7177032589,-45304.7399780630,-11391.2274178828,-50173.8385449124,-55370.4428394481,-7843.6380675795,-37873.7571805368,-51968.7928448391,-22421.0864078210,-35969.0624229639,-9202.3682687069,-11380.7023601309,-1326.7899969672
11333350144,24378,-2,0,26231.6561895586,14428.4305572510,5979.2305541873,12199.2111577134,-45301.1626751970,-11387.1755748407,-50172.2324089317,-55367.5104245138,-7840.2432801659,-37870.1190391867,-51966.7973425602,-22418.2878375517,-35964.0736672665,-9199.2168352298,-11380.7023601309,-1326.5831461213
11333350144,24378,-2,0,26233.5421825661,14426.6054027275,5979.2305541873,12199.9777226133,-45300.6516319305,-11385.9831405521,-50171.9160488144,-55366.1233070759,-7840.1459385913,-37870.4962377882,-51967.0041934062,-22418.2391667644,-35962.1390034716,-9196.6007804128,-11380.5685154659,-1327.2402017497
11333350144,24378,-2,0,26227.5800111229,14423.4174661599,5975.8479344706,12196.6194382901,-45304.4966241265,-11388.2463321612,-50174.8606314455,-55368.2526540200,-7842.5186394717,-37873.2948080575,-51969.0727018661,-22421.4392710289,-35963.9276549046,-9196.5277742319,-11379.7167766883,-1326.2911213975
11333350144,24378,-2,0,26222.3357337922,14420.9839267953,5973.6455813456,12192.7014399131,-45305.5308783565,-11389.7429588704,-50175.8948856755,-55371.9029630668,-7844.7453279903,-37876.1420491141,-51970.1191237928,-22423.3982702174,-35965.8988217899,-9198.8274689314,-11378.7068578520,-1322.2879491428
11333350144,24378,-2,0,26222.4574107604,14416.2871958217,5970.8591787732,12192.2999059180,-45306.4799587087,-11391.1665793987,-50178.3162573432,-55372.9615526904,-7844.3802970857,-37877.3344834027,-51971.6887566830,-22424.8462261393,-35967.2616038341,-9201.9910701054,-11378.5121747028,-1322.3122845364
11333350144,24378,-2,0,26222.5912554255,14416.3967050931,5971.0538619223,12196.2787427791,-45300.6151288400,-11390.1688282592,-50177.4645185656,-55373.4725959570,-7843.9665953937,-37875.6310058475,-51972.1024583750,-22425.1869216503,-35965.9474925772,-9204.8018080715,-11381.5540989085,-1322.0567629031
11333350144,24378,-2,0,26217.7363443931,14416.7495683010,5971.1755388906,12192.9812969401,-45304.2045994028,-11388.0516490120,-50178.8394683066,-55372.6938633603,-7843.4190490366,-37875.4363226983,-51970.8005148149,-22422.5343637429,-35965.5094554916,-9204.2542617145,-11382.3084961116,-1325.2203640771
11333381387,24379,-2,0,26220.1455483641,14417.9906733769,5971.4675636143,12194.7334452826,-45304.3506117646,-11387.8447981660,-50177.5983632307,-55371.1972366511,-7842.5551425622,-37872.8081001846,-51968.2696338758,-22420.2833398307,-35964.3048535061,-9201.9058962276,-11382.5518500480,-1327.3253756275
11333381387,24379,-2,0,26223.8566958951,14418.2461950102,5971.1755388906,12199.3693377721,-45305.7985676866,-11390.0106482005,-50177.0508168736,-55368.3986663818,-7844.8548372617,-37874.4142361652,-51968.8415156264,-22419.8453027451,-35966.0813372423,-9200.3971018216,-11381.3594157594,-1327.5687295639
11333381387,24379,-2,0,26221.7151812542,14418.7085674894,5970.5914894431,12198.3837543295,-45308.2929455353,-11391.6532872716,-50177.7322078957,-55366.6830211298,-7846.3636316678,-37876.6530923806,-51969.6324159199,-22421.2689232733,-35968.3931996386,-9199.9590647360,-11380.6415216468,-1324.1496067567
11333381387,24379,-2,0,26224.7327700663,14418.6842320958,5971.1147004064,12202.8736344571,-45309.1203489192,-11394.0016527584,-50179.0584868494,-55367.4739214233,-7846.9963519026,-37878.1983898771,-51972.5404954606,-22423.3739348237,-35968.5392120005,-9203.3903552400,-11381.8947944196,-1320.8886640081
11333381387,24379,-2,0,26227.2028125214,14416.5548851518,5970.4454770812,12204.2242488045,-45311.1888573791,-11395.7659687977,-50181.6380385759,-55370.6375225973,-7848.7363325483,-37880.9361216623,-51974.9496994315,-22426.5132006040,-35970.8632420937,-9205.1911743698,-11383.5130980970,-1320.6574777685
11333381387,24379,-2,0,26222.8711124524,14418.6720643990,5969.1191981275,12197.3616677963,-45309.6313921858,-11397.4816140498,-50181.9422309965,-55370.8565411401,-7851.7782567540,-37883.7468596284,-51975.7040966346,-22427.3284362912,-35971.7636516586,-9208.4886202089,-11387.1269040534,-1319.6718943258
11333381387,24379,-2,0,26222.2870630049,14420.0348464431,5968.5594840736,12194.8186191603,-45312.7706579661,-11397.8223095608,-50184.4731119356,-55374.6041917615,-7852.0337783873,-37883.9050396871,-51975.6432581505,-22426.2455112739,-35969.3422799908,-9209.6810544975,-11387.2729164153,-1322.0445952063
11333381387,24379,-2,0,26226.0103782327,14420.8865852208,5966.4666402201,12197.5198478550,-45313.3425397168,-11396.7393845436,-50185.8967324639,-55374.8718810916,-7850.9873564605,-37881.3254879606,-51976.4463261408,-22425.9048157629,-35973.5401353947,-9209.9730792213,-11386.2508298822,-1325.7557427373
11333417604,24380,-2,0,26224.5015838267,14422.5657273823,5970.9808557414,12196.6437736838,-45311.5417205870,-11395.3644348026,-50184.9598198085,-55375.4194274487,-7849.2717112085,-37880.0478797942,-51976.4949969281,-22425.9413188534,-35972.6518935267,-9211.7130598669,-11385.9953082489,-1330.6836599506
11333417604,24380,-2,0,26223.8931989855,14422.8334167124,5970.8956818636,12195.8528733903,-45311.0671804109,-11396.5690367881,-50186.7119681511,-55376.5266878596,-7849.9531022306,-37881.3619910511,-51976.8356924391,-22426.9269022960,-35973.6618123630,-9211.6035505955,-11384.6568615984,-1331.6327403028
11333417604,24380,-2,0,26227.9937128149,14422.8090813188,5970.8470110763,12196.3882520505,-45311.1158511982,-11396.5568690912,-50187.0891667526,-55374.5555209742,-7850.3789716194,-37880.8631154814,-51976.4219907471,-22428.4235290052,-35973.7348185439,-9208.6833033580,-11382.6613593194,-1330.1361135936
11333417604,24380,-2,0,26228.1397251767,14426.1186948546,5974.0957861281,12196.1935689013,-45306.4677910118,-11392.7605476825,-50182.6966281995,-55370.6861933846,-7846.8138364502,-37875.7770182094,-51971.6400858957,-22424.5785368092,-35968.8677398147,-9203.6215414797,-11376.5166724238,-1324.8188300819
11333417604,24380,-2,0,26233.7368657153,14429.0267743953,5978.8290201922,12198.0065557279,-45301.9170724001,-11387.0904009630,-50176.2112457929,-55365.4540837507,-7840.6934849483,-37871.0802872357,-51966.9068518316,-22418.8718869992,-35965.2417661615,-9201.6260392007,-11372.5986740469,-1323.7967435488
11333417604,24380,-2,0,26238.8959691682,14430.1462025030,5981.9074474884,12203.7497086284,-45294.9449821205,-11385.6424450410,-50171.1008131272,-55359.8812786058,-7838.8561627280,-37870.0703683994,-51965.1668711859,-22417.4117633805,-35960.2651781609,-9201.7355484721,-11369.5932529316,-1323.1883587077
11333417604,24380,-2,0,26233.6760272312,14426.4107195784,5978.7803494049,12198.0430588184,-45302.9999974173,-11386.7253700583,-50176.8317983308,-55364.6996865477,-7841.0585158530,-37872.4309015831,-51966.8338456506,-22418.5798622755,-35964.5482074426,-9200.9324804818,-11371.2237243059,-1321.6673966048
11333417604,24380,-2,0,26230.0257181843,14426.4837257593,5977.1498780306,12194.2345697128,-45306.3461140436,-11389.9011389291,-50179.3383438763,-55368.3864986850,-7845.1346942887,-37876.1907199014,-51970.7883471181,-22422.0598235668,-35967.5657962547,-9201.7842192594,-11374.6793502036,-1322.8598308934
11333445403,24381,-2,0,26231.6318541649,14424.6342358422,5974.5824940010,12195.2931593364,-45308.0982623861,-11391.4829395161,-50181.0661568252,-55370.7226964750,-7846.3271285773,-37877.7725204883,-51974.1953022285,-22424.6150398997,-35967.8699886753,-9203.5241999051,-11377.7577774998,-1326.1937798229
11333445403,24381,-2,0,26230.1108920621,14426.3133780038,5974.8380156343,12197.5928540360,-45308.9013303764,-11391.6411195748,-50182.8061374709,-55370.6253549004,-7845.7430791298,-37878.0402098184,-51973.8424390207,-22424.8705615329,-35966.9087406262,-9204.4002740764,-11379.6559382042,-1326.8386677545
11333445403,24381,-2,0,26227.8233650593,14425.0601052310,5975.5072389595,12197.0453076789,-45303.5353760775,-11391.6532872716,-50182.1247464488,-55370.9538827147,-7844.9400111395,-37879.1474702293,-51973.5139112064,-22426.4401944231,-35966.9695791104,-9208.1357570010,-11379.9114598374,-1327.8729219845
11333445403,24381,-2,0,26229.1374763162,14423.0402675584,5972.6478302061,12199.6005240118,-45309.1690197065,-11392.8822246507,-50185.5317015592,-55371.5135967685,-7847.3127120200,-37878.5877561755,-51974.7915193728,-22428.0706657974,-35969.5978016241,-9209.9974146149,-11384.2431599064,-1328.2257851923
11333445403,24381,-2,0,26225.8278627804,14423.8190001551,5974.9353572088,12201.7785417431,-45308.5241317749,-11392.6145353206,-50185.0814967768,-55370.8322057464,-7845.9255945822,-37877.1032971631,-51972.0902906782,-22425.9778219438,-35970.6563912477,-9208.2209308788,-11385.7276189188,-1328.1406113146
11333445403,24381,-2,0,26224.3920745553,14425.1087760183,5976.5414931895,12201.4865170193,-45303.1338420823,-11387.0904009630,-50180.5186104682,-55367.8997908121,-7841.4600498481,-37873.6963420527,-51969.0605341692,-22421.3784325448,-35965.8014802153,-9204.6192926192,-11382.2963284147,-1325.9504258865
11333445403,24381,-2,0,26230.1960659398,14426.7757504831,5979.0967095223,12208.2760918465,-45301.0653336224,-11384.0241413636,-50177.7443755925,-55365.0038789682,-7838.1504363123,-37869.0361141695,-51967.0771995871,-22417.5212726519,-35960.5572028847,-9200.2754248534,-11377.4779204729,-1325.2081963803
11333445403,24381,-2,0,26231.6075187713,14427.3841353242,5978.4274861970,12211.3180160522,-45300.9193212606,-11382.8317070749,-50177.6713694116,-55364.6388480636,-7837.3717037156,-37868.8292633235,-51967.1623734649,-22417.4726018646,-35959.7054641071,-9195.0433152195,-11374.2534808148,-1325.1473578961
11333475321,24382,-2,0,26228.8819546829,14426.2160364292,5978.9385294636,12207.3513468880,-45300.9071535637,-11383.9998059700,-50178.1459095877,-55364.5536741858,-7839.5253860533,-37871.2871380817,-51968.6103293868,-22419.7114580800,-35963.0394130365,-9196.0410663590,-11374.6550148099,-1326.2059475197
11333475321,24382,-2,0,26232.5444314266,14426.9704336322,5979.6929266666,12208.0814086973,-45301.2113459843,-11385.1679048650,-50178.6447851574,-55365.5514253253,-7840.0485970167,-37870.8247656024,-51969.3403911962,-22420.3441783148,-35963.1489223079,-9198.3772641490,-11372.8906987706,-1329.2478717255
11333475321,24382,-2,0,26234.7224491580,14427.8708431971,5980.4351561728,12208.2882595433,-45299.7877254560,-11384.4256753588,-50177.1116553578,-55364.4685003080,-7838.9048335153,-37869.7418405852,-51966.8460133475,-22418.2635021581,-35962.7595560096,-9198.3894318458,-11372.2701462326,-1329.9779335349
11333475321,24382,-2,0,26233.5543502630,14428.0898617399,5982.4184907550,12204.5649443155,-45300.2135948448,-11384.2066568159,-50175.6393640422,-55364.6023449731,-7838.9413366058,-37871.3114734754,-51966.9433549220,-22419.3464271753,-35962.3336866208,-9198.0000655475,-11371.8199414502,-1327.8850896813
11333475321,24382,-2,0,26235.1118154563,14426.4107195784,5980.8853609553,12202.6424482175,-45299.8972347274,-11382.6370239258,-50177.0629845705,-55365.0038789682,-7837.3960391093,-37870.7517594215,-51967.0163611030,-22420.1616628625,-35959.9244826499,-9196.8076312588,-11369.7027622030,-1326.1694444293
11333475321,24382,-2,0,26236.8517961020,14425.3399622580,5980.4594915665,12201.0241445400,-45295.5411992648,-11381.4324219403,-50176.3085873674,-55365.0525497555,-7836.9823374173,-37868.9631079885,-51967.4300627950,-22419.6749549895,-35958.5373652121,-9197.0509851953,-11369.1065450587,-1320.5966392844
11333475321,24382,-2,0,26230.6219353286,14424.0380186979,5978.9506971604,12193.1759800892,-45299.4470299450,-11381.9191298132,-50179.7885486588,-55367.6442691788,-7838.4911318234,-37869.9000206439,-51969.0848695629,-22422.7412145889,-35959.0605761754,-9198.7057919632,-11372.3188170199,-1318.9540002133
11333475321,24382,-2,0,26226.3997445311,14416.6035559391,5974.1931277026,12187.2016409492,-45303.9855808599,-11384.5960231143,-50183.8282240040,-55370.7348641718,-7840.5718079801,-37873.1366279988,-51973.6599235683,-22426.9147345992,-35960.1313334959,-9202.9766535481,-11376.1516415192,-1321.3997072747
11333506253,24383,-2,0,26224.6354284917,14413.5616317333,5970.4941478685,12185.9483681764,-45306.7598157356,-11389.8037973545,-50186.5659557892,-55371.8786276732,-7845.2685389537,-37875.7648505126,-51975.7771028155,-22428.8128953036,-35966.3611942692,-9203.5972060860,-11379.1205595440,-1323.6020603996
11333506253,24383,-2,0,26221.5326658019,14413.9753334253,5970.0561107828,12182.3954007041,-45307.7453991782,-11391.1909147923,-50186.5781234860,-55370.6983610814,-7845.7917499171,-37877.4683280678,-51974.7550162824,-22428.7520568195,-35967.6266347388,-9200.6891265454,-11378.5730131869,-1323.9549236075
11333506253,24383,-2,0,26225.4263287852,14418.2583627070,5972.9520226267,12185.1696355797,-45304.3749471583,-11387.8691335596,-50184.0594102437,-55368.3864986850,-7842.6768195304,-37874.0857083510,-51971.5670797148,-22424.7488845647,-35964.4995366553,-9198.6327857823,-11375.1052195924,-1323.5412219155
11333506253,24383,-2,0,26228.4682529910,14421.7869947857,5975.1908788421,12187.3841564015,-45301.1505075002,-11383.8537936081,-50182.1734172361,-55365.7947792617,-7839.3550382978,-37870.7639271183,-51969.9731114310,-22422.6317053175,-35960.2895135546,-9194.1185702610,-11369.7270975966,-1322.1784398713
11333506253,24383,-2,0,26226.7039369516,14420.9595914017,5975.8114313801,12180.5580784838,-45293.9472309810,-11382.1746514465,-50176.3085873674,-55360.9033651389,-7836.4712941507,-37867.8680152745,-51968.6346647804,-22421.5001095130,-35958.3791851534,-9191.9648879233,-11365.2737205594,-1318.9418325164
11333506253,24383,-2,0,26229.1496440130,14422.9915967711,5978.9141940699,12179.5116565571,-45296.5997888884,-11379.5099258423,-50177.9512264385,-55361.4874145864,-7835.1571828939,-37865.8846806923,-51966.0551130540,-22419.9548120165,-35957.7951357059,-9191.5146831409,-11364.2516340263,-1318.3577830689
11333506253,24383,-2,0,26234.5155983120,14422.6143981696,5980.5324977474,12181.9573636185,-45294.6164543063,-11376.6870201794,-50174.2400789075,-55357.4112361507,-7831.2391845169,-37862.2830424327,-51964.0717784718,-22418.1418251899,-35951.1272378469,-9188.7039451748,-11362.3169702315,-1316.7273116947
11333506253,24383,-2,0,26232.6661083949,14422.2128641745,5984.5843407894,12181.3003079900,-45291.2094991959,-11373.7302698514,-50172.2202412349,-55355.5009077495,-7829.7668932013,-37859.6304845253,-51961.5774006231,-22415.6961181284,-35952.4291814069,-9187.5966847639,-11361.2705483047,-1313.0283318605
11333539066,24384,-2,0,26232.4470898521,14422.1033549030,5985.1683902369,12179.6455012221,-45290.7471267166,-11372.8663633770,-50171.5996886970,-55355.5495785368,-7829.0124959983,-37858.8274165350,-51961.6017360168,-22415.5501057666,-35949.9713066487,-9186.9882999227,-11363.4120629455,-1315.5592127997
11333539066,24384,-2,0,26231.9117111919,14419.3047846338,5981.0070379235,12181.9330282248,-45293.4970261986,-11374.4481639639,-50173.4126755236,-55355.7199262923,-7831.0445013677,-37859.9711800364,-51962.6968287308,-22417.6429496201,-35951.2002440278,-9187.5845170670,-11365.4562360118,-1319.5137142671
11333539066,24384,-2,0,26226.7891108294,14418.5260520371,5976.8213502164,12180.4607369093,-45295.7237147172,-11376.8817033285,-50175.1161530788,-55357.0462052460,-7833.7213946688,-37863.3172966627,-51964.7653371907,-22418.5676945787,-35953.6946218765,-9191.6850308964,-11369.4959113570,-1325.4758857104
11333539066,24384,-2,0,26222.6520939096,14415.3746185600,5974.0714507344,12181.4463203519,-45296.1860871964,-11377.2467342332,-50176.2477488833,-55356.8028513096,-7833.8917424243,-37863.4876444182,-51966.1646223254,-22419.5167749308,-35955.4954410063,-9192.1960741629,-11372.4283262913,-1328.9558470017
11333539066,24384,-2,0,26228.6872715338,14418.8059090640,5977.2715549989,12191.8740365292,-45294.1905849175,-11374.7888594750,-50175.2378300470,-55354.4666535196,-7830.5334581011,-37860.8959249949,-51964.2786293178,-22419.4437687499,-35953.5121064242,-9191.7823724710,-11369.6662591125,-1327.3010402338
11333539066,24384,-2,0,26229.6241841891,14422.6874043505,5981.0678764076,12198.6514436596,-45290.9539775626,-11372.6960156214,-50172.1472350540,-55352.8118467516,-7829.2923530252,-37859.1194412588,-51962.1979531611,-22418.4703530041,-35951.6139457198,-9188.6796097811,-11365.8212669165,-1325.1595255930
11333539066,24384,-2,0,26229.2956563749,14425.3156268643,5983.6960989214,12200.4035920021,-45291.2216668927,-11374.2778162084,-50170.2125712591,-55349.9159349078,-7830.6307996757,-37859.9468446427,-51961.3583820803,-22415.8421304903,-35951.9424735340,-9188.1077280304,-11365.0181989262,-1325.6340657691
11333539066,24384,-2,0,26232.5931022139,14422.9307582870,5982.4549938454,12205.2585030344,-45296.4781119202,-11378.4878393092,-50168.8132861245,-55349.4657301253,-7834.6218042337,-37863.2564581786,-51960.5188109995,-22413.8344605145,-35955.0939070112,-9189.8720440698,-11366.6486703004,-1327.4227172020
11333566571,24385,-2,0,26230.3542459985,14421.2759515191,5979.5834173952,12204.9299752202,-45300.3474395099,-11382.6735270162,-50170.2612420464,-55351.8992694899,-7837.2256913538,-37865.9455191764,-51961.7720837723,-22414.9660563191,-35959.1579177500,-9195.8098801194,-11371.2723950932,-1326.7291584831
11333566571,24385,-2,0,26229.0036316512,14422.6387335633,5980.8366901680,12204.5162735282,-45299.5930423069,-11381.6879435736,-50171.0278069463,-55353.0308652945,-7836.5443003317,-37866.1280346288,-51962.3561332198,-22415.8542981871,-35961.1169169385,-9201.1028282373,-11372.6716802278,-1325.3055379548
11333566571,24385,-2,0,26231.3641648348,14421.2881192159,5980.7271808966,12206.9984836801,-45299.5078684291,-11382.0773098719,-50171.4171732446,-55352.8118467516,-7836.3982879698,-37866.9189349223,-51962.7941703054,-22417.4117633805,-35963.7086363618,-9203.3051813623,-11370.7248487361,-1328.0189343464
11333566571,24385,-2,0,26229.3199917686,14421.3002869127,5980.6420070188,12205.8060493915,-45300.0189116957,-11383.9146320922,-50171.8187072398,-55352.5319897247,-7838.0895978282,-37867.9896922427,-51964.1204492591,-22419.2612532976,-35965.5824616725,-9201.8693931372,-11368.4738248239,-1328.5178099161
11333566571,24385,-2,0,26224.8422793377,14419.3777908147,5976.5171577958,12200.8781321782,-45301.3208552557,-11384.6690292952,-50173.4735140077,-55354.2232995831,-7839.9999262294,-37870.3258900327,-51965.1303680954,-22419.7479611705,-35965.1322568901,-9198.2190840903,-11369.3377312983,-1325.8530843119
11333566571,24385,-2,0,26226.7769431326,14416.0195064916,5974.9110218152,12201.9975602859,-45302.8053142681,-11386.5185192123,-50175.0309792010,-55355.8051001701,-7840.5231371928,-37871.6521689864,-51967.1623734649,-22420.3076752243,-35964.8037290759,-9194.9338059481,-11369.6662591125,-1323.0910171331
11333566571,24385,-2,0,26225.4384964820,14417.8568287118,5975.4585681722,12203.4698516014,-45303.6813884394,-11385.7397866156,-50176.1139042183,-55356.0241187129,-7840.3649571341,-37870.3258900327,-51968.2209630885,-22421.5852833907,-35965.1200891933,-9194.6782843148,-11371.5157490296,-1323.6628988837
11333566571,24385,-2,0,26220.1698837577,14417.0537607215,5972.8911841426,12196.6194382901,-45303.9369100727,-11386.0926498235,-50177.7565432894,-55358.2751426251,-7841.3383728799,-37871.4331504436,-51968.0749507266,-22422.1936682319,-35963.5626239999,-9195.8585509066,-11373.0853819198,-1324.8431654756
11333602754,24386,-2,0,26223.3821557190,14418.5868905212,5973.8524321916,12198.6879467500,-45303.7057238330,-11384.7420354762,-50175.9435564627,-55357.0948760333,-7840.0729324103,-37868.8170956267,-51967.7585906092,-22422.7655499826,-35961.0804138480,-9195.2988368528,-11371.2967304868,-1323.4317126441
11333602754,24386,-2,0,26227.8598681498,14419.3169523306,5975.5437420500,12200.1359026720,-45299.3983591577,-11381.3594157594,-50174.4104266631,-55355.3792307813,-7837.2256913538,-37865.7873391177,-51965.5440697874,-22420.6362030386,-35957.5031109821,-9193.2424960897,-11367.6950922272,-1319.9030805655
11333602754,24386,-2,0,26229.3321594654,14420.7527405557,5979.1332126128,12198.0795619089,-45296.8796459154,-11377.4779204729,-50172.1472350540,-55353.5905793483,-7833.9525809084,-37863.2564581786,-51963.4390582370,-22418.5433591850,-35958.1236635201,-9193.6683654785,-11368.5833340953,-1316.7759824820
11333602754,24386,-2,0,26232.6661083949,14419.7671571130,5981.0192056203,12199.3206669848,-45295.3830192061,-11376.4680016366,-50170.6262729511,-55351.1692076806,-7832.0787555977,-37863.0617750294,-51962.8671764864,-22418.3608437327,-35959.1822531437,-9196.2844202954,-11369.3498989951,-1319.0756771815
11333602754,24386,-2,0,26232.5931022139,14419.6819832353,5979.6199204857,12197.3129970090,-45297.2690122137,-11378.4635039155,-50170.1760681687,-55348.6504944382,-7834.1715994512,-37864.0716938657,-51962.1979531611,-22416.9493909012,-35961.5671217210,-9200.9811512691,-11371.4305751519,-1324.1009359694
11333602754,24386,-2,0,26229.2591532845,14422.4197150204,5982.3576522708,12192.7136076100,-45299.7025515783,-11381.7122789672,-50170.4437574988,-55350.2201273284,-7837.2865298379,-37866.5660717144,-51963.2930458752,-22416.8033785393,-35963.3436054571,-9201.6625422912,-11375.5310889812,-1325.8044135246
11333602754,24386,-2,0,26229.2469855876,14422.3467088395,5978.8533555858,12188.8321123234,-45302.5376249380,-11385.0097248063,-50170.3950867115,-55351.5342385852,-7840.4136279214,-37869.7053374947,-51965.4467282128,-22418.8232162119,-35960.1556688895,-9201.9910701054,-11377.1250572650,-1328.4448037352
11333602754,24386,-2,0,26234.0653935295,14421.5679762428,5976.7970148228,12190.9979623579,-45304.7278103661,-11386.9078855106,-50173.0233092252,-55354.0407841308,-7841.3505405767,-37870.1798776708,-51968.5981616900,-22421.3054263638,-35967.0182498976,-9201.2975113865,-11378.0619699204,-1330.4403060141
11333671780,24387,-2,0,26230.7922830841,14424.3787142089,5978.9993679477,12188.1020505141,-45303.4745375934,-11386.7618731488,-50173.1571538903,-55352.3129711819,-7840.8394973102,-37870.3623931232,-51967.4057274013,-22420.7092092195,-35968.0403364308,-9199.1316613520,-11377.4657527760,-1331.5475664250
11333671780,24387,-2,0,26231.6805249522,14425.7293285563,5981.8831120947,12192.0078811942,-45300.0554147861,-11383.1724025860,-50169.0079692737,-55348.9425191620,-7837.1770205665,-37866.2375439002,-51964.5463186479,-22417.2657510186,-35964.5725428362,-9197.4890222809,-11375.7379398272,-1329.5885672365
11333671780,24387,-2,0,26235.9270511434,14427.4814768988,5983.8177758896,12197.8240402756,-45297.0499936709,-11379.7776151724,-50168.1562304961,-55347.9691034161,-7834.2081025417,-37863.2199550881,-51961.7964191659,-22417.4239310773,-35961.2750969972,-9195.7855447257,-11371.5279167264,-1326.0842705515
11333671780,24387,-2,0,26230.6462707223,14426.7879181799,5981.6397581583,12193.1638123924,-45296.7092981598,-11379.2300688154,-50166.7082745741,-55348.6504944382,-7833.6362207910,-37862.5872348533,-51962.6603256404,-22416.9980616885,-35958.9632346009,-9195.1771598846,-11369.8122714744,-1319.6597266290
11333671780,24387,-2,0,26229.4903395241,14424.6464035390,5981.3112303441,12191.9105396197,-45297.0621613677,-11380.2034845612,-50169.8597080513,-55348.9911899492,-7834.2689410258,-37862.7940856993,-51963.6215736894,-22419.6871226864,-35957.2840924393,-9193.7657070531,-11368.1696324033,-1314.5614616602
11333671780,24387,-2,0,26232.4227544584,14421.8234978761,5979.7781005444,12195.9015441776,-45297.7192169961,-11380.8118694023,-50170.6141052543,-55348.6748298318,-7834.0985932703,-37862.3803840073,-51963.8892630195,-22421.1837493956,-35958.6590421803,-9190.8089567251,-11366.1862978212,-1314.8291509903
11333671780,24387,-2,0,26230.7192769032,14421.2394484286,5980.8488578648,12194.5752652239,-45297.7800554802,-11380.0209691088,-50169.2634909070,-55348.2367927462,-7833.5145438228,-37862.0031854058,-51962.8428410927,-22418.4946883977,-35958.7320483612,-9190.8576275124,-11368.5468310048,-1317.7007274405
11333671780,24387,-2,0,26232.3010774902,14425.0966083215,5983.9516205546,12195.1349792777,-45292.0490702766,-11380.3129938326,-50164.9439585348,-55343.7347449217,-7834.4879595686,-37861.9910177090,-51962.9888534546,-22417.4360987741,-35956.3593474807,-9192.1960741629,-11370.0069546236,-1320.9616701891
11333682922,24388,-2,0,26234.1505674073,14422.1276902967,5979.5347466079,12196.8992953171,-45301.4790353144,-11383.5009304002,-50170.1273973814,-55344.5864836993,-7837.3960391093,-37864.7165817973,-51964.6923310098,-22418.4825207009,-35963.2462638825,-9196.9293082271,-11371.6130906042,-1322.9693401648
11333682922,24388,-2,0,26230.3055752112,14422.2250318713,5978.5248277716,12193.6505202653,-45302.5862957253,-11384.2309922096,-50171.7457010588,-55351.7654248249,-7839.4037090851,-37867.0284441937,-51965.0451942177,-22420.5266937671,-35965.0105799219,-9198.0244009411,-11374.0344622720,-1323.1031848299
11333682922,24388,-2,0,26226.3997445311,14422.1155225999,5978.7316786176,12192.9204584560,-45302.3794448793,-11384.7298677793,-50172.1594027508,-55352.9578591135,-7838.4424610361,-37868.0018599395,-51965.6170759683,-22421.4027679384,-35965.5094554916,-9196.4912711414,-11375.7622752208,-1323.9792590011
11333682922,24388,-2,0,26228.0180482085,14418.1245180419,5979.1088772191,12197.8362079724,-45302.8904881459,-11385.4477618919,-50172.5852721396,-55353.8582686784,-7839.4158767819,-37868.2208784823,-51967.0163611030,-22423.5199471856,-35966.2516849978,-9195.7855447257,-11375.9934614605,-1325.9869289769
11333682922,24388,-2,0,26223.3334849317,14419.0735983941,5979.7781005444,12198.4932636009,-45302.7566434808,-11385.4720972855,-50173.4491786140,-55352.8118467516,-7838.0165916473,-37868.6954186584,-51966.7121686824,-22423.6051210634,-35964.9132383473,-9194.1307379578,-11374.6063440226,-1327.8242511972
11333682922,24388,-2,0,26224.0270436506,14423.1011060425,5982.1994722121,12199.9168841292,-45299.9702409084,-11382.6126885321,-50169.8718757481,-55350.0497795728,-7835.3518660430,-37866.0793638415,-51965.5805728779,-22420.4293521926,-35960.6302090656,-9191.4051738694,-11372.0146245994,-1328.6029837939
11333682922,24388,-2,0,26231.8022019204,14430.1340348062,5985.8862843495,12208.8479735972,-45295.6872116267,-11377.7942805903,-50169.4338386625,-55345.8275887753,-7831.2878553042,-37862.8184210929,-51963.4268905402,-22417.5334403487,-35956.4810244490,-9189.6530255269,-11369.8001037776,-1327.4835556861
11333682922,24388,-2,0,26231.4980094999,14430.5720718918,5986.3851599192,12212.9363197297,-45294.0324048588,-11374.7888594750,-50167.2801563248,-55342.7978322664,-7829.7790608981,-37861.1027758409,-51960.0929416107,-22415.2337456492,-35954.4733544732,-9187.9982187590,-11370.0799608045,-1323.7845758520
11333700215,24389,-2,0,26224.5380869171,14425.8753409182,5984.9858747846,12211.7682208347,-45291.8057163402,-11372.6595125310,-50163.6055118843,-55341.2038639826,-7827.1143352939,-37859.4723044666,-51958.1704455127,-22412.3743368958,-35952.2953367419,-9186.4650889593,-11370.1894700759,-1319.4772111767
11333700215,24389,-2,0,26223.1874725698,14418.3557042816,5983.5135834690,12213.0944997884,-45293.3388461399,-11374.5090024481,-50165.4671694982,-55342.1894474252,-7829.5235392648,-37860.3605463347,-51960.2754570631,-22414.8443793508,-35955.5441117936,-9187.9495479717,-11370.6396748584,-1319.9395836559
11333700215,24389,-2,0,26224.8666147314,14414.3038612395,5979.4374050333,12206.7307943500,-45301.7710600382,-11382.0529744783,-50175.8218794945,-55354.0894549181,-7838.9413366058,-37870.8004302088,-51972.5769985511,-22426.5375359977,-35961.7618048701,-9195.9315570876,-11377.7699451966,-1326.8386677545
11333700215,24389,-2,0,26227.7746942721,14415.8126556456,5978.6586724367,12198.5662697818,-45307.5750514227,-11387.4432641708,-50185.8723970703,-55363.8601154669,-7844.4168001761,-37877.2493095250,-51980.5468399701,-22436.1256810942,-35966.8235667485,-9204.5341187414,-11382.7465331972,-1332.6426591391
11333700215,24389,-2,0,26235.4890140578,14418.2948657975,5977.7704305686,12196.3152458696,-45309.2906966747,-11387.2242456280,-50190.2771033202,-55365.1133882396,-7843.7719122445,-37876.8721109234,-51983.7834473250,-22438.7782390016,-35964.4873689585,-9208.4277817247,-11381.7609497545,-1331.2555417013
11333700215,24389,-2,0,26233.7490334121,14417.1267669025,5974.5094878200,12193.3463278448,-45307.9035792369,-11387.1755748407,-50190.4717864693,-55365.4297483570,-7844.3681293888,-37876.8112724393,-51982.5910130364,-22437.4519600479,-35964.8523998632,-9205.0938327953,-11377.0642187809,-1330.6593245569
11333700215,24389,-2,0,26228.2614021450,14414.7905691125,5975.1178726612,12187.0069578000,-45308.5606348654,-11388.1246551929,-50188.4519487967,-55363.8722831637,-7843.7232414572,-37876.4949123219,-51979.6585981020,-22434.9575821992,-35964.6577167140,-9198.9613135965,-11375.3850766193,-1329.1140270604
11333700215,24389,-2,0,26226.6430984675,14413.7319794889,5973.2197119568,12186.0457097510,-45303.6570530457,-11389.0980709388,-50183.1103298915,-55358.5671673489,-7845.4632221029,-37877.3588187964,-51978.2228098769,-22431.5992978760,-35964.4630335648,-9195.7733770289,-11375.3972443161,-1329.6372380238
11333724194,24390,-2,0,26224.3555714648,14412.1623465987,5970.7009987145,12185.2669771543,-45310.3371186015,-11391.0814055209,-50186.1279187035,-55359.7717693344,-7846.9476811153,-37877.4804957646,-51977.8942820627,-22430.7475590984,-35969.6951431987,-9196.5156065351,-11376.0542999446,-1324.7944946883
11333724194,24390,-2,0,26218.9287786818,14410.5075398308,5969.1070304307,12179.6089981317,-45309.4488767334,-11390.5095237702,-50180.2995919254,-55355.7320939892,-7845.8404207044,-37876.8477755298,-51975.4850780918,-22427.9368211323,-35967.0060822008,-9197.7688793078,-11375.7866106145,-1320.8521609176
11333724194,24390,-2,0,26220.6809270243,14411.1037569751,5972.0151099713,12181.9573636185,-45298.9846574657,-11387.9786428311,-50179.1801638176,-55353.0552006881,-7843.1391920097,-37873.4408204194,-51973.1245449081,-22425.5884556455,-35962.2606804399,-9198.2434194839,-11374.5090024481,-1318.5037954308
11333724194,24390,-2,0,26221.2284733813,14410.5318752244,5973.0006934140,12183.4418226309,-45307.3803682735,-11386.6645315742,-50181.7718832409,-55354.6613366687,-7841.3262051831,-37870.7030886342,-51971.5549120179,-22423.9823196649,-35962.0294942002,-9197.2821714349,-11373.5234190054,-1318.0414229515
11333724194,24390,-2,0,26216.5074070140,14410.2155151070,5973.2197119568,12176.8469309529,-45305.7863999897,-11385.2044079554,-50182.5506158376,-55354.2598026736,-7842.1536085671,-37872.6134170354,-51973.2948926636,-22423.5077794888,-35961.4089416623,-9198.4624380268,-11375.6649336462,-1321.3023657001
11333724194,24390,-2,0,26215.1811280603,14407.0519139331,5970.0926138733,12173.2331249964,-45307.4898775450,-11386.4698484250,-50184.7164658721,-55354.8681875147,-7843.1026889192,-37873.3678142384,-51974.2926438031,-22425.0530769853,-35961.9199849288,-9198.2434194839,-11376.0421322477,-1321.6795643016
11333724194,24390,-2,0,26216.7020901632,14401.3209287295,5966.8925096089,12172.8315910013,-45309.3515351589,-11386.7862085424,-50185.2153414418,-55355.9146094415,-7843.5042229144,-37873.7450128399,-51974.9010286442,-22426.0508281248,-35961.3237677845,-9198.5597796013,-11375.4702504971,-1322.9693401648
11333724194,24390,-2,0,26214.7552586715,14402.4768599276,5966.9898511835,12169.8018344924,-45308.4876286844,-11386.2386621854,-50187.1621729335,-55357.4720746348,-7843.2243658875,-37874.8887763413,-51975.8744443901,-22427.5474548340,-35959.1944208405,-9196.5156065351,-11373.4139097340,-1322.9328370744
11333752666,24391,-2,0,26214.8526002461,14400.1649975313,5966.3936340391,12168.6337355974,-45309.3028643716,-11385.0583955935,-50186.3834403368,-55358.3846518966,-7843.6137321858,-37874.1222114415,-51975.3390657299,-22430.2730189223,-35958.1723343074,-9194.3375888038,-11372.0754630835,-1325.6584011627
11333752666,24391,-2,0,26218.7584309263,14401.4669410913,5965.6879076234,12173.3669696615,-45309.9477523032,-11387.4675995645,-50185.0449936863,-55356.1701310748,-7843.4677198239,-37874.5480808303,-51974.8036870697,-22428.2531812497,-35960.9709045766,-9195.9193893908,-11374.6550148099,-1334.2122920292
11333752666,24391,-2,0,26217.0427856742,14405.6404611016,5967.5739006310,12173.9388514122,-45307.1978528212,-11385.4355941951,-50181.4068523363,-55352.6536666930,-7842.5429748654,-37872.5160754608,-51970.1677945801,-22424.2500089950,-35961.3481031782,-9196.0045632685,-11378.8163671234,-1336.9256884208
11333752666,24391,-2,0,26219.5614989166,14409.9234903833,5970.4089739907,12176.1290368403,-45302.9634943268,-11381.3837511530,-50178.0485680131,-55350.4391458712,-7838.0530947377,-37868.4277293283,-51967.8924352742,-22422.1328297478,-35958.3548497597,-9194.6904520116,-11378.2444853727,-1333.4822302199
11333752666,24391,-2,0,26223.8688635919,14411.3471109116,5971.8690976095,12182.6387546406,-45294.2270880079,-11377.5995974411,-50172.8529614697,-55349.4657301253,-7834.0864255734,-37864.1203646530,-51966.4809824428,-22423.1062454936,-35953.1835786100,-9187.8887094876,-11372.6595125310,-1323.6263957933
11333752666,24391,-2,0,26218.0892076010,14410.7995645545,5972.3801408760,12181.5801650170,-45297.1960060327,-11374.7158532940,-50176.0774011278,-55350.3296365998,-7832.3829480182,-37863.2077873913,-51966.0064422667,-22420.8552215814,-35948.5963569077,-9180.1013835209,-11364.8478511706,-1313.8070644572
11333752666,24391,-2,0,26219.3911511610,14411.4809555766,5974.3513077613,12183.1132948167,-45294.8598082427,-11374.9470395337,-50173.4856817045,-55348.1881219589,-7831.6650539057,-37861.5408129265,-51964.3759708924,-22420.3563460116,-35948.4625122427,-9176.0738758725,-11360.2971325589,-1309.5848736596
11333752666,24391,-2,0,26219.8413559435,14408.5120375518,5970.9321849541,12185.3764864257,-45300.1527563607,-11377.0520510841,-50175.2986685311,-55350.5364874458,-7833.8187362433,-37862.8914272739,-51965.5319020906,-22421.7434634494,-35951.7721257785,-9174.8571061902,-11358.3503010672,-1310.4366124372
11333787709,24392,-2,0,26216.2883884712,14405.3606040747,5969.4112228512,12186.8366100445,-45301.4546999208,-11377.0277156904,-50177.0386491768,-55352.6171636025,-7834.6826427178,-37863.8526753229,-51967.4665658854,-22423.0454070095,-35952.5508583752,-9176.7187638042,-11357.6810777419,-1313.9044060317
11333787709,24392,-2,0,26215.5583266618,14404.1925051797,5972.9885257172,12186.1308836288,-45299.3983591577,-11378.9015410011,-50175.8705502818,-55352.6049959057,-7834.6948104146,-37865.1302834893,-51966.1524546286,-22424.0066550585,-35952.8307154021,-9178.9454523228,-11359.4210583876,-1318.4186215531
11333787709,24392,-2,0,26219.9386975181,14402.7445492577,5973.9011029789,12190.6694345437,-45301.1626751970,-11378.8772056075,-50175.3473393184,-55350.5486551426,-7835.0476736225,-37864.8139233719,-51965.5684051811,-22422.6682084080,-35953.2809201845,-9180.3812405479,-11360.9785235809,-1320.2924468638
11333787709,24392,-2,0,26219.2208034055,14404.3141821479,5976.0669530134,12191.5090056245,-45300.2379302385,-11378.7190255488,-50174.0818988488,-55350.0619472697,-7835.2545244684,-37866.1036992351,-51964.9478526431,-22421.2324201829,-35953.3295909718,-9181.5250040492,-11363.6189137915,-1321.0225086732
11333787709,24392,-2,0,26220.0725421831,14406.4921998792,5977.4175673607,12189.4404971646,-45298.4614465023,-11377.0277156904,-50171.8673780271,-55348.7113329223,-7833.8674070306,-37864.9721034306,-51963.1957043006,-22419.5776134150,-35950.6770330644,-9182.8512830029,-11364.9938635325,-1319.6232235385
11333787709,24392,-2,0,26224.0027082569,14408.1835097376,5975.8844375610,12193.2124831797,-45298.7169681356,-11376.6991878762,-50172.9137999538,-55347.8595941447,-7832.8574881943,-37864.7287494941,-51964.5341509511,-22421.3419294543,-35950.7378715485,-9184.2505681376,-11366.6851733909,-1317.9075782865
11333787709,24392,-2,0,26222.4695784573,14406.3705229110,5974.3999785486,12194.2832405001,-45299.2888498863,-11377.0642187809,-50173.8507126092,-55347.7987556606,-7833.3198606736,-37865.4466436067,-51965.7874237239,-22420.4658552830,-35952.3561752260,-9185.0536361279,-11367.0623719924,-1316.9706656311
11333787709,24392,-2,0,26220.9242809607,14405.3727717715,5974.8745187247,12193.1516446956,-45299.7390546687,-11376.1881446096,-50172.7799552888,-55346.6063213719,-7832.2247679595,-37864.0716938657,-51964.4003062861,-22419.0178993611,-35952.1249889864,-9188.3145788764,-11369.7757683839,-1315.5592127997
11333815366,24393,-2,0,26222.2748953081,14408.0009942853,5975.8966052579,12196.7897860457,-45298.2545956563,-11375.4337474066,-50172.3784212936,-55345.7180795039,-7832.8088174070,-37863.2564581786,-51964.3881385892,-22419.1882471166,-35951.4801010547,-9188.7404482652,-11369.8609422617,-1316.9219948438
11333815366,24393,-2,0,26220.6687593275,14407.0640816299,5975.7992636833,12196.1083950236,-45297.5367015438,-11374.3629900862,-50170.9913038558,-55343.6130679535,-7831.9084078421,-37862.2343716454,-51962.4534747944,-22417.5942788328,-35949.7766234995,-9186.1608965388,-11370.4814947997,-1320.1099314114
11333815366,24393,-2,0,26217.6024997281,14408.2321805249,5976.7970148228,12192.7987814877,-45296.6119565852,-11373.1705557975,-50170.1030619877,-55343.3818817139,-7830.4117811329,-37862.7697503057,-51961.4070528676,-22417.9349743439,-35950.5553560962,-9186.5137597466,-11370.2746439537,-1321.5578873334
11333815366,24393,-2,0,26219.5006604325,14406.5043675760,5973.5725751647,12191.4725025340,-45299.5200361259,-11377.0642187809,-50172.8407937729,-55345.7180795039,-7833.9769163020,-37865.3127989416,-51964.5706540416,-22421.3784325448,-35953.9014727225,-9185.3699962453,-11370.8465257044,-1322.8598308934
11333815366,24393,-2,0,26219.6101697039,14405.5431195270,5971.5892405825,12189.5986772233,-45300.9801597447,-11380.0939752898,-50173.9115510933,-55344.7324960612,-7835.1571828939,-37868.1357046046,-51966.8095102570,-22423.4834440951,-35956.6148691140,-9184.3600774090,-11369.8366068680,-1322.8476631966
11333815366,24393,-2,0,26216.4100654394,14405.8108088571,5973.8159291011,12184.5612507386,-45301.2356813780,-11378.4148331282,-50175.5541901644,-55347.9569357193,-7833.8065685465,-37866.7485871668,-51967.0285287998,-22423.1792516745,-35954.4611867764,-9186.1243934483,-11369.8731099585,-1321.1685210350
11333815366,24393,-2,0,26218.5272446866,14407.6724664710,5973.9497737662,12185.3764864257,-45298.0477448103,-11376.0664676414,-50174.6051098122,-55347.3242154845,-7832.0422525072,-37864.5827371323,-51964.9721880367,-22420.5145260703,-35951.0055608786,-9184.7859467978,-11366.2593040021,-1318.8931617292
11333815366,24393,-2,0,26223.9783728633,14409.2420993612,5975.9209406515,12187.8221934871,-45296.1739194996,-11373.5599220959,-50172.2932474159,-55345.3652162960,-7829.9372409568,-37861.6746575916,-51963.9379338068,-22419.7357934737,-35947.5742703746,-9184.0072142011,-11366.5391610290,-1315.7660636457
11333848169,24394,-2,0,26218.8436048040,14408.9500746374,5973.9984445535,12183.3566487531,-45298.4614465023,-11375.1782257733,-50172.2080735381,-55346.8131722179,-7832.2612710500,-37863.3416320563,-51964.8748464621,-22420.3076752243,-35948.9978909029,-9186.1730642356,-11370.9682026726,-1316.3014423059
11333848169,24394,-2,0,26218.5515800803,14410.1181735324,5971.8690976095,12183.1741333008,-45301.4790353144,-11377.1493926586,-50173.8628803060,-55347.6770786924,-7834.2202702385,-37864.7652525846,-51967.0893672839,-22422.5465314398,-35952.3440075292,-9185.8932072087,-11374.9470395337,-1318.6011370054
11333848169,24394,-2,0,26217.6390028185,14409.8261488087,5970.4576447780,12186.1065482351,-45300.4082779940,-11378.8407025170,-50175.2621654407,-55348.6139913477,-7836.3009463952,-37868.4642324188,-51970.3746454261,-22426.3185174549,-35954.8018822874,-9188.5579328129,-11378.1471437981,-1321.8377443603
11333848169,24394,-2,0,26214.4997370382,14408.3295220995,5968.9245149783,12180.1565444887,-45301.5520414954,-11380.5320123754,-50176.8926368149,-55350.8285121695,-7837.5420514712,-37869.4984866487,-51971.3602288688,-22427.6569641054,-35955.8118011237,-9192.5124342803,-11379.7532797787,-1324.0279297884
11333848169,24394,-2,0,26219.3181449801,14411.2254339433,5971.5527374921,12183.7095119610,-45303.6448853489,-11380.7753663119,-50178.2554188591,-55353.0430329913,-7836.1792694270,-37869.8391821598,-51971.8347690449,-22427.2554301102,-35956.8460553537,-9194.3740918942,-11378.8041994266,-1323.7359050647
11333848169,24394,-2,0,26224.6354284917,14410.2763535911,5973.4143951060,12188.5522552965,-45303.9855808599,-11381.0917264293,-50178.2675865559,-55351.5464062821,-7836.5443003317,-37869.2551327123,-51971.5427443211,-22426.8173930246,-35957.2962601361,-9192.7071174295,-11376.4436662429,-1326.2789537007
11333848169,24394,-2,0,26222.8467770588,14409.6923041436,5975.2882204167,12186.6419268953,-45303.5962145616,-11380.8118694023,-50178.4744374019,-55351.6802509471,-7836.8849958427,-37869.7053374947,-51971.0073656609,-22427.8394795577,-35956.8582230505,-9190.2735780649,-11375.8231137049,-1325.5975626786
11333848169,24394,-2,0,26222.0680444621,14406.8937338744,5975.5680774436,12185.8631942987,-45305.3970336914,-11382.9898871336,-50178.2554188591,-55352.6171636025,-7837.8705792854,-37870.6422501501,-51972.1997999496,-22428.4965351862,-35959.2917624151,-9193.6318623880,-11376.5896786048,-1324.9770101406
11333879131,24395,-2,0,26222.1897214303,14407.2587647791,5974.9353572088,12187.5301687634,-45304.8981581217,-11383.8416259113,-50178.0729034068,-55351.7654248249,-7837.7002315299,-37869.9851945217,-51972.2606384337,-22429.3604416606,-35961.3481031782,-9195.7855447257,-11380.2764907421,-1328.0311020432
11333879131,24395,-2,0,26220.4132376942,14408.4146959772,5976.3224746467,12187.2381440396,-45302.7079726935,-11382.1381483560,-50175.7732087072,-55351.7654248249,-7838.1382686155,-37870.1190391867,-51971.1777134164,-22428.4843674894,-35961.3602708750,-9197.3795130095,-11380.3008261358,-1333.0806962247
11333879131,24395,-2,0,26221.2284733813,14408.5850437328,5976.9186917910,12186.4107406557,-45300.6516319305,-11379.7167766883,-50174.3009173917,-55349.9889410887,-7835.2423567716,-37867.1501211619,-51969.0727018661,-22426.4280267263,-35959.5229486547,-9197.3551776159,-11379.4612550550,-1337.5584086555
11333879131,24395,-2,0,26223.2361433571,14407.3317709600,5976.1399591943,12191.3386578690,-45298.1450863849,-11376.6018463016,-50172.8651291665,-55346.2899612546,-7832.0057494167,-37863.5728182960,-51966.5783240174,-22424.2256736013,-35956.3715151776,-9196.8076312588,-11377.1007218713,-1335.8305957067
11333879131,24395,-2,0,26217.3713134884,14406.7355538157,5975.3612265976,12188.2358951791,-45297.1838383359,-11376.0421322477,-50171.7700364525,-55346.0344396213,-7830.2049302869,-37863.1347812103,-51965.8604299048,-22423.6659595475,-35952.3683429228,-9193.4615146325,-11373.6085928832,-1329.0531885763
11333879131,24395,-2,0,26213.9156875907,14403.8274742750,5975.2152142358,12185.2183063670,-45297.3785214851,-11375.9569583700,-50172.3419182032,-55345.5720671420,-7832.0057494167,-37863.3659674500,-51967.0041934062,-22423.7876365157,-35951.1394055437,-9189.9207148570,-11371.3575689709,-1324.0522651821
11333879131,24395,-2,0,26215.4488173904,14401.6981273310,5973.1832088663,12188.8199446266,-45301.4668676176,-11378.0984730108,-50173.5100170982,-55346.0831104086,-7834.4757918718,-37866.0306930542,-51967.4909012791,-22423.8119719093,-35950.7743746390,-9187.7548648226,-11369.4594082665,-1323.5655573092
11333879131,24395,-2,0,26215.7286744173,14400.6395377074,5973.9984445535,12188.1628889982,-45302.9026558427,-11380.5928508595,-50173.5586878855,-55346.6184890688,-7835.2666921653,-37867.5881582475,-51967.1623734649,-22423.5077794888,-35954.6193668351,-9187.7548648226,-11371.4792459391,-1318.4551246435
11333909284,24396,-2,0,26217.0549533710,14401.7346304214,5976.7483440355,12189.4161617710,-45300.5664580527,-11378.2201499791,-50174.5442713281,-55346.6549921592,-7833.5997177005,-37867.2961335238,-51967.4787335823,-22423.4347733078,-35955.6049502777,-9193.9238871118,-11374.9592072305,-1318.7593170641
11333909284,24396,-2,0,26219.3546480706,14399.9946497758,5975.3125558104,12192.5797629449,-45301.3086875589,-11378.8772056075,-50175.2378300470,-55348.8208421937,-7833.8430716370,-37868.8049279298,-51968.7441740518,-22426.8782315087,-35955.1547454953,-9199.6548723154,-11377.5509266538,-1320.8643286145
11333909284,24396,-2,0,26216.5317424077,14397.7922966508,5973.6699167393,12190.1948943676,-45304.0707547377,-11381.6392727863,-50177.4036800815,-55352.1547911232,-7837.3108652315,-37871.2993057785,-51971.9199429226,-22429.9809941986,-35956.4688567522,-9199.3993506821,-11379.9601306247,-1323.0545140426
11333909284,24396,-2,0,26213.4411474146,14399.2645879664,5972.2219608173,12186.6419268953,-45306.0784247135,-11383.1724025860,-50177.4158477783,-55351.2178784678,-7838.9291689090,-37872.7837647909,-51972.8568555780,-22428.8493983940,-35959.2674270214,-9195.8098801194,-11380.5076769818,-1324.3564576027
11333909284,24396,-2,0,26217.9310275423,14401.7224627246,5972.0881161523,12190.0853850962,-45303.9734131631,-11383.7199489430,-50176.4302643357,-55348.8938483747,-7839.0265104836,-37872.1023737689,-51970.1556268833,-22426.7200514500,-35960.4233582196,-9191.0036398743,-11379.3274103899,-1322.2879491428
11333909284,24396,-2,0,26218.2717230533,14403.8153065782,5973.9741091598,12193.1516446956,-45304.4114502488,-11382.6978624099,-50174.1184019393,-55343.5643971662,-7837.7854054076,-37870.6422501501,-51967.7829260028,-22423.3617671269,-35959.2309239310,-9187.1343122846,-11376.6383493921,-1323.2613648886
11333909284,24396,-2,0,26212.2852162164,14402.6350399863,5971.7839237317,12187.1894732524,-45304.1802640091,-11383.9024643954,-50172.9746384379,-55343.4062171075,-7838.3816225519,-37870.6422501501,-51966.5539886237,-22422.7290468921,-35956.3958505712,-9187.9252125781,-11376.7721940571,-1322.8354954998
11333909284,24396,-2,0,26213.4776505051,14400.8098854629,5970.9078495605,12185.9362004796,-45305.2145182391,-11383.2819118574,-50172.1350673572,-55341.2890378603,-7837.9435854663,-37868.8535987171,-51966.5661563205,-22421.3784325448,-35959.6202902293,-9188.0225541527,-11374.3386546925,-1321.7038996953
11333943215,24397,-2,0,26211.7011667689,14400.1041590472,5969.4355582449,12185.4129895162,-45304.4357856424,-11382.1624837497,-50170.7357822225,-55339.5368895178,-7838.2234424932,-37868.0992015141,-51964.6193248289,-22420.1129920752,-35957.7221295249,-9188.9472991112,-11373.8519468196,-1320.9860055827
11333943215,24397,-2,0,26211.3969743484,14400.5300284360,5971.7960914285,12181.6653388947,-45301.3573583462,-11379.9479629279,-50170.4315898020,-55340.0722681780,-7836.1914371238,-37866.3348854748,-51962.3074624325,-22418.8840546960,-35956.9068938378,-9191.9283848328,-11373.5112513086,-1319.8544097782
11333943215,24397,-2,0,26214.8404325493,14400.9802332184,5972.1246192427,12186.4837468366,-45301.6858861604,-11379.3760811772,-50170.4072544083,-55339.0623493417,-7835.1815182875,-37866.6269101985,-51962.9888534546,-22420.7578800068,-35956.7122106886,-9192.2812480407,-11373.2070588880,-1320.5358008002
11333943215,24397,-2,0,26214.5484078255,14398.8630539712,5971.0903650128,12186.6540945921,-45304.6426364884,-11382.4423407766,-50172.0620611762,-55341.3012055571,-7837.6028899553,-37869.7296728884,-51966.2619639000,-22423.1305808873,-35959.1335823564,-9193.6927008722,-11375.0078780178,-1321.4970488493
11333943215,24397,-2,0,26211.3361358643,14399.5931157806,5972.1489546364,12181.7140096820,-45301.2843521653,-11384.9610540190,-50173.9845572743,-55342.1894474252,-7841.1315220339,-37872.9784479401,-51968.0262799393,-22424.5785368092,-35961.2994323909,-9195.6273646670,-11379.4004165709,-1322.2636137491
11333943215,24397,-2,0,26210.4357262994,14400.3231775900,5970.7375018049,12182.2128852518,-45307.1370143371,-11385.0948986840,-50175.9313887659,-55340.8753361683,-7840.9976773689,-37873.1731310893,-51966.2376285063,-22421.9746496891,-35962.2363450462,-9198.4502703299,-11379.2057334217,-1323.4682157346
11333943215,24397,-2,0,26212.7597563925,14402.3673506562,5971.2972158588,12186.3499021716,-45304.8373196376,-11382.4788438671,-50173.4126755236,-55337.8942504467,-7837.3838714125,-37868.6589155680,-51963.8649276258,-22418.4460176104,-35959.2674270214,-9197.7932147015,-11374.7280209909,-1325.8895874023
11333943215,24397,-2,0,26212.2852162164,14402.3916860499,5974.3269723677,12185.1087970956,-45299.8850670306,-11377.8064482871,-50172.7191168047,-55336.6044745835,-7833.6118853974,-37866.4808978366,-51961.7842514691,-22416.8033785393,-35954.1569943558,-9196.0654017526,-11371.1385504281,-1323.8819174266
11333980493,24398,-2,0,26213.3803089305,14403.8274742750,5973.2318796536,12185.4129895162,-45299.1915083117,-11375.5919274653,-50171.8308749366,-55336.7504869454,-7831.8840724485,-37865.7751714209,-51961.6990775914,-22417.9593097375,-35951.1394055437,-9192.5367696740,-11371.2602273963,-1322.4947999887
11333980493,24398,-2,0,26213.1126196004,14401.8563073897,5973.0980349886,12185.5590018781,-45300.4569487813,-11376.6383493921,-50173.0354769221,-55337.5657226325,-7833.8795747275,-37867.5516551571,-51965.0451942177,-22420.7457123100,-35951.6261134166,-9188.9107960207,-11372.5013324723,-1324.1374390598
11333980493,24398,-2,0,26206.9435973112,14400.0189851694,5969.2895458830,12180.1200413982,-45302.1239232460,-11377.8307836807,-50176.1382396119,-55340.7414915033,-7835.8872447032,-37871.2141319008,-51968.3548077535,-22423.6537918506,-35952.4900198910,-9191.1496522362,-11375.3120704384,-1326.8995062386
11333980493,24398,-2,0,26210.1923723629,14402.3430152626,5970.0804461765,12182.5292453692,-45301.3938614367,-11376.6870201794,-50176.3207550643,-55341.3742117381,-7834.3541149036,-37871.3844796563,-51969.6202482231,-22423.2157547650,-35953.0010631576,-9193.7048685690,-11375.7501075240,-1331.0121877648
11333980493,24398,-2,0,26214.6700847937,14402.7202138641,5972.4166439665,12187.5545041570,-45299.7877254560,-11375.8961198859,-50177.8173817735,-55341.2890378603,-7833.1860160085,-37870.0825360962,-51969.3160558025,-22423.5686179729,-35952.9523923703,-9195.2014952782,-11374.5455055385,-1331.1460324299
11333980493,24398,-2,0,26213.1247872972,14402.6958784705,5973.2318796536,12185.9362004796,-45296.7579689471,-11379.3760811772,-50174.4104266631,-55339.2813678845,-7837.0553435982,-37873.5868327812,-51971.3358934751,-22426.1725050930,-35953.7919634511,-9196.3574264764,-11377.1737280523,-1327.9459281654
11333980493,24398,-2,0,26213.0274457226,14402.8540585292,5972.9033518394,12186.5567530176,-45307.1856851244,-11383.7564520335,-50180.5186104682,-55346.2899612546,-7840.4866341023,-37875.2051364587,-51973.0393710303,-22427.7664733768,-35957.4057694075,-9196.4791034446,-11379.1692303312,-1324.5389730550
11333980493,24398,-2,0,26215.1932957571,14403.3651017957,5970.5914894431,12187.5666718539,-45309.7165660636,-11388.3680091294,-50182.3194295980,-55349.5144009126,-7843.6502352763,-37877.2249741313,-51975.9596182679,-22431.2707700618,-35960.5693705815,-9198.3042579681,-11378.3053238568,-1324.9405070502
11334007930,24399,-2,0,26213.4046443242,14404.7400515367,5970.6401602303,12186.4594114430,-45311.4443790124,-11389.8524681418,-50186.8823159066,-55354.6004981846,-7845.5362282838,-37878.9649547770,-51980.1574736718,-22435.9918364291,-35963.5626239999,-9200.9203127850,-11381.3959188498,-1327.7025742290
11334007930,24399,-2,0,26213.1612903877,14404.1316666956,5969.5815706068,12184.3543998926,-45311.1645219855,-11389.9133066259,-50188.4154457063,-55357.9709502046,-7845.2442035601,-37879.7923581610,-51982.3598267967,-22437.6223078034,-35964.1466734474,-9200.6404557581,-11382.8317070749,-1329.8197534762
11334007930,24399,-2,0,26216.0693699284,14403.3651017957,5971.1025327096,12189.3674909837,-45310.4831309634,-11386.7740408456,-50188.7318058237,-55356.2796403462,-7842.7984964987,-37878.4539115104,-51981.5810942000,-22437.7074816811,-35961.3481031782,-9197.3916807063,-11380.3494969231,-1328.6638222780
11334007930,24399,-2,0,26216.6534193759,14405.5674549207,5973.3778920155,12191.1926455071,-45307.2100205180,-11383.0142225273,-50185.2640122291,-55352.0209464582,-7839.5618891438,-37874.9252794318,-51978.0524621214,-22433.7529802137,-35955.9213103951,-9192.9018005787,-11377.1980634459,-1324.7458239010
11334007930,24399,-2,0,26218.3812323247,14406.8207276934,5973.5117366806,12191.1196393262,-45304.4479533392,-11380.6050185564,-50183.4510254025,-55350.4634812648,-7837.3960391093,-37872.0537029816,-51975.6919289377,-22429.2874354797,-35951.5896103262,-9189.5800193460,-11374.6671825068,-1322.3852907173
11334007930,24399,-2,0,26222.1897214303,14407.5021187155,5974.6555001819,12196.5220967155,-45301.7345569477,-11378.3053238568,-50180.0075672016,-55349.6482455777,-7835.1450151970,-37870.6544178469,-51973.0637064240,-22427.3406039880,-35950.0686482233,-9190.5047643046,-11372.2336431422,-1322.2392783555
11334007930,24399,-2,0,26218.6367539580,14405.4579456493,5973.2197119568,12194.5874329207,-45296.4902796170,-11378.4513362187,-50180.7984674951,-55348.9790222524,-7835.7290646445,-37871.3479765658,-51972.3336446146,-22426.8173930246,-35950.6892007613,-9191.4173415663,-11372.5135001691,-1322.2392783555
11334007930,24399,-2,0,26214.6944201874,14405.0320762605,5971.8934330031,12191.6185148959,-45304.2532701900,-11379.0475533630,-50182.1369141456,-55350.8163444727,-7836.1671017302,-37871.0316164484,-51973.3313957541,-22427.9733242228,-35952.4900198910,-9191.9283848328,-11374.3751577830,-1324.5633084486
11334041734,24400,-2,0,26215.8625190824,14402.7323815609,5969.8492599369,12191.4603348372,-45305.1901828454,-11380.3981677104,-50184.6921304784,-55349.2953823698,-7836.9458343268,-37872.4309015831,-51974.1344637444,-22428.9224045750,-35954.4246836859,-9190.2979134586,-11371.7347675724,-1324.7336562042
11334041734,24400,-2,0,26211.0319434437,14400.2380037122,5968.7054964355,12187.5666718539,-45306.6503064642,-11379.7411120819,-50185.0814967768,-55354.1137903117,-7837.6758961362,-37871.8103490451,-51976.0447921456,-22429.7376402621,-35953.7067895733,-9188.9229637176,-11370.7735195234,-1323.1883587077
11334041734,24400,-2,0,26208.0873608125,14398.7535446998,5967.0750250612,12182.3832330073,-45296.0522425314,-11378.4756716123,-50181.2730076712,-55350.3053012061,-7837.2500267474,-37871.4331504436,-51974.8523578570,-22428.7763922131,-35952.3075044387,-9191.1983230235,-11372.0389599930,-1321.0103409763
11334041734,24400,-2,0,26209.5109813408,14396.2226637606,5964.4833056379,12184.2813937117,-45305.3726982978,-11380.3373292262,-50184.7773043562,-55352.7510082675,-7838.0165916473,-37871.8590198324,-51976.6166738963,-22429.6768017780,-35953.8041311479,-9191.2591615076,-11372.1728046581,-1321.4118749715
11334041734,24400,-2,0,26208.5984040791,14397.0013963573,5964.3737963665,12184.0258720784,-45308.6336410463,-11382.8195393781,-50187.6245454128,-55352.8118467516,-7840.5474725864,-37873.9031928986,-51978.2471452706,-22430.3338574064,-35956.8947261410,-9192.0013910138,-11373.9492883942,-1322.7138185316
11334041734,24400,-2,0,26204.2058655260,14395.5047696481,5962.6581511145,12177.1876264639,-45311.1766896823,-11385.1679048650,-50188.7926443078,-55355.4765723559,-7842.8106641955,-37877.8698620629,-51980.0114613099,-22432.3901981695,-35960.2530104641,-9195.5178553956,-11376.8452002381,-1326.1451090356
11334041734,24400,-2,0,26205.7998338098,14395.6507820100,5961.2710336767,12176.8225955592,-45312.7219871788,-11388.2341644643,-50190.3257741075,-55355.4887400527,-7845.6944083425,-37879.5003334372,-51982.0678020730,-22433.6921417296,-35961.8956495352,-9198.2312517871,-11379.3639134804,-1329.1383624541
11334041734,24400,-2,0,26208.4402240204,14398.5223584602,5961.2101951926,12178.6234146890,-45315.1920296339,-11389.5361080244,-50190.8124819804,-55355.4400692654,-7847.3613828073,-37882.0555497700,-51982.1651436476,-22434.9819175928,-35960.5693705815,-9201.0419897532,-11381.3350803657,-1329.7345795984
11334074336,24401,-2,0,26206.9192619175,14400.2745068027,5963.2422005620,12177.0416141020,-45313.8900860738,-11389.0980709388,-50190.0702524742,-55355.4279015686,-7845.3902159220,-37880.8874508750,-51982.0556343761,-22434.1301788152,-35964.3413565966,-9200.0320709169,-11382.3693345957,-1325.3420410453
11334074336,24401,-2,0,26215.3271404222,14404.2290082701,5969.2773781862,12185.7171819368,-45313.1843596581,-11386.9200532075,-50187.6123777160,-55352.1182880327,-7843.1513597065,-37878.4539115104,-51979.3179025910,-22431.8548195093,-35963.1124192175,-9198.4015995426,-11380.9335463706,-1322.9936755585
11334074336,24401,-2,0,26214.7552586715,14404.2046728765,5970.3846385971,12186.0335420542,-45310.2884478142,-11385.5572711633,-50185.5438692560,-55348.7113329223,-7842.4334655940,-37876.4462415346,-51978.0646298182,-22430.7475590984,-35963.1854253984,-9197.8418854888,-11380.8727078865,-1326.1451090356
11334074336,24401,-2,0,26211.7741729499,14405.0685793509,5970.4454770812,12179.7671781904,-45309.0351750415,-11384.0241413636,-50184.4244411483,-55349.1980407952,-7841.5452237259,-37876.0082044490,-51977.5292511580,-22430.0905034700,-35963.9641579951,-9200.7012942422,-11381.7001112704,-1332.4966467772
11334074336,24401,-2,0,26212.7354209989,14404.1925051797,5968.7298318291,12179.8888551586,-45307.8184053592,-11383.9754705763,-50183.4875284930,-55349.1006992207,-7841.4600498481,-37875.7648505126,-51977.1033817692,-22430.0905034700,-35961.5184509337,-9199.7887169805,-11379.8992921406,-1333.0076900438
11334074336,24401,-2,0,26215.4731527841,14402.8905616196,5968.1944531689,12181.0326186599,-45309.3393674620,-11385.2895818332,-50185.4586953783,-55350.1349534506,-7841.9954285084,-37875.6431735443,-51978.4174930261,-22431.7088071474,-35961.8104756574,-9195.6517000607,-11377.5630943506,-1327.1063570846
11334074336,24401,-2,0,26212.8205948767,14404.3628529352,5969.1557012179,12179.6698366158,-45307.3073620926,-11384.0363090604,-50185.0936644736,-55352.1912942137,-7841.2288636085,-37876.2758937791,-51978.8068593244,-22432.0860057489,-35961.5914571146,-9195.1284890973,-11379.7289443851,-1323.6142280965
11334074336,24401,-2,0,26217.2496365202,14404.8373931113,5970.2994647193,12180.7162585425,-45306.7111449483,-11382.7708685908,-50185.4951984688,-55352.6780020866,-7839.3185352073,-37875.2659749428,-51978.9407039895,-22432.9134091329,-35959.3526008992,-9194.1794087451,-11380.4590061945,-1321.8985828444
11334100379,24402,-2,0,26219.1477972246,14405.6404611016,5971.2850481620,12185.6928465431,-45305.4700398723,-11381.0065525515,-50184.9841552022,-55350.2931335093,-7838.9048335153,-37874.5359131334,-51978.6365115689,-22432.0738380521,-35959.9123149530,-9194.1794087451,-11378.7068578520,-1324.6484823264
11334100379,24402,-2,0,26216.4344008331,14407.4534479282,5972.5991594188,12182.1520467677,-45305.1050089677,-11380.6780247373,-50183.2320068597,-55350.9136860473,-7838.1017655250,-37874.1708822287,-51978.0889652119,-22430.9544099444,-35958.7928868453,-9194.7026197085,-11378.6460193679,-1327.5443941703
11334100379,24402,-2,0,26217.8945244518,14408.5242052486,5972.1367869396,12184.3422321958,-45306.2974432563,-11383.1602348892,-50183.3658515247,-55351.4855677980,-7839.2820321168,-37875.2781426396,-51979.7316042830,-22433.1324276757,-35959.2552593246,-9195.6882031511,-11379.2665719058,-1328.8341700335
11334100379,24402,-2,0,26220.0847098800,14406.4921998792,5973.0006934140,12187.1894732524,-45308.1834362639,-11383.5739365811,-50185.3126830164,-55352.2886357883,-7840.6934849483,-37875.2659749428,-51980.4251630019,-22435.6876440085,-35960.2408427673,-9196.3817618700,-11376.5653432111,-1329.0045177890
11334100379,24402,-2,0,26213.5749920797,14403.9491512432,5971.3215512524,12183.5756672959,-45308.1225977798,-11384.4865138429,-50185.0206582927,-55353.2255484436,-7840.6813172515,-37875.3024780333,-51980.0966351876,-22434.5317128104,-35960.5572028847,-9197.6837054301,-11377.6482682284,-1328.9315116081
11334100379,24402,-2,0,26212.5285701529,14403.0244062847,5970.7009987145,12184.5977538291,-45306.9179957943,-11383.7077812462,-50182.5384481408,-55351.6437478567,-7839.5375537501,-37873.8545221114,-51978.8190270212,-22433.3149431281,-35959.9244826499,-9197.4403514936,-11376.8695356317,-1326.5466430308
11334100379,24402,-2,0,26216.6047485886,14403.6814619131,5972.0151099713,12192.3729120989,-45304.8738227280,-11381.4689250308,-50180.7376290110,-55350.2444627220,-7836.4226233635,-37870.5570762723,-51975.8744443901,-22431.5506270887,-35958.1601666105,-9194.0333963832,-11377.5387589570,-1324.1982775440
11334100379,24402,-2,0,26218.7462632294,14407.4047771409,5975.2638850231,12194.7699483730,-45299.4226945513,-11376.5653432111,-50175.7367056168,-55346.3386320418,-7831.8232339644,-37867.9045183649,-51972.9176940621,-22427.3892747753,-35955.0087331334,-9192.9626390628,-11378.2323176759,-1326.9481770259
11334129016,24403,-2,0,26220.9607840512,14410.9455769164,5978.3423123193,12196.7532829552,-45297.0378259740,-11374.6550148099,-50173.8507126092,-55342.0921058506,-7829.8885701695,-37864.5340663450,-51969.4499004676,-22425.2964309217,-35951.4801010547,-9189.6165224365,-11377.5144235633,-1329.1505301509
11334129016,24403,-2,0,26223.3456526285,14411.1159246719,5980.4716592633,12203.6401993570,-45294.4217711571,-11371.3454012741,-50169.1296462419,-55338.1132689895,-7827.4793661986,-37862.4777255819,-51964.9965234304,-22421.8286373272,-35949.0952324774,-9183.7151894773,-11371.7712706629,-1325.0621840184
11334129016,24403,-2,0,26224.1243852252,14414.3768674205,5983.9637882515,12204.6744535869,-45291.9760640957,-11369.2160543301,-50165.4428341045,-55335.1930217520,-7824.1697526627,-37859.3019567111,-51961.3583820803,-22418.4825207009,-35945.4327557337,-9178.9941231100,-11368.0722908287,-1317.9440813770
11334129016,24403,-2,0,26222.3844045795,14416.0925126725,5983.3919065008,12202.5572743397,-45290.0657356945,-11366.1376270339,-50163.3743256446,-55333.3191964413,-7822.8434737090,-37857.8661684860,-51959.9590969457,-22417.7037881042,-35943.5345950294,-9177.2298070707,-11365.8334346133,-1313.4176981588
11334129016,24403,-2,0,26227.3366571864,14415.5936371028,5982.2603106963,12206.5361112008,-45291.2216668927,-11366.1011239434,-50162.0723820846,-55333.0515071112,-7822.7826352249,-37857.7444915178,-51960.3606309408,-22416.8398816298,-35944.7635324085,-9178.6534275990,-11364.9451927452,-1311.7020529068
11334129016,24403,-2,0,26223.3943234158,14415.1677677140,5981.9317828820,12205.0638198853,-45291.9760640957,-11367.3422290193,-50163.6298472779,-55333.8789104952,-7823.8290571517,-37857.8174976987,-51959.4723890728,-22416.4261799378,-35945.6396065797,-9180.8557807240,-11365.9551115815,-1313.3325242811
11334129016,24403,-2,0,26221.2163056845,14413.2696070096,5980.4473238696,12200.6104428481,-45294.2270880079,-11370.3476501346,-50166.4770883345,-55336.0569282265,-7826.0435779735,-37861.5408129265,-51961.8085868628,-22417.5699434392,-35949.2169094457,-9186.8666229545,-11368.9727003936,-1314.7074740221
11334129016,24403,-2,0,26222.9684540270,14412.9654145890,5979.4252373365,12200.7929583004,-45296.3442672551,-11371.9416184184,-50166.7934484519,-55336.6044745835,-7827.9417386779,-37863.9743522911,-51964.6436602225,-22418.8718869992,-35952.3805106196,-9190.2857457617,-11370.9073641885,-1317.1775164771
11334157844,24404,-2,0,26220.4862438751,14407.6968018647,5977.0890395465,12197.6050217328,-45297.3785214851,-11372.0511276898,-50167.4018332930,-55336.8356608231,-7828.7691420618,-37863.5849859928,-51964.2664616210,-22419.0787378452,-35952.3926783165,-9190.9914721775,-11375.2755673479,-1317.9440813770
11334157844,24404,-2,0,26217.8580213614,14408.2321805249,5979.2062187937,12195.9502149649,-45296.2347579837,-11372.1241338708,-50163.6541826716,-55333.4530411063,-7828.0390802524,-37862.8670918802,-51960.8716742074,-22416.4991861188,-35951.4314302675,-9189.6773609206,-11375.7014367367,-1317.6642243500
11334157844,24404,-2,0,26220.4497407846,14408.4268636741,5978.6586724367,12198.9191329897,-45297.0743290645,-11372.9150341643,-50163.0701332241,-55330.8613216831,-7829.2436822379,-37862.7575826088,-51961.3218789899,-22418.2756698549,-35954.0839881749,-9191.1983230235,-11375.1417226828,-1322.4947999887
11334157844,24404,-2,0,26224.6597638854,14410.4832044371,5979.9606159967,12199.1989900166,-45300.8706504733,-11377.7334421061,-50167.4383363835,-55336.1664374979,-7832.6384696515,-37868.0870338173,-51966.5904917142,-22422.5586991366,-35958.4886944248,-9194.3010857133,-11378.4148331282,-1327.4105495052
11334157844,24404,-2,0,26226.7891108294,14416.2871958217,5981.3720688282,12196.0840596299,-45304.0585870409,-11381.9556329037,-50171.5631856065,-55339.7802434543,-7836.1671017302,-37871.4696535341,-51970.1069560960,-22426.2090081835,-35960.4963644005,-9193.9360548086,-11379.8262859597,-1324.7944946883
11334157844,24404,-2,0,26232.6174376076,14419.0857660910,5981.2990626472,12197.3495000995,-45302.0509170651,-11382.2963284147,-50171.5023471224,-55338.0524305054,-7836.8119896618,-37872.9419448496,-51970.7518440276,-22425.9048157629,-35958.3183466692,-9192.3299188280,-11377.4779204729,-1320.9129994018
11334157844,24404,-2,0,26233.0068039059,14421.3002869127,5982.1629691217,12199.6126917086,-45300.9436566542,-11378.6946901551,-50169.5190125402,-55336.3002821629,-7833.1981837054,-37868.4277293283,-51966.9433549220,-22421.6217864812,-35951.2610825119,-9191.7702047741,-11374.4116608735,-1321.2050241255
11334157844,24404,-2,0,26227.6165142134,14418.1123503451,5983.9151174642,12194.8429545540,-45297.2325091232,-11373.0488788293,-50166.6109329996,-55334.1344321284,-7828.7934774555,-37864.0960292594,-51964.0961138655,-22417.0710678694,-35951.4192625706,-9189.7747024952,-11373.6937667609,-1320.9008317049
11334188882,24405,-2,0,26227.6165142134,14415.5327986187,5985.2657318115,12194.5387621334,-45293.1441629907,-11369.2403897237,-50164.2503998159,-55331.6765573702,-7824.6077897484,-37861.2609558996,-51961.8329222564,-22415.6717827348,-35948.5476861204,-9188.0103864558,-11371.7834383597,-1318.7471493673
11334188882,24405,-2,0,26226.5214214993,14413.0384207700,5984.9250363005,12193.5410109939,-45290.5646112642,-11366.1619624275,-50162.6442638353,-55330.4719553847,-7822.4419397139,-37860.1658631855,-51962.5143132785,-22416.4140122410,-35945.6639419734,-9186.5502628371,-11372.3674878072,-1318.2117707071
11334188882,24405,-2,0,26222.6885970001,14413.5859671270,5984.2679806720,12187.7978580935,-45290.7714621102,-11365.7117576451,-50163.0823009209,-55330.9221601672,-7822.3567658361,-37861.0784404473,-51962.7698349118,-22415.1850748619,-35943.6806073912,-9184.3965804994,-11372.1119661739,-1321.5335519397
11334188882,24405,-2,0,26223.8323605014,14414.5350474792,5983.4040741976,12188.8321123234,-45291.4163500419,-11367.0867073861,-50162.2305621433,-55331.2750233750,-7824.4496096897,-37862.3925517041,-51962.1492823738,-22416.5478569060,-35946.4913453573,-9186.6354367149,-11371.2115566090,-1326.4614691530
11334188882,24405,-2,0,26221.5083304082,14411.3227755179,5981.0922118013,12191.0344654484,-45295.0058206046,-11370.1042961982,-50165.6740203442,-55333.0028363239,-7825.9340687021,-37864.8990972497,-51963.8892630195,-22418.2391667644,-35948.4503445458,-9187.9738833654,-11374.0587976656,-1325.9139227960
11334188882,24405,-2,0,26219.2329711023,14412.7585637430,5981.4815780996,12190.2679005486,-45293.7768832255,-11370.4449917092,-50165.4550018014,-55334.0249228570,-7826.5667889369,-37865.1302834893,-51965.0330265208,-22420.7822154004,-35948.8153754505,-9188.7404482652,-11376.1394738223,-1317.6033858659
11334188882,24405,-2,0,26221.8125228288,14413.1357623445,5982.7470185692,12192.5919306417,-45297.1351675486,-11372.4039908977,-50168.3509136452,-55336.6288099771,-7827.6375462573,-37866.5782394112,-51966.0064422667,-22420.3441783148,-35949.9469712551,-9186.0513872674,-11373.2070588880,-1311.7020529068
11334188882,24405,-2,0,26224.9639563060,14409.6192979627,5979.9849513904,12195.3661655174,-45298.1085832945,-11375.2390642574,-50168.8254538213,-55335.4242079917,-7829.9372409568,-37867.0284441937,-51967.0041934062,-22421.1472463051,-35951.4435979643,-9182.9486245775,-11371.9172830248,-1310.5461217086
11334222892,24406,-2,0,26222.3722368827,14411.7973156940,5979.9849513904,12192.9812969401,-45298.2667633532,-11374.7401886877,-50168.7402799436,-55333.8910781920,-7830.7524766440,-37867.7463383062,-51965.8360945112,-22420.6483707354,-35950.2511636756,-9181.2816501128,-11372.3553201104,-1312.4807855035
11334222892,24406,-2,0,26221.7395166479,14408.8770684565,5977.1255426370,12193.5045079035,-45298.7413035293,-11375.6892690399,-50168.9958015768,-55334.8644939378,-7829.9859117441,-37868.2208784823,-51967.2232119490,-22421.8529727208,-35952.7212061307,-9181.5980102302,-11373.5477543990,-1315.4375358314
11334222892,24406,-2,0,26224.9639563060,14407.7211372583,5976.8213502164,12196.8871276202,-45298.4127757150,-11373.5842574895,-50170.5654344670,-55335.7284004122,-7828.8664836364,-37867.6733321253,-51967.9776091520,-22422.6317053175,-35953.0010631576,-9183.7030217805,-11372.9272018611,-1318.0535906484
11334222892,24406,-2,0,26220.0238713958,14405.3484363779,5977.1133749402,12192.6527691259,-45299.2888498863,-11373.4382451276,-50171.1494839145,-55338.2714490482,-7829.4140299934,-37869.7418405852,-51968.8415156264,-22424.7002137774,-35952.8672184926,-9185.6863563627,-11374.5820086290,-1320.0977637146
11334222892,24406,-2,0,26219.7440143689,14408.0983358598,5977.1985488179,12192.2147320402,-45301.1505075002,-11376.5410078175,-50171.3319993669,-55339.0623493417,-7832.2004325659,-37870.7760948151,-51969.9001052500,-22425.7223003105,-35951.8816350499,-9187.3898339179,-11374.6915179004,-1322.1784398713
11334222892,24406,-2,0,26223.5403357777,14408.4755344614,5977.4662381480,12196.0597242363,-45297.3298506978,-11378.5243423996,-50169.5190125402,-55335.1443509647,-7833.8795747275,-37872.6742555195,-51971.3480611720,-22426.5862067850,-35953.7311249670,-9187.4628400988,-11374.8618656559,-1322.3609553237
11334222892,24406,-2,0,26219.7561820657,14408.3903605836,5973.6334136488,12192.5919306417,-45306.9301634911,-11380.4468384977,-50176.4667674261,-55341.0335162270,-7836.8728281459,-37875.3024780333,-51975.1687179744,-22427.8638149514,-35954.8992238620,-9187.9860510622,-11375.6649336462,-1321.5335519397
11334222892,24406,-2,0,26217.4686550630,14407.3196032632,5972.5018178443,12189.4283294678,-45308.2321070512,-11382.6491916226,-50178.2797542528,-55342.9316769314,-7839.2698644200,-37877.4439926741,-51975.2295564585,-22428.7763922131,-35957.8316387963,-9188.6309389938,-11378.1349761013,-1321.4727134556
11334252792,24407,-2,0,26219.6466727943,14403.4381079767,5970.0682784797,12192.5310921576,-45310.5318017507,-11382.9655517400,-50178.9733129717,-55342.3719628776,-7837.8584115886,-37877.0667940726,-51976.4828292312,-22431.6114655728,-35955.8604719110,-9187.0004676195,-11376.3584923651,-1320.8034901304
11334252792,24407,-2,0,26217.9553629359,14405.4336102556,5971.3823897365,12189.0876339567,-45306.9179957943,-11379.6681059010,-50178.3405927369,-55343.0046831124,-7835.4857107081,-37875.3998196079,-51976.0326244488,-22429.5916279002,-35952.8063800084,-9185.0536361279,-11373.5355867022,-1319.6475589322
11334252792,24407,-2,0,26216.1910468966,14406.0906658841,5972.9033518394,12185.1696355797,-45304.7034749725,-11376.4436662429,-50177.6592017148,-55343.8077511027,-7834.0134193925,-37873.8301867177,-51975.5702519695,-22430.2730189223,-35950.2998344629,-9185.1753130961,-11373.2922327658,-1321.4970488493
11334252792,24407,-2,0,26219.5493312197,14405.5552872238,5970.6523279272,12186.3985729589,-45303.5353760775,-11375.4215797098,-50178.6326174606,-55346.2047873768,-7832.5776311674,-37874.3655653779,-51977.9064497595,-22432.7917321647,-35951.5652749325,-9188.8864606271,-11375.8961198859,-1326.5588107276
11334252792,24407,-2,0,26216.1058730189,14405.5066164366,5971.7230852476,12186.0943805383,-45302.0995878524,-11376.4314985461,-50178.6204497638,-55343.6374033472,-7833.0278359498,-37875.2294718523,-51978.5513376911,-22433.8868248787,-35952.5265229815,-9190.0788949157,-11378.4270008250,-1330.8905107966
11334252792,24407,-2,0,26210.7520864168,14403.1704186466,5970.6888310176,12181.4098172615,-45304.4722887329,-11378.4878393092,-50179.8980579302,-55345.9736011372,-7834.3541149036,-37876.1785522045,-51978.1376359992,-22432.9377445265,-35953.1105724290,-9190.3222488522,-11376.9547095095,-1328.7733315494
11334252792,24407,-2,0,26213.3803089305,14405.2267594096,5971.1998742842,12185.3886541226,-45306.9666665816,-11380.7631986150,-50179.0098160621,-55344.6351544866,-7836.8849958427,-37876.2758937791,-51977.2615618279,-22431.9521610839,-35951.2732502088,-9189.7990378888,-11377.0033802968,-1326.8751708450
11334252792,24407,-2,0,26210.5330678739,14403.7909711845,5968.8150057069,12183.2228040881,-45307.9887531147,-11383.2819118574,-50177.9633941354,-55343.7469126186,-7838.7588211535,-37876.8112724393,-51976.6166738963,-22431.4289501205,-35958.0993281264,-9189.0324729890,-11376.6140139984,-1326.0355997642
11334311376,24408,4,0,26208.0508577221,14403.6936296099,5967.8172545674,12179.8036812808,-45308.6336410463,-11381.5784343022,-50177.3185062037,-55344.4648067311,-7837.5298837743,-37876.3732353537,-51975.2538918521,-22431.7088071474,-35958.3426820629,-9187.4385047052,-11377.8429513775,-1329.0531885763
11334311376,24408,4,0,26211.9931914927,14401.5764503627,5968.0971115944,12184.3665675894,-45306.1149278040,-11380.5806831627,-50176.7344567562,-55342.9195092346,-7834.8043196860,-37873.7936836272,-51974.9131963411,-22431.8183164188,-35956.5418629331,-9187.9130448813,-11379.1570626344,-1330.2942936522
11334311376,24408,4,0,26213.1612903877,14402.7567169546,5969.7275829686,12187.1651378587,-45303.9977485568,-11375.6284305558,-50175.7610410104,-55343.4062171075,-7831.6163831184,-37871.4574858372,-51974.0979606539,-22430.7110560079,-35952.7820446148,-9186.2825735070,-11380.6536893436,-1328.3961329479
11334311376,24408,4,0,26210.3262170280,14403.2677602211,5973.2927181377,12185.3643187289,-45301.2600167716,-11375.4215797098,-50175.1283207756,-55343.4913909853,-7831.5798800279,-37872.8324355782,-51974.0492898666,-22431.9278256902,-35951.5531072357,-9187.6696909448,-11382.1624837497,-1325.9990966738
11334311376,24408,4,0,26212.2243777323,14401.7954689056,5970.9565203477,12184.0745428657,-45300.5542903559,-11377.1615603555,-50177.0629845705,-55346.7523337338,-7833.7944008497,-37874.6210870112,-51976.8721955296,-22434.7872344436,-35952.5751937688,-9191.3078322949,-11381.3594157594,-1326.7048230895
11334311376,24408,4,0,26213.3194704464,14401.1019101866,5971.1755388906,12184.8167723719,-45303.4745375934,-11378.0498022235,-50177.3793446879,-55348.6139913477,-7833.5510469132,-37874.8766086445,-51978.2714806642,-22435.7728178863,-35952.9037215830,-9193.3155022707,-11380.1061429866,-1329.0896916668
11334311376,24408,4,0,26213.4776505051,14401.3087610326,5973.6577490424,12181.0204509631,-45301.6980538572,-11376.0664676414,-50176.3329227611,-55347.3363831813,-7831.0810044582,-37873.3799819353,-51975.2660595489,-22433.0229184043,-35951.6747842039,-9191.2956645980,-11376.3219892747,-1325.9139227960
11334311376,24408,4,0,26219.8900267308,14404.6183745685,5976.7240086418,12183.6243380832,-45300.1284209671,-11374.0466299688,-50173.7898741251,-55343.8077511027,-7828.8178128491,-37870.7152563310,-51973.4287373287,-22428.9467399686,-35949.1074001743,-9187.6453555512,-11372.0267922962,-1324.2591160281
11334323015,24409,4,0,26219.4033188579,14405.4579456493,5977.2228842116,12182.5049099755,-45299.9702409084,-11373.9857914847,-50173.0354769221,-55342.2624536062,-7829.3410238125,-37870.9221071770,-51972.0416198909,-22427.9976596164,-35950.7378715485,-9187.0491384068,-11367.0502042956,-1321.3145333969
11334323015,24409,4,0,26215.8503513856,14404.4723622066,5975.8722698642,12176.6400801069,-45300.1649240575,-11373.0853819198,-50172.1959058413,-55344.6959929707,-7830.1927625901,-37871.2506349912,-51972.0051168004,-22428.7277214258,-35952.4170137101,-9187.4385047052,-11370.6031717679,-1321.7525704825
11334323015,24409,4,0,26217.8215182709,14404.9103992922,5976.9186917910,12178.9276071096,-45298.9846574657,-11373.2557296753,-50171.7091979684,-55342.0556027602,-7829.0124959983,-37870.7395917247,-51971.9929491036,-22429.2996031765,-35951.5896103262,-9188.5944359033,-11376.2368153969,-1325.5732272849
11334323015,24409,4,0,26220.2063868482,14405.0807470478,5977.8921075368,12183.0037855453,-45296.0279071377,-11370.1894700759,-50168.1562304961,-55339.6098956988,-7825.3256838609,-37866.8094256509,-51969.3890619835,-22427.5231194403,-35948.5963569077,-9190.1640687935,-11379.1570626344,-1327.0820216910
11334323015,24409,4,0,26216.5317424077,14405.2024240160,5979.5225789111,12181.4219849583,-45295.3100130252,-11369.9826192299,-50167.0733054788,-55338.0524305054,-7824.8024728975,-37864.8990972497,-51966.8703487411,-22424.9922385012,-35946.4183391764,-9186.7327782894,-11378.2688207663,-1327.2402017497
11334323015,24409,4,0,26216.3857300458,14404.7765546272,5978.7803494049,12181.0812894472,-45295.1883360570,-11369.9339484426,-50165.3698279236,-55337.7360703880,-7825.1310007118,-37865.3371343353,-51967.2597150394,-22423.8363073030,-35948.8762139346,-9185.0414684311,-11375.7622752208,-1326.6196492117
11334323015,24409,4,0,26216.7385932536,14402.1483321134,5976.2129653753,12182.3467299168,-45295.8332239886,-11370.7491841298,-50165.5280079823,-55337.2980333024,-7826.0314102767,-37865.5683205749,-51966.8946841348,-22423.7754688189,-35950.3606729470,-9186.3434119911,-11373.2557296753,-1327.7877481067
11334323015,24409,4,0,26215.4001466031,14404.9469023827,5978.9993679477,12182.8212700929,-45295.6142054458,-11371.1993889122,-50164.9439585348,-55337.0546793659,-7825.5447024037,-37867.5881582475,-51966.1767900222,-22422.3518482906,-35951.1515732405,-9187.2803246465,-11374.3751577830,-1328.3596298574
11334359314,24410,4,0,26217.9675306328,14404.7035484462,5981.6519258551,12182.4927422787,-45296.3564349520,-11371.1385504281,-50165.2116478649,-55337.5170518452,-7825.9462363989,-37867.7828413967,-51967.1502057680,-22422.3275128969,-35951.8086288690,-9188.4727589351,-11377.8672867712,-1329.0166854858
11334359314,24410,4,0,26220.8634424766,14404.7035484462,5982.3211491804,12186.2647282938,-45293.7038770446,-11370.7126810393,-50165.8322004029,-55337.4683810579,-7824.1332495723,-37866.1767054161,-51968.0749507266,-22423.7024626379,-35950.1416544042,-9188.3510819669,-11378.4026654314,-1326.0721028547
11334359314,24410,4,0,26218.4907415961,14405.8351442508,5983.8786143737,12182.8942762739,-45292.3289273036,-11367.6099183494,-50164.9561262316,-55337.1641886373,-7822.2472565647,-37864.1690354403,-51967.2110442522,-22423.4591087015,-35946.4791776605,-9187.1951507687,-11376.5410078175,-1321.3875395779
11334359314,24410,4,0,26220.3889023005,14405.7743057667,5984.8276947259,12180.4485692124,-45289.2018292201,-11366.2958070926,-50162.3035683242,-55335.1565186616,-7821.1521638507,-37863.0617750294,-51966.0916161444,-22422.5100283493,-35944.0213029023,-9183.0581338489,-11373.5964251863,-1317.0193364184
11334359314,24410,4,0,26224.6719315822,14405.7621380698,5986.7258554303,12186.0092066605,-45288.9828106773,-11365.7847638260,-50161.4153264562,-55333.6842273460,-7819.0714876939,-37860.9445957822,-51962.8063380023,-22420.5023583735,-35943.9117936309,-9181.3059855064,-11372.5135001691,-1317.4817088977
11334359314,24410,4,0,26221.6056719828,14402.6958784705,5986.0079613177,12184.3178968021,-45291.1608284086,-11365.8821054006,-50164.2138967254,-55334.7184815759,-7821.0304868824,-37862.7332472152,-51965.3615543351,-22421.2324201829,-35943.4250857580,-9183.4231647536,-11372.5986740469,-1317.5425473818
11334359314,24410,4,0,26219.3059772833,14403.9734866369,5985.4482472639,12181.1421279314,-45292.9129767511,-11367.3543967162,-50166.8177838455,-55336.9330023977,-7821.7483809950,-37865.0937803988,-51968.0141122425,-22423.5929533665,-35942.6706885549,-9186.4772566562,-11373.5599220959,-1321.1076825509
11334359314,24410,4,0,26220.0725421831,14402.6472076832,5982.7835216596,12183.0646240294,-45294.8233051523,-11369.1065450587,-50170.6019375575,-55339.8532496352,-7824.4131065992,-37867.1744565556,-51971.0682041450,-22425.7101326137,-35949.1560709616,-9189.0081375953,-11372.3188170199,-1322.1419367809
11334391696,24411,4,0,26214.2320477081,14401.6737919373,5979.8024359380,12181.5436619265,-45297.3663537883,-11371.9416184184,-50171.7578687557,-55340.3521252050,-7826.7493043892,-37869.8148467661,-51972.1267937686,-22426.6348775723,-35948.9735555092,-9188.9351314144,-11372.6716802278,-1321.1198502478
11334391696,24411,4,0,26212.2365454292,14400.1528298345,5978.4518215907,12179.4873211634,-45297.8895647517,-11371.9172830248,-50171.8187072398,-55339.9992619971,-7828.0512479493,-37871.6765043800,-51970.9586948736,-22425.1139154694,-35949.5211018663,-9188.9716345049,-11371.2723950932,-1320.1220991083
11334391696,24411,4,0,26217.1766303393,14399.5566126901,5979.4495727302,12186.0335420542,-45296.5024473138,-11370.0069546236,-50170.0787265941,-55335.3755372044,-7824.1454172691,-37868.3912262379,-51968.0141122425,-22421.6461218749,-35946.4426745700,-9182.8269476093,-11367.3543967162,-1317.6885597437
11334391696,24411,4,0,26218.5394123834,14400.3475129836,5984.2679806720,12191.0466331452,-45289.7615432739,-11363.6310814883,-50165.1143062903,-55331.9442467003,-7817.5626932879,-37862.4412224914,-51963.4025551466,-22418.1296574930,-35938.8987025398,-9178.7142660831,-11366.3809809703,-1318.2482737975
11334391696,24411,4,0,26215.3271404222,14399.6904573552,5983.2945649262,12188.5765906902,-45291.0878222276,-11364.3733109945,-50166.5257591218,-55334.6089723045,-7819.4000155082,-37866.1158669320,-51967.1137026776,-22421.7677988431,-35940.9185402124,-9181.3424885969,-11371.7347675724,-1323.3587064632
11334391696,24411,4,0,26215.1689603635,14400.4935253455,5976.1399591943,12187.5666718539,-45301.1383398034,-11373.5112513086,-50176.1504073087,-55343.7590803154,-7829.0733344824,-37875.0469564000,-51977.6995989135,-22431.7453102379,-35950.7013684581,-9189.2028207445,-11380.5441800722,-1330.9391815839
11334391696,24411,4,0,26211.7985083435,14398.9603955458,5969.4842290322,12182.6022515501,-45303.2433513537,-11381.9678006005,-50180.6037843459,-55346.6914952497,-7837.7489023172,-37883.7833627189,-51985.7302788167,-22437.8291586494,-35955.9821488792,-9196.0045632685,-11387.6501150168,-1338.1546257999
11334391696,24411,4,0,26211.1536204119,14397.7922966508,5968.1944531689,12179.4751534666,-45311.1766896823,-11383.1724025860,-50185.5560369529,-55350.9623568346,-7837.5542191680,-37883.9537104744,-51985.6937757262,-22436.4785443020,-35958.0506573391,-9196.1384079336,-11387.7352888946,-1338.8603522156
11334411648,24412,4,0,26217.5538289408,14399.2524202696,5971.9542714872,12184.6707600100,-45306.7354803419,-11379.9844660184,-50181.4190200331,-55341.5323917968,-7832.5532957738,-37878.9527870802,-51983.0777209093,-22433.9476633629,-35950.7257038517,-9191.3808384758,-11381.2012357007,-1333.3240501612
11334411648,24412,4,0,26219.2938095865,14399.1794140886,5973.3535566219,12186.1065482351,-45304.7399780630,-11376.6140139984,-50178.9124744875,-55344.9636823009,-7829.8033962918,-37875.6918443316,-51981.7636096524,-22433.5704647613,-35952.6238645561,-9190.5656027887,-11376.6626847857,-1331.6692433932
11334411648,24412,4,0,26215.1446249698,14401.3452641231,5974.9475249057,12183.3323133595,-45298.6926327420,-11375.2877350447,-50180.2752565317,-55346.9713522766,-7830.2657687710,-37875.4241550015,-51980.0966351876,-22432.0373349617,-35951.6017780230,-9190.7967890283,-11375.8231137049,-1328.7976669430
11334411648,24412,4,0,26213.8183460161,14398.2911722205,5972.6234948125,12182.8456054866,-45304.7034749725,-11375.5919274653,-50181.4068523363,-55348.2854635335,-7831.9692463263,-37876.2637260823,-51980.8266969970,-22433.2054338567,-35952.2953367419,-9192.3785896153,-11374.5455055385,-1328.1527790114
11334411648,24412,4,0,26211.9323530086,14392.8887148312,5969.1191981275,12182.0182021026,-45308.9134980732,-11378.4270008250,-50184.3636026642,-55351.1083691964,-7834.5487980527,-37879.3908241658,-51983.6252672663,-22437.1964384146,-35955.9578134856,-9194.8851351608,-11378.0619699204,-1327.9215927718
11334411648,24412,4,0,26207.5763175460,14391.2825788505,5967.7199129928,12175.7153351483,-45309.3150320684,-11380.4590061945,-50187.1378375399,-55352.7631759644,-7835.2666921653,-37882.2258975255,-51985.9614650563,-22439.8246609283,-35956.7365460823,-9198.7666304473,-11379.9601306247,-1331.2312063076
11334411648,24412,4,0,26208.6714102600,14388.6543563368,5965.9921000440,12175.0826149135,-45312.3569562741,-11383.0507256178,-50188.8413150951,-55353.6270824388,-7837.0553435982,-37883.8563688998,-51988.6383583574,-22440.7980766742,-35958.5617006057,-9199.1194936552,-11380.1183106834,-1331.0608585521
11334411648,24412,4,0,26210.2775462407,14389.2140703906,5966.8438388216,12176.0438629625,-45310.9941742300,-11383.9998059700,-50189.5348738140,-55355.4644046591,-7837.9070823758,-37885.4016663963,-51988.7965384161,-22440.5303873441,-35958.5130298184,-9195.5421907892,-11383.4035888256,-1332.9955223469
11334443976,24413,4,0,26204.3518778879,14388.9098779701,5965.7974168948,12168.9257603211,-45311.4322113156,-11383.5252657939,-50191.1166744010,-55354.4058150355,-7838.9656719994,-37886.7644484405,-51990.1106496729,-22441.8810016914,-35957.7586326154,-9193.5466885103,-11385.7641220093,-1333.3970563421
11334443976,24413,4,0,26205.9215107781,14390.0049706841,5965.4932244742,12167.0032642231,-45312.0892669440,-11383.2210733733,-50191.7493946357,-55358.0196209919,-7837.4933806839,-37886.8496223183,-51991.4125932330,-22443.8034977894,-35957.6856264344,-9192.8774651850,-11383.4035888256,-1330.7566661315
11334443976,24413,4,0,26206.8340880398,14387.3159096863,5964.6171503030,12168.4755555387,-45310.7143172030,-11379.5950997200,-50190.3501095011,-55356.6690066445,-7834.6096365368,-37883.9658781712,-51990.1593204602,-22442.8544174372,-35955.7631303364,-9194.2645826228,-11380.5320123754,-1328.3231267669
11334443976,24413,4,0,26202.9160896628,14387.9729653147,5967.1480312422,12166.0176807804,-45306.6381387673,-11375.8596167954,-50186.9309866939,-55354.9533613925,-7831.6893892993,-37880.4007430021,-51987.3485824941,-22440.5060519504,-35952.7577092212,-9193.1938253024,-11381.5662666054,-1328.3839652510
11334443976,24413,4,0,26203.3419590516,14390.3578338920,5969.4963967290,12166.6869041057,-45306.2974432563,-11375.8596167954,-50184.7286335689,-55354.1381257054,-7830.8133151281,-37879.7315196768,-51984.9028754327,-22439.2041083904,-35952.0641505023,-9193.1086514247,-11382.6370239258,-1331.4137217600
11334443976,24413,4,0,26206.5177279224,14388.6178532463,5968.4864778927,12169.1326111671,-45307.3195297894,-11378.2931561600,-50182.8061374709,-55352.1061203359,-7832.4316188055,-37880.4737491830,-51983.4549195108,-22438.7782390016,-35953.4147648496,-9189.5435162555,-11381.7244466641,-1333.2875470707
11334443976,24413,4,0,26204.3640455847,14391.7571190266,5969.7032475750,12167.1371088881,-45305.0441704835,-11378.9745471821,-50180.2995919254,-55348.3463020176,-7833.6118853974,-37881.6418480780,-51983.1142239997,-22436.7097305417,-35955.0087331334,-9187.8643740940,-11381.6757758768,-1332.6791622295
11334443976,24413,4,0,26204.8629211545,14393.3024165231,5969.2408750957,12166.9424257390,-45308.8526595891,-11379.8019505660,-50183.0008206201,-55351.2543815583,-7833.5388792164,-37880.5954261513,-51982.0434666793,-22436.3933704243,-35956.9433969282,-9187.8278710035,-11380.5928508595,-1334.2487951197
11334474200,24414,4,0,26207.2721251254,14392.5480193201,5968.5838194673,12170.2033684875,-45310.3006155111,-11380.1791491675,-50183.1468329819,-55350.9015183504,-7833.5632146101,-37881.7026865622,-51982.9682116379,-22437.5006308352,-35957.2354216520,-9187.3289954338,-11378.9867148789,-1334.0541119705
11334474200,24414,4,0,26204.3518778879,14391.6841128457,5968.4864778927,12168.9865988052,-45310.7021495062,-11379.5707643264,-50183.2563422533,-55351.4490647075,-7834.7313135051,-37882.3719098874,-51982.3719944935,-22437.2572768987,-35957.8559741900,-9188.8621252335,-11379.8871244438,-1332.1802866598
11334474200,24414,4,0,26203.3541267484,14390.0414737746,5967.6469068119,12166.7964133771,-45309.9355846064,-11381.0673910356,-50183.8160563072,-55352.6293312993,-7835.4005368303,-37883.3331579364,-51983.4062487235,-22438.0846802827,-35957.8073034027,-9193.8143778404,-11379.9844660184,-1329.2235363318
11334474200,24414,4,0,26204.7655795799,14389.7616167477,5965.9677646503,12169.5098097686,-45311.6999006457,-11382.0651421751,-50184.6069566007,-55352.8970206294,-7837.2135236569,-37884.8784554329,-51983.9537950805,-22438.9120836666,-35959.4499424738,-9194.0942348673,-11379.2300688154,-1327.2036986592
11334474200,24414,4,0,26203.5244745039,14388.8977102732,5965.7730815012,12167.9280091816,-45312.2961177900,-11382.3328315052,-50184.5339504197,-55352.5928282088,-7836.4104556666,-37884.6351014965,-51985.1340616723,-22438.6808974270,-35958.4765267279,-9188.9716345049,-11376.4314985461,-1326.0964382483
11334474200,24414,4,0,26205.8241692035,14390.5768524348,5968.5229809832,12167.6238167611,-45309.7287337604,-11379.7289443851,-50183.0859944978,-55350.5243197489,-7833.1008421308,-37881.6905188653,-51981.9096220143,-22435.9553333386,-35953.7797957543,-9184.1653942598,-11372.4283262913,-1325.9990966738
11334474200,24414,4,0,26210.1315338788,14392.6575285915,5970.5671540494,12172.2840446442,-45307.1735174276,-11376.7965294508,-50180.7862997983,-55348.8330098905,-7830.6916381598,-37879.2204764103,-51981.3620756572,-22433.2662723408,-35952.5265229815,-9182.1942273745,-11369.2038866333,-1323.9792590011
11334474200,24414,4,0,26208.2942116585,14392.7427024693,5969.8857630273,12170.5440639986,-45306.1392631976,-11375.9082875827,-50180.3604304095,-55348.3341343208,-7831.2756876073,-37879.3543210753,-51980.0601320972,-22430.9179068539,-35952.1979951673,-9181.5493394429,-11368.4373217334,-1324.5876438423
11334505518,24415,4,0,26209.5109813408,14396.4051792130,5972.6965009934,12171.8946783459,-45305.9932508357,-11375.5432566780,-50179.8980579302,-55347.4702278464,-7829.6452162331,-37878.9649547770,-51979.7194365861,-22431.2829377586,-35951.7234549912,-9181.6223456238,-11369.6175883252,-1324.1982775440
11334505518,24415,4,0,26214.9986126080,14397.5854458048,5973.9619414630,12177.5526573686,-45305.7498968993,-11374.6671825068,-50179.6182009033,-55347.8960972352,-7828.6231296999,-37876.9207817107,-51979.5004180433,-22431.9521610839,-35952.5386906783,-9181.2208116286,-11370.2868116505,-1323.6994019742
11334505518,24415,4,0,26214.4632339478,14398.9603955458,5976.7361763386,12182.7482639120,-45303.5232083807,-11373.2070588880,-50177.7078725021,-55346.7158306434,-7826.0314102767,-37875.3754842142,-51977.8942820627,-22432.0495026585,-35951.0298962723,-9181.2208116286,-11371.7347675724,-1322.2149429618
11334505518,24415,4,0,26211.1536204119,14399.3619295410,5975.5680774436,12181.6653388947,-45303.1946805665,-11372.3188170199,-50177.2576677196,-55346.3386320418,-7825.5568701006,-37875.1442979746,-51976.6288415931,-22430.4433666778,-35951.0785670596,-9182.3767428268,-11371.5035813328,-1324.5024699645
11334505518,24415,4,0,26213.1369549941,14395.5169373449,5974.2052953995,12185.7658527241,-45302.8539850554,-11372.6230094405,-50175.8462148882,-55344.6229867898,-7826.5546212400,-37873.9883667764,-51975.9717859647,-22430.3460251033,-35951.0663993628,-9181.4641655651,-11372.5986740469,-1327.8485865908
11334505518,24415,4,0,26211.1901235024,14397.1352410224,5973.1223703822,12187.9682058490,-45302.7566434808,-11373.1097173134,-50175.0066438074,-55343.6130679535,-7827.1265029907,-37874.9617825222,-51975.5824196663,-22430.4068635874,-35951.3462563897,-9182.5592582792,-11375.0565488051,-1328.6151514907
11334505518,24415,4,0,26209.9490184264,14396.9405578732,5973.1588734727,12187.0434608905,-45304.8859904248,-11374.2534808148,-50175.2986685311,-55343.9172603741,-7826.6032920273,-37874.2073853192,-51975.1930533680,-22429.2022616019,-35952.9888954608,-9183.3258231790,-11378.1228084045,-1325.5610595881
11334505518,24415,4,0,26216.4344008331,14401.6737919373,5977.5635797226,12194.1737312287,-45303.6205499553,-11374.6185117195,-50173.5465201886,-55343.1993662615,-7826.0070748830,-37872.9297771528,-51974.2196376222,-22427.5352871372,-35955.1547454953,-9182.8269476093,-11376.9547095095,-1321.5578873334
11334545333,24416,4,0,26218.4420708089,14402.5011953213,5979.3035603683,12196.9966368916,-45302.4281156666,-11373.3287358562,-50172.0012226921,-55340.3521252050,-7824.6686282325,-37871.7860136515,-51972.7838493971,-22427.7056348927,-35954.6558699255,-9186.6962751990,-11376.3219892747,-1321.4240426683
11334545333,24416,4,0,26218.7219278358,14407.0519139331,5982.2359753026,12193.4071663289,-45302.3551094857,-11373.4017420372,-50170.6627760416,-55340.4372990827,-7825.6542116751,-37872.2605538275,-51972.1389614654,-22426.9634053865,-35955.3859317349,-9187.0004676195,-11375.2877350447,-1322.6286446538
11334545333,24416,4,0,26223.8810312887,14409.6192979627,5982.9903725056,12195.7676995125,-45300.2987687226,-11373.0488788293,-50169.0809754546,-55337.5292195420,-7824.1089141786,-37871.2749703849,-51969.9852791278,-22425.6857972201,-35955.6171179745,-9185.9175426023,-11370.6518425552,-1323.2491971918
11334545333,24416,4,0,26226.0833844137,14408.7432237915,5982.4184907550,12197.1791523440,-45300.6516319305,-11372.7325187119,-50167.4748394740,-55337.5292195420,-7824.1819203596,-37870.0095299153,-51969.6445836167,-22424.6637106869,-35954.6680376224,-9182.5957613696,-11369.9461161395,-1322.9693401648
11334545333,24416,4,0,26225.1099686678,14408.7188883978,5985.0832163592,12192.5189244608,-45298.2910987468,-11370.4084886187,-50166.6717714837,-55336.9816731850,-7822.1377472933,-37868.7440894457,-51968.2574661789,-22423.1427485841,-35953.8041311479,-9181.2816501128,-11371.2358920027,-1323.4073772505
11334545333,24416,4,0,26226.3267383501,14408.3173544027,5985.2292287211,12192.1295581625,-45297.8530616612,-11368.8875265159,-50165.3698279236,-55335.6432265345,-7820.9818160951,-37866.9432703159,-51967.8315967901,-22422.8020530730,-35953.2809201845,-9183.0459661521,-11373.5842574895,-1326.6804876958
11334545333,24416,4,0,26226.8742847072,14408.3051867058,5986.8110293080,12193.7478618399,-45296.2104225901,-11367.5125767749,-50164.0192135763,-55332.6743085097,-7819.2783385399,-37864.7287494941,-51965.8725976016,-22420.5510291608,-35954.2300005367,-9183.9463757170,-11375.6405982526,-1324.8066623851
11334545333,24416,4,0,26224.3190683743,14407.8184788329,5987.6749357825,12191.2291485976,-45294.8354728491,-11365.9551115815,-50161.6830157863,-55332.8811593557,-7817.9277241926,-37862.9400980612,-51963.6702444767,-22419.2612532976,-35952.4291814069,-9184.1045557757,-11375.2025611670,-1321.4362103651
11334564087,24417,4,0,26225.2559810297,14406.9059015712,5988.1494759586,12192.8596199718,-45294.7502989713,-11366.6851733909,-50160.1012151993,-55331.5183773115,-7817.5991963784,-37863.4633090246,-51962.7941703054,-22417.8376327693,-35951.9424735340,-9184.5182574677,-11375.1903934701,-1320.6939808589
11334564087,24417,4,0,26230.5732645413,14408.7432237915,5990.1571459343,12198.5541020850,-45295.1883360570,-11367.4882413812,-50159.7361842946,-55330.6788062307,-7817.5748609847,-37862.7575826088,-51961.7477483786,-22420.0521535911,-35953.9379758130,-9185.5646793944,-11374.2169777243,-1321.4118749715
11334564087,24417,4,0,26227.5556757292,14411.1767631560,5991.3617479198,12193.9912157764,-45293.3388461399,-11366.0037823688,-50158.5437500059,-55330.9586632576,-7816.7717929944,-37861.7233283789,-51960.5553140900,-22418.3121729454,-35953.8041311479,-9183.1798108171,-11374.8131948686,-1323.0666817394
11334564087,24417,4,0,26229.0279670448,14413.7441471857,5993.3207471083,12195.0011346127,-45291.4650208291,-11364.9695281389,-50155.9398628858,-55328.3669438344,-7815.5671910089,-37859.0099319874,-51959.0951904712,-22415.7691243094,-35951.9546412308,-9182.6444321569,-11374.5698409322,-1322.6894831379
11334564087,24417,4,0,26232.6782760917,14412.8559053176,5992.5055114212,12197.3373324027,-45290.8201328975,-11363.3268890678,-50154.4432361766,-55327.1623418489,-7813.5108502459,-37857.9878454542,-51958.0122654540,-22414.5280192334,-35951.4314302675,-9183.9828788075,-11375.4702504971,-1321.6308935143
11334564087,24417,4,0,26231.9725496760,14413.4764578556,5993.0408900814,12193.9912157764,-45288.0093949314,-11364.5436587501,-50155.2828072574,-55327.2475157267,-7813.7055333950,-37857.4037960067,-51958.1096070286,-22413.5302680940,-35950.8108777295,-9185.6863563627,-11377.3319081110,-1319.5258819639
11334564087,24417,4,0,26234.5764367961,14413.2696070096,5996.9710561552,12194.6726067985,-45288.7637921345,-11363.8379323343,-50156.4022353651,-55328.5372915899,-7812.4279252286,-37857.3307898258,-51959.2412028331,-22416.1463229109,-35950.9812254850,-9186.8057844704,-11377.1737280523,-1318.8079878514
11334564087,24417,4,0,26235.1118154563,14411.3836140020,5995.3892555682,12197.4346739773,-45289.5790278216,-11363.6067460947,-50158.3003960695,-55329.3038564897,-7813.3283347935,-37858.8639196255,-51960.7865003296,-22418.4581853072,-35951.6869519007,-9188.6309389938,-11375.9204552795,-1319.0635094847
11334596506,24418,4,0,26230.3542459985,14412.3813651415,5996.3261682236,12195.8163702998,-45289.5546924279,-11363.4972368233,-50159.9430351406,-55330.2286014483,-7813.5838564268,-37860.4578879093,-51961.9059284374,-22418.2756698549,-35951.1759086342,-9187.9738833654,-11374.2169777243,-1317.9805844674
11334596506,24418,4,0,26228.6264330497,14412.2353527796,5994.2576597637,12193.6505202653,-45290.1509095723,-11363.0835351313,-50160.1742213802,-55329.5107073357,-7814.6789491409,-37861.3339620805,-51962.7089964277,-22418.8110485151,-35950.3728406439,-9185.2361515802,-11375.8839521890,-1320.0612606242
11334596506,24418,4,0,26234.1505674073,14411.6269679385,5992.1039774260,12199.6126917086,-45287.4010100903,-11363.5702430042,-50161.6100096053,-55329.0848379469,-7814.1192350870,-37859.9590123396,-51964.0352753814,-22419.3342594785,-35950.0078097392,-9183.3136554822,-11376.4314985461,-1324.0887682725
11334596506,24418,4,0,26232.1428974315,14411.1524277624,5991.5077602817,12198.7731206278,-45291.8300517338,-11363.7770938502,-50161.9507051164,-55331.6278865829,-7813.9002165442,-37861.0662727504,-51964.2907970146,-22421.1472463051,-35950.4336791280,-9184.3235743185,-11378.6338516710,-1329.1505301509
11334596506,24418,4,0,26229.5268426146,14407.4291125346,5991.3617479198,12195.7311964221,-45293.9837340715,-11363.2903859773,-50164.9561262316,-55335.3025310234,-7813.6811980014,-37861.2974589901,-51966.9555226189,-22424.0553258458,-35949.5332695631,-9189.3244977127,-11379.3030749963,-1330.6349891633
11334596506,24418,4,0,26233.0433069964,14407.8549819234,5989.9502950884,12196.3030781727,-45295.6507085362,-11365.2615528626,-50167.3531625058,-55337.5292195420,-7816.9421407499,-37863.2442904818,-51970.7518440276,-22427.2067593229,-35949.5211018663,-9191.1131491457,-11378.7920317297,-1331.5353987282
11334596506,24418,4,0,26227.7381911816,14405.3849394683,5986.3973276161,12192.7987814877,-45298.2059248690,-11370.1042961982,-50170.6141052543,-55339.5612249115,-7822.5879520758,-37866.9554380127,-51974.1101283508,-22428.8859014845,-35953.7432926638,-9192.0378941042,-11380.2034845612,-1330.8418400093
11334596506,24418,4,0,26227.3488248833,14405.0320762605,5984.8520301195,12190.3774098200,-45299.9702409084,-11371.4184074550,-50171.9038811175,-55340.5833114446,-7822.5514489853,-37868.0383630300,-51975.1565502775,-22429.8593172303,-35956.6148691140,-9192.3055834343,-11380.8848755833,-1328.5908160970
11334627858,24419,4,0,26231.0964755047,14405.6161257080,5984.9980424814,12194.3805820747,-45300.8219796860,-11370.7613518266,-50172.3175828095,-55340.4007959923,-7821.0426545793,-37866.7972579540,-51974.7306808887,-22429.8471495335,-35958.4886944248,-9190.5047643046,-11378.7068578520,-1328.2014497987
11334627858,24419,4,0,26227.4826695483,14405.5796226175,5984.6695146672,12194.1615635319,-45300.7489735050,-11370.2016377727,-50171.6848625747,-55340.6441499287,-7821.3225116062,-37866.5295686239,-51973.5625819937,-22429.4577832352,-35956.9068938378,-9188.7282805684,-11378.4148331282,-1327.4592202925
11334627858,24419,4,0,26222.3357337922,14405.5552872238,5984.2679806720,12188.3697398442,-45298.5466203801,-11370.3233147410,-50170.9669684622,-55342.2502859093,-7821.0791576697,-37867.4178104920,-51973.8546067175,-22429.2509323892,-35954.7532115001,-9188.8621252335,-11379.1327272408,-1326.7534938768
11334627858,24419,4,0,26223.0657956016,14400.5543638296,5981.5789196742,12188.6130937806,-45300.6881350209,-11370.9560349758,-50170.4680928924,-55341.6053979777,-7823.0259891614,-37868.6345801743,-51973.6112527810,-22429.6281309907,-35955.1182424048,-9190.2127395808,-11379.2300688154,-1327.2888725370
11334627858,24419,4,0,26221.2406410781,14400.4935253455,5980.7271808966,12187.4814979761,-45300.7246381114,-11371.8077737534,-50169.2269878165,-55340.8996715620,-7823.7195478803,-37868.3790585410,-51973.5017435096,-22427.6082933181,-35956.6270368109,-9191.0766460552,-11378.9623794853,-1328.0432697400
11334627858,24419,4,0,26219.4884927356,14399.3619295410,5981.1408825885,12186.6175915017,-45293.3753492303,-11370.5058301933,-50163.1066363145,-55334.8279908473,-7821.4441885744,-37866.5660717144,-51970.5693285753,-22423.9336488776,-35955.3007578571,-9188.6796097811,-11378.8407025170,-1327.4835556861
11334627858,24419,4,0,26223.4794972936,14399.5322772965,5979.6077527889,12192.7136076100,-45299.0576636467,-11369.3012282078,-50164.6519338111,-55338.1376043832,-7819.9110587747,-37864.6922464037,-51969.8757698564,-22423.7024626379,-35954.8748884683,-9188.9351314144,-11377.1007218713,-1328.7368284589
11334627858,24419,4,0,26220.9607840512,14399.2767556632,5980.8001870775,12192.7257753068,-45300.1405886639,-11371.5887552106,-50165.9782127648,-55341.2038639826,-7822.6244551662,-37865.9941899637,-51971.3845642624,-22424.7975553520,-35957.3327632266,-9190.8697952092,-11377.1493926586,-1332.4358082931
11334659045,24420,4,0,26213.8305137130,14396.8918870859,5975.9696114388,12184.0502074720,-45304.9954996963,-11374.7280209909,-50168.6307706722,-55343.9537634645,-7826.1044164576,-37870.5692439692,-51974.6333393141,-22429.3969447511,-35961.5671217210,-9192.1474033756,-11378.8772056075,-1332.7156653200
11334659045,24420,4,0,26214.5240724319,14394.5070185086,5974.1201215217,12186.0943805383,-45305.4943752660,-11376.1516415192,-50169.5676833275,-55345.1461977532,-7827.3941923208,-37872.6012493386,-51975.5215811822,-22431.7818133284,-35961.7739725670,-9192.8531297914,-11377.2832373237,-1330.1726166840
11334659045,24420,4,0,26215.7530098110,14392.9617210121,5974.9596926025,12188.7226030520,-45303.7543946203,-11374.0466299688,-50167.1463116598,-55343.5278940757,-7825.6785470688,-37870.0947037931,-51974.0249544730,-22429.0440815432,-35961.3602708750,-9190.2857457617,-11377.3440758078,-1327.7755804099
11334659045,24420,4,0,26215.0594510921,14396.8067132082,5978.5734985589,12187.4571625825,-45298.9846574657,-11370.3598178314,-50164.5180891460,-55342.8586707505,-7820.7384621587,-37867.7341706094,-51971.7982659544,-22428.0950011910,-35957.4787755885,-9189.0446406858,-11380.7023601309,-1326.8143323609
11334659045,24420,4,0,26216.1545438061,14397.8653028317,5978.5004923780,12187.6518457316,-45298.7413035293,-11368.5833340953,-50164.4207475714,-55342.5423106331,-7819.5460278700,-37865.5196497876,-51971.2263842037,-22427.8516472546,-35955.1547454953,-9187.3533308274,-11380.5320123754,-1328.5421453097
11334659045,24420,4,0,26213.9156875907,14397.9383090127,5975.2638850231,12186.6905976826,-45294.5312804285,-11369.3742343888,-50162.5347545639,-55340.6319822319,-7820.6046174936,-37866.0793638415,-51971.7009243798,-22427.8273118609,-35954.9357269525,-9185.2239838834,-11378.3296592505,-1327.6052326544
11334659045,24420,4,0,26209.8151737614,14398.6075323379,5975.2030465390,12181.4706557456,-45300.3474395099,-11370.0191223204,-50167.0854731756,-55347.2877123940,-7821.8822256600,-37867.0527795873,-51973.4895758128,-22427.5596225308,-35953.4756033337,-9184.2262327439,-11379.3517457836,-1327.2645371433
11334659045,24420,4,0,26209.8273414582,14395.5534404354,5974.1687923090,12180.7527616330,-45302.5254572412,-11371.6252583010,-50169.6893602958,-55349.4657301253,-7822.7826352249,-37868.2817169664,-51973.6112527810,-22429.0319138464,-35955.7996334269,-9184.4330835899,-11379.8262859597,-1326.9968478132
11334687334,24421,4,0,26212.4433962751,14393.3267519168,5973.7915937075,12184.8776108560,-45303.2311836569,-11372.9272018611,-50168.9836338800,-55348.6018236509,-7822.5757843789,-37868.6467478711,-51974.2074699253,-22429.5551248098,-35957.6977941313,-9185.3213254580,-11379.4977581455,-1326.2059475197
11334687334,24421,4,0,26210.2775462407,14392.5845224106,5976.0426176197,12181.1421279314,-45301.9900785810,-11371.4792459391,-50167.8642057723,-55346.4116382228,-7822.2594242615,-37867.6733321253,-51973.1002095145,-22429.2631000860,-35956.4201859649,-9186.1730642356,-11377.0277156904,-1324.1009359694
11334687334,24421,4,0,26212.0905330673,14392.7913732566,5977.5635797226,12181.5436619265,-45300.9801597447,-11369.0578742714,-50166.5865976059,-55344.1362789169,-7820.2639219826,-37865.9211837828,-51970.7761794213,-22427.2797655039,-35954.9357269525,-9185.3943316389,-11373.9492883942,-1322.2636137491
11334687334,24421,4,0,26215.8503513856,14395.9184713401,5975.5802451405,12184.9019462496,-45301.5885445858,-11368.5224956112,-50166.0268835520,-55342.6518199045,-7820.2517542858,-37866.5174009271,-51969.8514344627,-22425.7101326137,-35955.7996334269,-9184.2627358344,-11373.3409035531,-1324.5146376614
11334687334,24421,4,0,26210.9346018691,14393.2172426454,5972.3314700887,12180.2660537601,-45302.8661527522,-11369.9947869267,-50165.2238155617,-55341.2160316794,-7820.2152511953,-37866.2497115970,-51968.6711678709,-22424.6028722028,-35954.1326589621,-9187.0248030132,-11378.9380440916,-1329.0045177890
11334687334,24421,4,0,26212.0905330673,14394.5678569927,5974.4486493359,12180.7284262394,-45294.9571498173,-11369.5080790538,-50162.0358789941,-55336.8234931263,-7819.6798725351,-37867.4664812793,-51968.9388572010,-22424.3108474791,-35956.9433969282,-9186.6232690180,-11381.3715834562,-1328.6516545812
11334687334,24421,4,0,26213.2464642655,14393.1199010708,5973.4265628028,12182.3223945232,-45302.7931465713,-11370.3963209219,-50166.2580697917,-55340.5954791414,-7821.5658655426,-37868.1722076950,-51968.7806771423,-22424.0066550585,-35958.3791851534,-9185.4308347294,-11381.2742418816,-1327.4835556861
11334687334,24421,4,0,26209.5839875218,14394.6408631737,5973.1467057759,12178.5260731144,-45304.5817980043,-11372.3066493231,-50166.9759639042,-55342.7004906918,-7824.3522681151,-37869.7175051916,-51971.2385519005,-22425.9291511565,-35959.4499424738,-9183.6786863869,-11381.0673910356,-1326.0842705515
11334743116,24422,4,0,26208.1360315998,14395.0789002593,5972.3071346951,12175.9951921752,-45304.7643134566,-11373.6085928832,-50167.3044917185,-55343.3940494107,-7825.9219010053,-37870.2650515486,-51972.1024583750,-22426.3063497580,-35960.3990228260,-9183.0459661521,-11379.1813980281,-1324.0766005757
11334743116,24422,4,0,26212.3095516101,14394.0203106357,5971.5892405825,12179.8280166745,-45305.1293443613,-11373.4869159149,-50168.2049012834,-55342.6396522077,-7824.6807959293,-37870.1798776708,-51972.7108432161,-22428.7033860322,-35960.8978983957,-9183.5448417218,-11376.9425418126,-1322.0324275095
11334743116,24422,4,0,26213.1856257813,14396.8432162986,5974.1444569154,12181.9938667090,-45303.4502021997,-11372.5013324723,-50166.1607282171,-55341.1308578016,-7822.5757843789,-37869.4498158615,-51970.9221917832,-22427.0850823547,-35960.3503520387,-9183.1554754235,-11377.1493926586,-1322.4096261110
11334743116,24422,4,0,26213.4898182019,14394.8112109292,5976.0791207102,12180.4729046061,-45302.0995878524,-11371.8199414502,-50164.0070458794,-55339.6829018797,-7820.6289528873,-37867.7950090935,-51968.4521493281,-22424.8827292298,-35960.2773458577,-9183.0459661521,-11377.6847713188,-1322.6164769570
11334743116,24422,4,0,26216.0815376252,14395.9306390369,5976.9551948815,12184.9262816433,-45302.6349665126,-11372.8176925897,-50163.5933441875,-55337.4197102706,-7821.5902009363,-37867.1379534651,-51967.9046029711,-22423.2644255523,-35960.4841967037,-9184.2870712280,-11376.5896786048,-1322.3609553237
11334743116,24422,4,0,26213.3681412337,14395.2127449243,5975.1300403580,12182.4927422787,-45299.7025515783,-11373.0488788293,-50162.3279037179,-55336.2272759820,-7822.5879520758,-37867.1987919492,-51967.6977521251,-22423.1914193714,-35960.8492276084,-9185.3943316389,-11376.3219892747,-1318.0535906484
11334743116,24422,4,0,26212.3947254879,14395.4926019513,5975.9696114388,12179.0249486842,-45301.7102215541,-11370.6153394647,-50164.4329152682,-55339.7802434543,-7819.3878478113,-37864.8625941592,-51966.7608394697,-22421.1350786083,-35958.0141542487,-9186.2095673261,-11378.1958145854,-1319.5137142671
11334743116,24422,4,0,26218.6002508676,14398.0843213746,5978.6221693462,12186.2768959906,-45296.8553105217,-11367.5977506526,-50161.8168604513,-55337.9794243245,-7815.9443896104,-37862.4412224914,-51965.2277096700,-22421.0620724274,-35955.7509626396,-9183.4718355409,-11378.1471437981,-1321.5092165461
11334760498,24423,4,0,26217.2374688234,14399.5809480838,5978.6830078303,12187.7370196094,-45296.8066397344,-11366.5026579386,-50161.6586803926,-55337.6995672976,-7815.3968432534,-37862.0518561931,-51967.0528641935,-22422.7777176794,-35955.2520870699,-9183.2163139076,-11378.1106407076,-1324.6849854169
11334760498,24423,4,0,26216.6412516791,14402.1604998102,5979.3400634588,12185.3643187289,-45296.7214658567,-11365.5292421927,-50163.6298472779,-55339.0988524322,-7816.2120789405,-37863.3781351468,-51967.6369136410,-22423.7267980316,-35953.8162988448,-9184.5912636486,-11377.0885541745,-1326.0842705515
11334760498,24423,4,0,26220.5349146624,14401.7346304214,5979.0845418255,12189.1971432281,-45298.4006080182,-11367.0502042956,-50165.3941633173,-55341.6540687650,-7818.2927550973,-37865.4709790003,-51969.9731114310,-22426.4401944231,-35954.8992238620,-9184.4087481963,-11375.8961198859,-1325.0135132311
11334760498,24423,4,0,26216.7507609505,14402.3186798689,5978.3909831066,12189.8663665534,-45300.2866010258,-11369.4472405697,-50167.9493796501,-55343.4183848043,-7819.2661708431,-37867.9045183649,-51972.8811909716,-22428.9102368782,-35956.1281612411,-9185.1023069152,-11375.8109460081,-1321.6552289080
11334760498,24423,4,0,26209.4744782503,14401.3695995168,5977.5270766321,12187.0556285873,-45303.5110406839,-11372.2336431422,-50170.3950867115,-55345.9370980467,-7822.1377472933,-37870.2528838518,-51975.3390657299,-22431.0517515190,-35958.3061789724,-9188.4849266319,-11380.1669814707,-1322.8598308934
11334760498,24423,4,0,26206.5785664065,14400.7003761915,5976.8091825196,12188.9537892917,-45305.4578721755,-11373.8641145164,-50171.8673780271,-55346.5454828878,-7821.8700579632,-37870.7517594215,-51975.4120719108,-22432.2806888981,-35958.4765267279,-9187.1586476782,-11380.9213786737,-1325.5002211040
11334760498,24423,4,0,26203.5244745039,14399.1672463918,5978.0867906860,12190.2800682454,-45304.9468289090,-11373.4504128245,-50172.0742288731,-55346.1926196800,-7821.6632071172,-37871.2628026881,-51976.9452017105,-22432.4997074409,-35959.2065885373,-9188.6552743875,-11383.1237317987,-1328.8098346398
11334760498,24423,4,0,26198.7425696525,14398.8265508808,5976.5049900990,12187.0556285873,-45302.7079726935,-11373.3165681594,-50170.6627760416,-55345.4868932642,-7823.2815107947,-37871.2019642040,-51976.1543014170,-22430.0296649859,-35960.1800042832,-9189.7016963142,-11384.7177000825,-1328.1284436178
11334791736,24424,4,0,26202.6970711200,14398.8022154871,5978.0989583828,12192.1173904656,-45300.8463150796,-11371.4914136360,-50168.3509136452,-55342.1407766379,-7820.2760896794,-37869.8148467661,-51973.5990850842,-22427.6934671959,-35960.0218242245,-9189.5678516492,-11382.9290486495,-1328.7733315494
11334791736,24424,4,0,26205.6903245384,14398.3398430078,5978.3666477129,12195.1349792777,-45299.7633900624,-11369.9704515331,-50166.6596037868,-55340.5954791414,-7818.8037983638,-37868.0018599395,-51971.7009243798,-22426.8052253278,-35958.1723343074,-9189.0689760794,-11382.8195393781,-1328.9558470017
11334791736,24424,4,0,26203.8895054086,14397.9261413159,5980.6298393220,12193.3706632384,-45298.8386451038,-11368.8510234254,-50164.5667599333,-55341.3012055571,-7817.4896871070,-37868.7440894457,-51969.8392667659,-22425.5641202518,-35957.9533157645,-9188.6431066906,-11382.0164713878,-1325.7557427373
11334791736,24424,4,0,26207.0531065826,14400.2866744995,5982.9295340215,12194.6361037080,-45296.3077641647,-11365.6265837673,-50163.6298472779,-55341.9825965792,-7814.9709738646,-37865.5804882717,-51970.0826207024,-22425.1382508630,-35956.2376705125,-9186.8057844704,-11380.1791491675,-1324.3929606931
11334791736,24424,4,0,26208.1116962062,14400.2623391059,5981.6032550678,12193.6991910526,-45294.6042866095,-11364.9086896548,-50162.8024438940,-55341.4715533127,-7814.4477629012,-37866.8215933477,-51971.3723965656,-22425.7466357042,-35952.3196721355,-9186.0027164801,-11379.0475533630,-1326.4614691530
11334791736,24424,4,0,26207.8805099665,14403.3042633116,5983.2337264421,12191.2291485976,-45296.0765779250,-11364.4219817818,-50165.8322004029,-55346.2047873768,-7813.9123842410,-37867.2474627365,-51971.4697381402,-22424.8948969266,-35952.5751937688,-9186.6476044117,-11377.8551190744,-1326.7169907863
11334791736,24424,4,0,26207.2721251254,14401.2965933358,5981.8587767011,12189.4039940741,-45298.6439619547,-11365.9429438847,-50167.2436532343,-55345.4260547801,-7815.7132033708,-37867.5273197634,-51971.7617628639,-22425.6371264328,-35956.0308196665,-9189.3853361968,-11377.7212744093,-1327.5078910798
11334791736,24424,4,0,26206.4447217414,14397.6341165921,5979.0358710382,12190.9371238738,-45299.9580732116,-11369.7027622030,-50167.8277026818,-55347.3972216654,-7818.0372334640,-37867.5394874602,-51971.6887566830,-22427.9003180419,-35958.0141542487,-9188.2415726955,-11376.2611507906,-1327.0576862973
11334821784,24425,4,0,26199.3144514032,14395.6386143131,5978.2449707447,12186.1187159319,-45302.7688111777,-11373.0488788293,-50169.3851678752,-55348.9060160715,-7821.4685239681,-37870.4840700914,-51972.4431538860,-22429.7011371716,-35960.1556688895,-9187.5480139766,-11378.4635039155,-1327.4835556861
11334821784,24425,4,0,26196.8322412513,14394.7503724451,5975.9331083483,12184.6342569195,-45304.8494873344,-11374.1926423307,-50170.0543912004,-55350.0984503601,-7822.8921444963,-37871.9806968006,-51973.9276128984,-22431.2464346682,-35960.9587368798,-9187.4750077956,-11382.0043036910,-1328.1892821019
11334821784,24425,4,0,26199.7524884888,14395.9914775210,5976.6266670672,12189.1484724408,-45303.8760715885,-11374.0953007561,-50169.3364970879,-55350.2687981157,-7822.1742503838,-37871.3601442627,-51974.1344637444,-22431.3316085459,-35961.0560784544,-9186.1243934483,-11383.6834458526,-1328.3352944638
11334821784,24425,4,0,26200.0080101221,14397.6097811985,5978.4031508034,12189.4161617710,-45298.8629804975,-11372.3309847167,-50168.2900751611,-55350.3661396902,-7819.5338601732,-37870.0582007026,-51974.0371221698,-22431.9278256902,-35958.4156882438,-9186.0270518737,-11384.8393770507,-1329.7467472952
11334821784,24425,4,0,26202.8917542691,14399.4592711156,5981.4694104028,12188.9416215949,-45299.2280114022,-11369.3985697824,-50167.9007088628,-55349.4535624285,-7817.6843702561,-37868.8170956267,-51973.1610479986,-22430.8570683698,-35955.2034162826,-9186.1487288419,-11384.8637124444,-1332.7521684105
11334821784,24425,4,0,26206.2987093796,14400.0554882599,5979.5955850920,12192.8109491846,-45299.8607316370,-11368.1696324033,-50167.7060257136,-55347.9447680225,-7817.1246562023,-37867.7098352158,-51973.6234204778,-22429.0075784527,-35955.7144595491,-9187.0978091941,-11383.9633028795,-1334.3583043911
11334821784,24425,4,0,26202.9890958437,14399.5566126901,5980.3499822951,12188.7104353552,-45299.2766821895,-11368.6198371858,-50167.4626717772,-55349.4413947317,-7817.6722025593,-37868.4642324188,-51973.2948926636,-22428.8493983940,-35956.3836828744,-9188.7404482652,-11385.3869234078,-1331.5475664250
11334821784,24425,4,0,26205.0697720004,14401.4791087882,5981.3842365250,12187.7248519126,-45299.3010175831,-11368.8023526381,-50168.9471307896,-55351.4490647075,-7818.5847798210,-37869.8270144630,-51973.1123772113,-22429.3969447511,-35957.0650738965,-9188.3875850574,-11385.0340601999,-1328.5543130066
11334850406,24426,4,0,26207.5398144555,14398.6805385189,5980.7028455029,12190.1340558835,-45301.4790353144,-11371.2480596995,-50169.5190125402,-55351.3395554361,-7818.8037983638,-37870.4840700914,-51973.8789421111,-22430.7840621889,-35958.8172222390,-9185.9540456928,-11382.8317070749,-1325.1960286834
11334850406,24426,4,0,26205.0697720004,14400.3110098932,5981.0192056203,12187.2989825238,-45301.7345569477,-11371.1872212154,-50169.1418139387,-55351.5342385852,-7818.7916306670,-37869.5228220424,-51972.6135016415,-22431.3072731523,-35958.3791851534,-9184.4817543772,-11380.9335463706,-1324.6363146296
