timestamp,sequence,battery,flags,EEG-ch1,EEG-ch2,EEG-ch3,EEG-ch4,EEG-ch5,EEG-ch6,EEG-ch7,EEG-ch8,EEG-ch9,EEG-ch10,EEG-ch11,EEG-ch12,EEG-ch13,EEG-ch14,EEG-ch15,EEG-ch16
561540224684,46471,-2,0,8380.9757269774,10811.0959687586,13855.2955337999,2549.0229751349,-5338.8446703959,-2460.2839622052,-5273.9665109360,-20593.1454818072,-7608.3026433269,-2184.8316415275,-4666.9687872267,1202.0832722289,-21120.3596174485,11341.9239103562,13708.9911472009,18990.9396672527
561540224684,46471,-2,0,8384.3340113005,10810.7309378539,13847.9340772221,2549.0716459222,-5328.9279974852,-2458.6534908310,-5269.7808232289,-20583.0341257474,-7597.7532501814,-2175.5841919420,-4663.8903599305,1212.8151808267,-21111.7083850074,11351.7432416923,13719.3823602877,19001.4038865204
561540224684,46471,-2,0,8394.8225659619,10823.2636655815,13859.9679293800,2559.5115297963,-5320.3011004377,-2446.1572661938,-5258.5013682740,-20577.1084573946,-7589.2236947086,-2165.7283575154,-4650.0921917333,1217.9012780987,-21104.9674809675,11356.6711589056,13722.9231600632,19006.3318037337
561540224684,46471,-2,0,8400.0303402021,10831.5011963306,13872.6588371663,2567.9924144819,-5324.8153159591,-2438.5402879826,-5256.9195676870,-20580.5154125050,-7595.4413877851,-2169.8775421321,-4644.2273618646,1211.1603740588,-21111.0391616821,11350.2101118926,13714.6247908299,18998.4958069798
561540224684,46471,-2,0,8392.8392313798,10827.7170426187,13870.6876702810,2564.4394470096,-5331.7022323608,-2444.5024594259,-5262.3706958637,-20587.7551921147,-7604.3968126468,-2177.7378742797,-4650.2138687015,1204.0787745079,-21119.2645247344,11342.5566305910,13707.2511665552,18990.5381332576
561540224684,46471,-2,0,8383.3240924642,10818.3965868523,13857.2423652916,2554.2185816783,-5337.9077577405,-2456.4998084933,-5271.2531145445,-20590.6754393522,-7608.0349539968,-2182.3859344661,-4663.7930183559,1202.0467691384,-21123.2798646860,11339.0401662092,13705.6815336650,18992.5579709302
561540224684,46471,-2,0,8381.8152980582,10814.6246008372,13847.8002325570,2549.8138754284,-5333.2596975542,-2461.2330425574,-5272.5672258013,-20585.7353544421,-7601.9632732822,-2178.0420667003,-4666.4090731728,1209.3960580195,-21117.5488794824,11345.8175733396,13713.3958534508,19000.2479553223
561540224684,46471,-2,0,8386.3538489731,10819.4551764759,13851.8277402054,2553.9143892578,-5327.1271783554,-2453.5187227717,-5264.2445211744,-20578.6659225879,-7595.0033506995,-2172.6761124013,-4655.4216429417,1214.3118075360,-21114.5191229735,11351.4998877559,13718.8713170211,19004.3119660611
561540258406,46472,-2,0,8385.2344208654,10821.9130512341,13863.9345985442,2559.5845359773,-5327.5652154410,-2444.4902917290,-5260.0344980737,-20580.3207293559,-7597.3882192768,-2171.3741688413,-4644.8844174931,1210.4546476431,-21117.0378362158,11349.8572486848,13716.2917652947,19003.6670781295
561540258406,46472,-2,0,8382.2289997502,10820.9153000947,13870.8701857333,2557.7715491506,-5332.4566295639,-2446.1450984970,-5262.1881804114,-20585.7353544421,-7600.7586712967,-2174.7202854676,-4645.9430071167,1205.5510658234,-21120.9436668960,11345.9514180046,13712.0695744971,18997.7900805640
561540258406,46472,-2,0,8382.4845213834,10817.3258295319,13864.6889957473,2552.7949611501,-5332.9433374368,-2454.2487845810,-5268.5153827593,-20587.6943536306,-7601.0750314141,-2177.7622096733,-4655.1052828243,1205.9039290313,-21120.1162635120,11345.4647101317,13714.1015798665,18998.6904901289
561540258406,46472,-2,0,8386.8405568461,10815.7805320354,13857.7290731645,2549.0838136191,-5327.5895508347,-2458.4101368945,-5269.7078170480,-20582.6325917522,-7594.6261520979,-2173.6860312377,-4659.0597842918,1211.2820510271,-21113.4118625626,11350.1006026212,13717.6910504293,19004.3363014548
561540258406,46472,-2,0,8391.2817661864,10823.4461810338,13863.3748844904,2553.7440415022,-5324.3286080861,-2453.3727104098,-5264.1715149935,-20578.8606057371,-7590.1606073639,-2168.8311202053,-4651.8443400758,1214.9688631644,-21109.2261748555,11351.0253475798,13716.0605790550,19004.9811893864
561540258406,46472,-2,0,8392.6932190179,10825.3808448287,13870.5781610096,2559.9617345788,-5324.9613283209,-2443.7480622228,-5259.1584239025,-20579.7731829988,-7593.0321838141,-2172.0190567729,-4643.5459708425,1211.3550572080,-21114.9449923623,11347.0586784155,13711.7410466829,19001.9270974838
561540258406,46472,-2,0,8384.4070174815,10819.9297166520,13872.7561787409,2556.1897485637,-5332.8581635590,-2447.1550173333,-5263.4049500937,-20588.7164401637,-7602.2796333996,-2179.3318425635,-4646.1011871753,1203.6164020286,-21125.5430562951,11337.5192041063,13704.5134347700,18994.2006100013
561540258406,46472,-2,0,8374.4173383898,10809.4533296875,13864.5794864758,2548.4754287779,-5339.0150181514,-2458.1424475644,-5271.7641578110,-20592.4884261788,-7607.2318860065,-2183.8338903880,-4660.1183739154,1200.2094469182,-21130.4223027211,11335.8643973384,13704.0997330781,18991.9009153017
561540314822,46473,-2,0,8375.0257232310,10805.6813436723,13853.1418514623,2542.9391267235,-5334.7928273539,-2464.5913268805,-5274.8912558945,-20589.7141913032,-7602.2674657028,-2182.5684499184,-4667.1878057695,1205.1373641315,-21124.5088020651,11344.0897603907,13711.3151772941,18997.1573603292
561540314822,46473,-2,0,8380.7202053441,10814.1987314484,13855.1495214381,2546.3460818339,-5328.7089789424,-2458.6778262246,-5269.0872645100,-20584.3604047011,-7596.8771760102,-2176.4846015069,-4660.1670447027,1209.1892071735,-21118.6683075901,11349.1393545722,13715.9510697836,19000.9050109507
561540314822,46473,-2,0,8384.4800236624,10822.1077343833,13866.3316348183,2553.8657184705,-5330.9478351578,-2450.0995999644,-5264.1106765094,-20585.7475221389,-7600.2841311206,-2177.0564832576,-4651.2967937187,1207.1206987136,-21119.5687171550,11346.6936475108,13712.3250961304,18999.1163595177
561540314822,46473,-2,0,8382.4236828993,10819.3578349013,13868.2054601291,2553.9387246514,-5338.0537701024,-2449.2235257932,-5265.4977939472,-20590.9309609855,-7607.8159354540,-2184.1259151117,-4651.5158122616,1200.4528008546,-21123.5353863193,11340.0257496518,13707.7987129122,18993.8842498839
561540314822,46473,-2,0,8378.4205106446,10814.9652963482,13862.6204872874,2548.9864720445,-5340.9496819463,-2456.4268023124,-5272.0196794443,-20594.3135807023,-7610.7605180852,-2187.3625224666,-4660.5807463947,1198.9926772359,-21123.6935663780,11338.9306569378,13707.0199803156,18993.6895667347
561540314822,46473,-2,0,8376.2303252164,10810.1225530127,13854.6993166556,2542.6227666061,-5336.0826032171,-2464.6034945774,-5273.7353246963,-20588.3635769558,-7603.6180800501,-2182.9091454294,-4667.3824889187,1205.9525998186,-21115.6507187780,11346.1947719411,13713.8095551428,19000.4183030778
561540314822,46473,-2,0,8377.3862564146,10813.7971974532,13851.6573924499,2545.8472062642,-5326.9568305999,-2458.7508324055,-5268.6613951212,-20582.9367841728,-7595.0520214868,-2177.7378742797,-4661.3473112945,1212.8638516140,-21108.9949886159,11355.3205445583,13722.0227504983,19005.9667728290
561540314822,46473,-2,0,8380.0509820189,10822.3754237134,13860.1869479228,2552.1744086121,-5327.5652154410,-2449.6737305756,-5264.0863411158,-20586.0273791658,-7596.5729835896,-2179.1128240207,-4653.3287990882,1209.2865487481,-21113.0224962643,11350.5994781910,13715.0993310060,18998.9216763686
561540322273,46474,-2,0,8376.0234743705,10820.2095736789,13864.8958465932,2549.5340184015,-5335.8392492806,-2450.6714817151,-5269.0264260259,-20594.0458913721,-7605.7352592973,-2186.8514792001,-4654.6307426482,1199.3820435342,-21121.6980640990,11342.9824999798,13708.8694702327,18994.2979515758
561540322273,46474,-2,0,8372.7625316219,10816.5957677225,13861.7200777225,2545.1414798484,-5340.0249369877,-2459.6877450609,-5274.3072064470,-20598.5601068935,-7610.5658349360,-2189.9785772836,-4664.7420987081,1196.6808148395,-21123.0486784464,11342.5687982878,13707.2876696457,18993.2636973459
561540322273,46474,-2,0,8376.5831884243,10815.8900413068,13855.1130183476,2542.5132573347,-5336.4841372123,-2465.6255811105,-5276.6799073275,-20593.9728851912,-7606.6478365590,-2185.6225418210,-4670.9354563910,1201.9129244734,-21117.9139103871,11348.1781065232,13713.7000458714,19000.8198370729
561540322273,46474,-2,0,8379.4669325714,10817.4961772874,13853.7989070907,2542.9512944203,-5331.4832138180,-2463.7152527093,-5271.9466732634,-20588.6069308923,-7601.8659317076,-2179.6116995904,-4667.0904641949,1205.9160967281,-21112.7791423278,11353.4710546412,13718.5306215101,19005.7720896799
561540322273,46474,-2,0,8382.0708196915,10822.7404546181,13859.8097493213,2550.4952664505,-5331.0938475197,-2453.4822196812,-5266.4103712089,-20588.1688938067,-7602.2431303091,-2179.0398178397,-4656.5289033526,1204.3951346253,-21113.6917195895,11352.4733035017,13715.2696787615,19002.7788362614
561540322273,46474,-2,0,8380.6715345568,10822.3024175325,13866.8791811754,2552.7462903628,-5336.4476341218,-2451.4623820086,-5266.7510667200,-20592.6587739343,-7608.2539725396,-2183.6878780261,-4652.8664266089,1198.4694662725,-21120.9193315024,11343.7612325765,13707.0321480124,18997.0356833610
561540322273,46474,-2,0,8373.3952518567,10815.2694887688,13864.6768280504,2546.5407649831,-5342.3854701714,-2459.4443911244,-5274.2828710534,-20597.8908835682,-7613.0358773911,-2188.7983106917,-4659.8628522821,1193.9309153575,-21128.1956142025,11338.9184892410,13703.4061743592,18995.1131872630
561540322273,46474,-2,0,8368.5403408244,10810.7552732475,13851.1828522738,2537.9017002388,-5342.3367993841,-2470.3101443873,-5281.2792967266,-20595.7372012305,-7610.9430335375,-2188.6401306330,-4670.1810591880,1197.4108766489,-21126.1636088330,11341.5588794515,13708.2854207852,18998.7756640067
561540352793,46475,-2,0,8366.7760247850,10810.4145777365,13844.3811097498,2534.6407574902,-5338.5283102785,-2471.3565663141,-5279.7948377142,-20591.6245197044,-7606.7695135272,-2184.9776538893,-4669.8768667674,1201.9250921702,-21120.1649342993,11346.7301506013,13712.7874686096,19002.9735194106
561540352793,46475,-2,0,8367.9927944673,10815.0017994387,13852.5699697116,2540.2378980288,-5338.5526456722,-2463.8490973743,-5275.8281685499,-20592.8412893867,-7606.5504949844,-2182.7874684612,-4659.7411753139,1200.2824530991,-21121.9657534291,11345.7323994618,13710.9866494798,18999.3475457574
561540352793,46475,-2,0,8370.5115077097,10818.3357483682,13862.8760089206,2547.5020130321,-5340.3656324988,-2458.7021616182,-5272.8714182219,-20596.4429276463,-7611.6609276501,-2188.2994351220,-4656.2612140225,1194.4176232305,-21127.9522602660,11340.0500850455,13703.8807145352,18990.2947793211
561540352793,46475,-2,0,8367.4939188976,10817.3379972287,13861.2942083337,2546.3095787434,-5342.1421162349,-2462.4011414524,-5276.5217272688,-20598.5601068935,-7613.6807653227,-2191.8524025943,-4661.9556961356,1191.2540220565,-21130.7508305353,11337.4218625317,13702.4449263101,18987.1068427535
561540352793,46475,-2,0,8367.0923849024,10813.4443342454,13854.0909318145,2538.1815572657,-5342.8113395602,-2473.4494101676,-5281.8025076900,-20597.1364863652,-7611.6974307405,-2191.7915641102,-4672.8822878826,1194.1377662035,-21126.0054287743,11342.2402704736,13705.7180367555,18990.7206487099
561540352793,46475,-2,0,8370.9495447953,10812.8724524947,13849.6375547773,2536.7457690406,-5337.3237082930,-2474.4471613071,-5278.8335896652,-20592.0868921837,-7605.2120483339,-2188.9564907504,-4674.2694053205,1201.9250921702,-21121.5277163435,11346.3164489093,13711.2300034163,18996.0500999184
561540352793,46475,-2,0,8377.1915732655,10817.3623326224,13855.0035090762,2542.5497604251,-5335.8635846743,-2466.7328415214,-5272.7619089505,-20590.1887314793,-7604.1047879230,-2188.1412550633,-4664.7786017986,1202.8985079160,-21121.4060393753,11342.3741151387,13707.1659926774,18995.6850690137
561540352793,46475,-2,0,8377.0090578131,10818.5547669110,13865.2487098011,2547.3681683670,-5340.1831170464,-2460.2109560243,-5270.5717235224,-20596.0292259543,-7611.0160397184,-2189.6378817725,-4657.2711328588,1198.8344971772,-21130.4953089020,11336.7039684192,13703.1749881195,18992.1686046318
561540385875,46476,-2,0,8373.6751088836,10818.7737854538,13867.9499384958,2548.4632610811,-5344.0159415457,-2462.9608555063,-5272.7375735569,-20598.6087776808,-7615.8952861444,-2192.8866568243,-4661.0309511771,1195.7073990937,-21133.3060468681,11334.0392428150,13701.1308150533,18990.4894624703
561540385875,46476,-2,0,8372.6651900473,10816.1942337274,13857.3275391694,2544.6547719755,-5341.8135884207,-2469.9572811795,-5276.8989258703,-20595.9683874702,-7613.6442622322,-2191.6090486578,-4669.9255375547,1198.5546401503,-21130.5926504766,11338.7724768791,13706.2290800221,18995.6363982264
561540385875,46476,-2,0,8375.8409589181,10817.4840095906,13852.7281497703,2541.2843199556,-5338.1146085865,-2473.8996149501,-5278.6997450001,-20592.5370969661,-7608.2661402365,-2187.8979011268,-4673.5880142984,1202.3874646495,-21124.6426467302,11342.9703322830,13709.0519856850,19001.2578741586
561540385875,46476,-2,0,8377.3984241115,10821.6940326913,13855.2590307095,2543.7665301074,-5337.9320931342,-2468.5093252575,-5275.7673300658,-20593.9972205849,-7609.1178790141,-2188.7618076013,-4669.2441465326,1199.6375651675,-21126.2487827108,11340.4759544343,13708.2124146042,18998.9216763686
561540385875,46476,-2,0,8373.9427982137,10821.1829894248,13862.0607732335,2545.8107031737,-5344.5269848122,-2464.1289544013,-5276.4243856942,-20600.4947706883,-7617.3675774600,-2195.1863515238,-4664.1580492606,1192.7141456752,-21134.2429595235,11332.5669514994,13701.8973799531,18993.1176849840
561540385875,46476,-2,0,8369.3677442083,10817.9342143730,13862.8516735270,2545.4700076626,-5350.6838394046,-2466.6720030373,-5279.9043469856,-20605.1184954810,-7622.5266809130,-2198.9218344484,-4667.4676627964,1187.9079054302,-21140.3754787222,11328.3082576113,13697.7360276397,18989.9540838101
561540385875,46476,-2,0,8368.7471916703,10811.0351302744,13855.4415461618,2540.3474073002,-5351.0732057030,-2475.9681234100,-5286.0125307907,-20604.6317876081,-7622.5510163066,-2199.6518962578,-4676.7881185628,1188.6257995427,-21138.4529826242,11330.3037598903,13701.3376658993,18991.1708534924
561540385875,46476,-2,0,8367.8346144086,10810.8039440348,13846.1454257891,2536.6605951628,-5345.0988665629,-2478.5111720460,-5288.0567038569,-20599.6551996075,-7615.7614414794,-2195.4662085507,-4680.9859739667,1194.3689524432,-21132.1987864572,11337.0811670207,13705.2921673667,18996.2326153707
561540417483,46477,-2,0,8374.0523074851,10820.1122321043,13856.1959433648,2542.7322758775,-5339.1975336038,-2469.0082008273,-5280.0138562570,-20596.9539709128,-7608.9840343490,-2188.2142612442,-4669.1833080485,1197.2770319838,-21128.0617695374,11339.8554018963,13706.8131294696,18996.1474414929
561540417483,46477,-2,0,8380.0509820189,10828.5322783058,13871.5272413617,2554.1090724069,-5335.7297400092,-2455.5628958379,-5271.1192698794,-20594.9828040275,-7608.2418048428,-2184.4787783196,-4655.4094752449,1198.6033109375,-21128.1226080215,11337.9329057983,13705.0731488239,18993.4827158887
561540417483,46477,-2,0,8382.7887138040,10829.6882095040,13878.0856299493,2561.7868891022,-5333.8680823953,-2450.5376370500,-5265.5342970377,-20593.0724756263,-7607.7550969699,-2184.0894120213,-4653.2922959977,1198.0679322773,-21130.2884580560,11337.0081608397,13704.8662979779,18991.7183998494
561540417483,46477,-2,0,8382.5210244739,10827.5710302568,13875.8467737339,2556.1775808668,-5333.9897593636,-2457.7165781756,-5269.4157923242,-20591.4298365552,-7607.6699230921,-2183.2376732437,-4662.3085593435,1198.5424724534,-21130.0937749069,11337.3001855635,13707.1659926774,18992.9108341380
561540417483,46477,-2,0,8383.6039494912,10822.9716408577,13868.2054601291,2549.2176582841,-5331.6048907863,-2464.8833516043,-5271.9466732634,-20587.7916952052,-7604.2508002849,-2180.8284692727,-4668.3680723613,1202.6064831923,-21124.9225037571,11341.9482457499,13712.7996363065,18998.7026578258
561540417483,46477,-2,0,8388.0694942252,10827.8995580710,13868.7286710925,2550.3979248759,-5329.3538668740,-2462.0847813350,-5268.2355257324,-20583.2166411997,-7601.5495715902,-2180.5851153363,-4663.2333043021,1206.2446245424,-21121.6737287054,11344.2236050558,13714.4909461649,19002.1582837235
561540417483,46477,-2,0,8387.5341155650,10831.1848362132,13876.9540341448,2556.0315685050,-5331.4832138180,-2453.5065550748,-5263.8794902698,-20587.9012044766,-7606.6600042558,-2182.4954437375,-4653.5113145405,1202.4118000431,-21127.4047139090,11339.7458926249,13709.3926811960,18996.9261740896
561540417483,46477,-2,0,8381.8031303614,10827.0113162030,13880.1176353187,2556.0680715954,-5336.8613358138,-2455.6359020189,-5267.3229484707,-20593.2914941691,-7613.4860821735,-2187.4963671317,-4654.9836058561,1197.7029013726,-21131.1280291368,11335.1951740131,13705.8153783301,18993.2393619523
561540447201,46478,-2,0,8378.8463800334,10822.0590635960,13873.9851161200,2552.1987440057,-5336.7031557551,-2462.0726136382,-5271.8980024761,-20593.7903697389,-7612.8290265451,-2189.5770432884,-4662.7709318228,1199.4185466247,-21127.5750616645,11337.7017195587,13708.3584269661,18994.6508147837
561540447201,46478,-2,0,8376.9117162385,10817.9220466762,13862.5474811064,2545.4700076626,-5331.7874062386,-2467.7305926609,-5273.3216230044,-20589.6898559095,-7605.8326008719,-2185.6468772146,-4667.8205260043,1205.2103703124,-21120.5664682945,11345.1605177111,13714.3692691966,18999.2623718796
561540447201,46478,-2,0,8377.7999581066,10818.7616177570,13861.7565808129,2544.4235857359,-5329.2200222090,-2464.0316128267,-5270.8150774588,-20588.9111233129,-7602.5959935170,-2181.8383881090,-4662.6614225514,1207.4005557405,-21115.2856878733,11348.6283113057,13716.8149762580,19001.0996940999
561540447201,46478,-2,0,8377.9946412558,10821.0491447597,13865.8084238550,2548.1834040542,-5334.0749332413,-2456.0496037108,-5268.2355257324,-20592.8291216899,-7607.3778983684,-2186.3769390240,-4656.2368786289,1202.2292845908,-21119.9094126661,11343.0798415544,13709.7820474944,18995.4782181677
561540447201,46478,-2,0,8372.3123268395,10816.9851340209,13866.3194671215,2545.2266537262,-5340.2682909242,-2455.8427528649,-5271.1436052731,-20597.9882251428,-7613.8632807750,-2189.9177387995,-4654.3387179245,1196.7781564141,-21126.9423414297,11337.7625580428,13706.6792848045,18992.4849647492
561540447201,46478,-2,0,8369.3677442083,10813.3104895803,13861.6105684510,2539.6173454908,-5343.1763704649,-2463.7395881029,-5274.6479019581,-20596.3212506780,-7613.2913990243,-2189.1390062028,-4660.5077402137,1197.1675227124,-21127.4047139090,11336.4971175732,13708.5409424184,18994.4074608473
561540447201,46478,-2,0,8372.4583392013,10814.1500606611,13854.4802981128,2537.2081415199,-5335.0848520776,-2466.1852951644,-5274.7939143199,-20591.8678736408,-7605.4554022704,-2183.2985117278,-4665.5938374857,1205.2103703124,-21122.5498028766,11347.4358770170,13720.2949375494,19004.8230093277
561540447201,46478,-2,0,8377.2402440528,10818.6642761824,13854.6749812620,2540.7489412953,-5326.9933336904,-2459.5417326990,-5268.0773456737,-20585.0782988136,-7596.5608158928,-2175.4625149738,-4658.0985362428,1211.1847094525,-21115.4438679320,11352.0961049002,13722.7406446108,19007.0131947558
561540478330,46479,-2,0,8383.1415770119,10825.4295156160,13870.1157885303,2552.1135701280,-5324.2677696020,-2446.0477569224,-5259.5112871103,-20583.6668459822,-7594.7964998535,-2171.0456410271,-4645.2616160946,1210.8196785478,-21114.5921291544,11350.5386397069,13723.7992342344,19008.1569582572
561540478330,46479,-2,0,8382.9833969532,10826.3907636650,13876.3821523941,2555.6787052971,-5326.0807564286,-2442.1175908486,-5259.1097531152,-20588.2418999876,-7599.7487524604,-2176.3142537514,-4643.7041509012,1204.4681408062,-21118.0842581426,11346.8031567822,13714.6369585267,18998.0212668037
561540478330,46479,-2,0,8376.4980145466,10820.7571200360,13871.9652784474,2549.6070245824,-5330.4611272849,-2451.2190280721,-5266.6050543581,-20591.1864826188,-7605.0417005784,-2181.8505558058,-4654.6672457387,1200.4649685515,-21120.8219899278,11343.6760586987,13710.4512708196,18994.5048024218
561540478330,46479,-2,0,8372.5800161696,10815.3789980402,13863.4235552777,2540.7611089922,-5331.5683876958,-2460.1379498434,-5272.4212134395,-20589.8602036651,-7603.5207384755,-2180.3782644903,-4664.3283970161,1203.4703896667,-21118.2424382013,11347.2533615647,13714.3205984093,18999.2137010923
561540478330,46479,-2,0,8375.5611018912,10818.1288975222,13860.0652709545,2542.1238910363,-5325.7887317049,-2458.2641245326,-5268.9290844513,-20584.6889325153,-7598.9335167733,-2176.6184461720,-4660.0940385217,1209.3717226259,-21114.3122721275,11351.9744279320,13719.2606833194,19003.9469351564
561540478330,46479,-2,0,8379.1749078476,10824.2005782369,13869.5804098701,2550.2032417268,-5326.1294272159,-2448.3352839251,-5260.6428829149,-20583.2896473807,-7598.5563181718,-2175.3165026119,-4647.9020063051,1208.7876731783,-21117.8530719030,11349.9789256530,13717.4841995833,19002.1826191171
561540478330,46479,-2,0,8381.2190809139,10827.1816639585,13882.9648763753,2558.1365800553,-5328.5142957932,-2444.1982670053,-5257.2359278044,-20584.5672555471,-7601.1723729887,-2175.9978936340,-4642.9497536982,1204.6506562585,-21121.6128902213,11344.7468160191,13711.6680405019,18998.3254592242
561540478330,46479,-2,0,8380.9635592806,10826.8166330538,13883.1960626149,2556.3722640160,-5328.1492648885,-2448.0797622918,-5260.1561750419,-20586.8061117625,-7602.5838258202,-2178.3340914240,-4649.5203099826,1202.7159924637,-21121.6250579181,11344.6129713541,13709.0398179882,18998.0577698941
561540511070,46480,-2,0,8382.3750121120,10824.0180627845,13873.2550543106,2548.8647950762,-5324.5232912353,-2454.5773123953,-5263.8308194825,-20584.7254356058,-7598.7023305336,-2176.6062784752,-4659.9480261599,1206.6461585375,-21117.5610471792,11348.9690068167,13711.9600652257,19004.7986739340
561540511070,46480,-2,0,8385.7332964352,10828.3132597630,13870.8580180365,2548.0495593891,-5319.9847403203,-2453.8472505859,-5263.0642545826,-20581.8903622460,-7592.8861714523,-2171.6053550809,-4660.0453677344,1209.4690642004,-21112.2194282740,11352.8383344064,13715.3670203361,19010.5296591377
561540511070,46480,-2,0,8385.2952593495,10831.2578423942,13877.4042389272,2552.0648993407,-5321.4935347264,-2447.2766943015,-5259.2922685675,-20585.5528389897,-7596.1227788072,-2173.6495281472,-4653.0732774549,1204.5654823808,-21115.7115572621,11350.0884349244,13710.6581216656,19007.3903933573
561540511070,46480,-2,0,8381.8518011486,10827.9968996456,13880.7503555535,2553.6710353213,-5328.2344387663,-2446.1694338906,-5261.4216155115,-20592.6466062375,-7604.5184896150,-2180.0740720697,-4651.8808431662,1196.7416533236,-21122.4767966957,11343.2501893099,13702.6639448530,19001.1118617967
561540511070,46480,-2,0,8376.4493437593,10824.1762428432,13878.0734622525,2551.6755330423,-5333.2353621605,-2451.9734252752,-5267.1647684120,-20597.3190018175,-7607.1832152192,-2182.9943193072,-4658.8407657490,1193.0305057926,-21124.8129944857,11340.1352589232,13700.3399147598,18998.9946825495
561540511070,46480,-2,0,8376.6561946053,10821.1829894248,13866.8791811754,2546.9179635846,-5330.4976303754,-2459.8824282101,-5269.8294940162,-20592.3180784233,-7603.3260553264,-2179.7698796491,-4665.6668436666,1200.1607761309,-21120.2987789644,11344.1262634812,13706.6549494109,19004.4701461198
561540511070,46480,-2,0,8385.3439301368,10828.9094769073,13866.2221255469,2549.9963908808,-5320.5931251615,-2455.4290511729,-5261.9813295654,-20581.3549835858,-7593.5310593839,-2172.4205907681,-4659.3639767124,1210.9778586065,-21112.4749499072,11353.8239178491,13716.0849144487,19010.5539945313
561540511070,46480,-2,0,8389.9798226264,10836.3439396662,13877.6110897732,2558.7449648965,-5316.1640835179,-2442.5191248437,-5253.7072957258,-20576.9502773359,-7589.3332039800,-2167.4683381611,-4645.2859514882,1214.5308260788,-21114.5434583671,11353.4102161571,13715.9510697836,19011.0772054947
561540541209,46481,-2,0,8385.7576318288,10835.1028345902,13886.6030177254,2562.0302430387,-5320.0577465013,-2436.1554194053,-5251.3102594517,-20581.2089712239,-7595.5752324501,-2170.2182376431,-4639.5914693751,1210.6006600050,-21122.2699458497,11346.1582688506,13708.5287747216,19003.7157489168
561540541209,46481,-2,0,8383.9811480927,10833.7278848492,13887.0288871142,2560.4849455422,-5326.1415949128,-2442.1054231518,-5255.6662949143,-20585.0661311168,-7601.0385283236,-2176.7036200497,-4645.9795102071,1206.2446245424,-21127.6845709359,11341.3885316960,13706.1195707507,18999.1528626082
561540541209,46481,-2,0,8381.8761365423,10830.1019111960,13878.6210086095,2552.5029364263,-5327.4070353823,-2452.2046115148,-5262.0543357463,-20584.2995662170,-7601.0263606268,-2175.9735582404,-4655.3364690640,1208.4348099705,-21124.4601312778,11344.7224806255,13710.3052584578,19004.7378354499
561540541209,46481,-2,0,8387.1690846603,10831.7323825703,13873.7660975772,2550.6656142060,-5323.0509999197,-2454.6381508794,-5260.8375660640,-20577.9845315659,-7594.5531459170,-2169.7923682543,-4656.7722572891,1214.5429937756,-21116.5754637366,11351.6945709050,13717.0339948008,19011.4787394898
561540541209,46481,-2,0,8389.9919903232,10835.4191947076,13875.8102706434,2558.0270707839,-5323.5133723990,-2449.1505196122,-5255.1917547382,-20578.1913824119,-7594.2246181028,-2169.2691572909,-4646.8312489847,1215.1148755263,-21116.0279173795,11353.4710546412,13718.0682490308,19010.8216838614
561540541209,46481,-2,0,8389.1645869392,10836.6968028740,13882.9405409817,2562.2370938847,-5326.5187935143,-2441.6795537629,-5253.9749850559,-20583.0584611410,-7600.5883235412,-2171.4715104159,-4640.8569098447,1209.7002504401,-21122.5254674830,11347.6183924694,13711.3395126877,19006.7333377289
561540541209,46481,-2,0,8381.9369750264,10834.3849404777,13881.0180448836,2558.9031449552,-5331.5927230894,-2445.6462229272,-5258.6473806359,-20587.9133721734,-7605.9421101433,-2177.3850110718,-4647.0502675275,1204.9670163759,-21126.6746520996,11343.7490648797,13709.3318427119,19003.9225997628
561540541209,46481,-2,0,8376.9482193290,10828.5687813963,13873.2428866138,2549.5826891888,-5333.6368961557,-2457.0716902440,-5265.7411478837,-20588.5825954986,-7605.8569362655,-2179.8307181332,-4660.0697031281,1205.9282644250,-21125.1171869063,11345.7810702491,13711.0109848735,19007.8405981398
561540570984,46482,-2,0,8379.6007772364,10827.7292103155,13866.6966657230,2545.8228708705,-5329.2078545121,-2461.3182164352,-5268.6005566371,-20584.7984417867,-7601.2818822601,-2175.9735582404,-4663.0142857592,1211.0021940001,-21119.1550154630,11349.7964102007,13716.3161006883,19013.9122788544
561540570984,46482,-2,0,8383.8594711244,10833.0708292208,13872.8170172250,2549.8138754284,-5326.3119426683,-2456.4146346155,-5264.1350119030,-20583.1801381093,-7599.7730878541,-2174.7202854676,-4655.0809474307,1210.9170201224,-21118.2424382013,11348.1781065232,13715.3305172456,19014.1069620036
561540570984,46482,-2,0,8383.2145831928,10834.8959837442,13878.2073069175,2555.5205252384,-5332.0672632655,-2452.0342637593,-5262.4315343478,-20585.8813668040,-7605.5649115418,-2180.9623139378,-4650.4085518507,1203.9205944492,-21124.3992927937,11341.0721715786,13707.4823527948,19005.2245433228
561540570984,46482,-2,0,8375.0622263214,10828.5809490931,13875.0923765309,2550.4952664505,-5339.9762662004,-2457.7530812661,-5270.1093510431,-20595.2261579640,-7613.5590883544,-2188.5549567553,-4655.6771645750,1195.1355173430,-21132.2839603350,11333.4430256706,13700.9726349946,18999.2502041828
561540570984,46482,-2,0,8370.4141661351,10822.9838085546,13867.7065845593,2542.5010896378,-5342.2637932032,-2469.5314117907,-5279.0891112984,-20598.4992684093,-7615.5424229366,-2192.2052658022,-4668.2098923026,1193.1886858513,-21130.8968428972,11335.6210434019,13702.5179324911,19000.3452968968
561540570984,46482,-2,0,8374.5511830549,10825.1739939827,13861.3550468178,2541.2356491683,-5338.0659377992,-2474.1186334929,-5277.3247952591,-20592.9507986581,-7607.8159354540,-2189.5770432884,-4671.1666426306,1200.8056640625,-21122.3672874243,11343.9559157256,13710.0619045213,19007.1227040272
561540570984,46482,-2,0,8382.4845213834,10832.2190904432,13867.9134354053,2547.7210315749,-5333.9532562731,-2467.7305926609,-5271.8249962951,-20586.2585654055,-7604.7010050673,-2185.7198833955,-4661.1526281453,1205.5754012171,-21119.0333384948,11346.1217657601,13712.0574068003,19010.0307835679
561540570984,46482,-2,0,8387.3272647190,10838.5462927911,13878.9617041206,2552.8314642405,-5337.0560189629,-2459.2497079753,-5267.4567931357,-20591.0891410442,-7610.7240149947,-2187.3746901635,-4653.6816622960,1199.3942112310,-21125.8715841093,11339.4538679012,13704.8541302811,19003.3020472248
561540602327,46483,-2,0,8383.2389185865,10836.3196042725,13881.4560819693,2552.5151041231,-5341.9109299953,-2461.1600363765,-5270.6812327938,-20597.8908835682,-7617.7326083647,-2193.7262279050,-4657.0764497096,1192.1422639246,-21132.7585005111,11333.0171562818,13698.3322447840,18995.4173796836
561540602327,46483,-2,0,8378.4691814319,10830.0167373182,13874.8246872008,2546.1757340784,-5343.0060227094,-2468.0226173846,-5276.0471870927,-20597.8057096904,-7617.5379252155,-2192.8258183401,-4667.7840229138,1191.7285622326,-21133.0991960221,11335.0978324385,13700.1208962170,18995.1496903535
561540602327,46483,-2,0,8379.5034356618,10831.6837117830,13868.2054601291,2544.6669396723,-5335.2308644395,-2470.4439890524,-5275.8525039435,-20592.4032523011,-7609.5559160997,-2186.0727466034,-4670.4000777308,1198.1896092456,-21125.7377394442,11341.9604134467,13708.0907376360,19002.1217806330
561540602327,46483,-2,0,8384.9667315353,10837.4877031675,13871.5515767554,2550.5682726315,-5327.0298367808,-2459.5417326990,-5267.7609855563,-20585.5771743834,-7602.5959935170,-2178.4801037859,-4662.2477208594,1205.2590410997,-21119.9702511502,11347.5088831979,13712.2520899494,19006.4169776115
561540602327,46483,-2,0,8387.4246062936,10843.4863777012,13882.1131375977,2560.0225730629,-5324.5962974162,-2446.3154462525,-5259.6451317754,-20583.6425105885,-7601.1602052919,-2175.5111857611,-4648.6685712050,1206.4879784788,-21121.8805795514,11346.3042812125,13711.4246865655,19005.8085927704
561540602327,46483,-2,0,8384.3340113005,10842.7319804982,13890.8373762198,2562.7481371512,-5326.0564210350,-2441.8985723058,-5257.2359278044,-20583.7520198599,-7603.2652168422,-2174.2214098979,-4643.9231694440,1203.6285697254,-21128.1347757184,11341.4858732706,13708.6747870835,19004.7986739340
561540602327,46483,-2,0,8383.9324773054,10838.8261498180,13884.7656955051,2559.5845359773,-5328.1249294949,-2448.3474516219,-5259.7059702595,-20583.0462934442,-7603.8127631993,-2175.3165026119,-4653.3531344818,1205.6970781853,-21128.9500114055,11342.3984505323,13710.0862399150,19005.5044003498
561540602327,46483,-2,0,8385.1979177750,10837.7553924976,13876.0414568831,2555.1919974242,-5322.7224721055,-2453.7620767081,-5262.0543357463,-20579.8340214830,-7598.2764611448,-2172.0677275602,-4658.5122379348,1211.3672249048,-21122.2577781529,11347.2533615647,13716.1822560232,19013.4742417688
561540631201,46484,-2,0,8388.5318667044,10841.2718568794,13877.4285743209,2556.4452701969,-5318.8774799095,-2450.0874322676,-5257.5157848314,-20575.8065138346,-7593.3120408411,-2165.9717114519,-4652.6474080661,1214.3483106264,-21116.0887558636,11351.7919124796,13717.6545473388,19018.0371280774
561540631201,46484,-2,0,8392.4620327783,10846.7838235402,13886.1041421556,2565.9117383252,-5319.7170509902,-2439.6597160903,-5251.3832656326,-20575.1737935998,-7595.6604063279,-2167.2493196183,-4642.3170334634,1213.1802117314,-21118.8508230425,11347.9104171931,13714.0042382919,19016.2728120381
561540631201,46484,-2,0,8392.9609083480,10850.3976294967,13892.3948414131,2570.3772830592,-5324.4137819639,-2439.7205545745,-5250.0569866789,-20578.0818731404,-7602.1092856441,-2172.6396093109,-4641.0637606907,1207.4978973151,-21127.3803785153,11339.9770788645,13706.3264215967,19007.9501074112
561540631201,46484,-2,0,8388.1546681029,10843.1700175838,13886.1771483366,2563.9405714399,-5328.7576497297,-2447.6538929030,-5257.0777477457,-20581.5618344318,-7605.2607191212,-2176.7522908370,-4650.6032349998,1204.8210040141,-21131.3227122860,11336.0469127907,13703.6738636893,19006.7941762130
561540631201,46484,-2,0,8387.2907616285,10839.6170501115,13875.6885936752,2556.0559038986,-5323.1240061007,-2453.0806856860,-5258.5622067581,-20577.4613206025,-7599.9921063969,-2171.4958458095,-4655.8596800273,1211.1482063620,-21124.1802742509,11344.4182882049,13711.5950343210,19013.2187201355
561540631201,46484,-2,0,8391.7319709689,10846.9541712958,13879.4240765998,2562.5169509116,-5314.5944506278,-2448.0797622918,-5251.0912409088,-20567.9948524742,-7590.1971104544,-2164.1343892316,-4647.4152984322,1219.7264326222,-21116.0765881668,11349.4435469928,13716.5472869279,19019.1808915788
561540631201,46484,-2,0,8394.1533426366,10851.5778960885,13891.1780717308,2569.6593889467,-5314.3632643881,-2436.9463196988,-5244.1678214166,-20570.8055904403,-7590.2336135449,-2163.8180291142,-4638.1921842404,1216.6845084164,-21120.8219899278,11347.9104171931,13715.5738711821,19012.7806830499
561540631201,46484,-2,0,8391.1357538246,10849.6797353841,13895.9843119759,2571.8982451621,-5319.3520200856,-2436.0094070435,-5245.5306034608,-20577.1206250914,-7596.5486481960,-2169.7923682543,-4636.8659052867,1209.3717226259,-21125.8594164125,11342.8243199211,13708.2124146042,19008.6558338269
561540689713,46485,-2,0,8384.3583466942,10842.7684835887,13888.2456567965,2565.0843349412,-5323.5012047022,-2443.0788388976,-5252.0159858674,-20580.3450647495,-7600.2597957270,-2174.7689562549,-4645.7969947548,1206.4879784788,-21124.6426467302,11343.5422140337,13706.8861356505,19005.1150340514
561540689713,46485,-2,0,8381.8396334518,10840.2010995590,13880.0932999251,2557.0536550381,-5318.5489520952,-2448.3352839251,-5254.9727361954,-20576.6825880058,-7593.4580532029,-2168.0523876086,-4651.1629490537,1212.6326653744,-21115.3708617511,11351.6215647241,13714.3205984093,19013.9244465513
561540689713,46485,-2,0,8385.5386132860,10843.9609178773,13879.3754058125,2559.0491573170,-5310.2992536493,-2444.3442793672,-5249.0105647521,-20568.4572249535,-7583.3588648399,-2160.8004403022,-4644.8722497962,1222.2086427741,-21107.5835357844,11359.1168659670,13721.7063903809,19021.1398907673
561540689713,46485,-2,0,8390.0163257168,10850.4949710712,13887.1748994760,2566.2280984426,-5308.4132606417,-2435.0724943881,-5242.6833624042,-20567.9705170806,-7584.1497651334,-2159.7783537690,-4633.6901364159,1221.4785809647,-21112.2559313644,11355.6490723725,13720.5382914859,19020.0082949627
561540689713,46485,-2,0,8388.0694942252,10847.8424131638,13894.3538406016,2568.1384268438,-5315.4340217086,-2432.8944766568,-5242.1601514408,-20574.4193963967,-7590.1727750608,-2164.4629170459,-4629.6869641612,1213.3018886997,-21120.7976545341,11347.7887402249,13712.1790837685,19013.9731173385
561540689713,46485,-2,0,8384.8815576576,10842.6589743173,13892.6381953495,2564.0135776208,-5321.3840254550,-2439.5258714253,-5247.5504411334,-20576.0742031647,-7594.8938414281,-2166.5557608994,-4636.9754145581,1210.4668153399,-21122.1482688815,11345.9514180046,13711.4611896559,19011.9046088786
561540689713,46485,-2,0,8384.2488374228,10839.6900562925,13880.8842002186,2559.0004865298,-5318.3177658556,-2446.4371232207,-5250.9330608502,-20574.5654087586,-7590.6108121464,-2166.1177238138,-4646.4783857769,1216.1612974531,-21118.1329289299,11351.3782107876,13717.2043425564,19016.2119735540
561540689713,46485,-2,0,8386.5850352128,10842.0140863856,13878.3046484921,2558.0879092680,-5313.3655132487,-2445.6583906241,-5250.7627130946,-20569.9173485723,-7585.5733856617,-2159.9852046150,-4644.8965851899,1221.2838978155,-21113.0103285674,11357.6080715610,13723.6288864789,19023.2692377113
561540701173,46486,-2,0,8387.7166310173,10847.5868915306,13886.7490300872,2564.8531487016,-5310.9684769745,-2437.1896736353,-5245.0682309815,-20570.7934227435,-7585.2083547570,-2157.8801930646,-4635.9289926314,1219.8237741968,-21114.7746446068,11356.0506063677,13721.3413594762,19020.6166798039
561540701173,46486,-2,0,8384.4800236624,10848.5968103669,13890.7156992515,2567.7125574550,-5315.9085618847,-2434.0382401581,-5244.4841815340,-20577.3518113311,-7591.5842278922,-2164.3777431681,-4633.1790931494,1211.0386970906,-21121.5398840403,11347.6792309535,13713.3350149667,19011.1623793724
561540701173,46486,-2,0,8382.9468938627,10844.5936381121,13892.5408537750,2565.4128627554,-5320.9459883694,-2438.2969340462,-5250.3125083122,-20581.2089712239,-7595.4170523914,-2166.4340839312,-4639.5184631941,1206.2081214519,-21125.6282301728,11343.3475308845,13708.9059733231,19007.1835425113
561540701173,46486,-2,0,8385.1979177750,10841.7098939651,13885.6904404636,2561.0568272928,-5319.3885231760,-2446.5344647953,-5253.4517740925,-20577.7046745389,-7591.6694017700,-2164.0248799602,-4646.9407582561,1210.6980015796,-21119.0455061916,11349.1636899659,13714.4544430744,19012.3548136611
561540701173,46486,-2,0,8391.5616232134,10844.6544765962,13880.7381878567,2560.0469084565,-5311.7228741776,-2446.0964277097,-5249.7284588647,-20571.3166337069,-7584.2592744048,-2159.2064720183,-4646.7704105006,1218.8016876636,-21109.2140071587,11359.7374185050,13723.2638555742,19020.4098289579
561540701173,46486,-2,0,8395.9176586760,10852.1862809296,13888.6228553980,2566.0942537775,-5308.1090682212,-2435.3523514150,-5243.2309087612,-20568.7249142836,-7580.0249159104,-2155.1302935827,-4635.6978063917,1218.6070045145,-21107.7052127526,11362.1952932632,13724.7483145866,19021.2372323418
561540701173,46486,-2,0,8394.0316656684,10853.4517213992,13899.6102856291,2570.5354631179,-5313.0978239186,-2430.2175833557,-5243.6567781500,-20576.9989481232,-7587.2646955201,-2158.8049380232,-4632.3395220686,1211.3550572080,-21114.0202474038,11355.9532647931,13717.1070009818,19014.3624836369
561540701173,46486,-2,0,8392.1456726609,10847.2218606259,13897.1402431740,2566.1550922616,-5321.9437395088,-2438.7836419191,-5252.2106690166,-20585.3216527501,-7594.9060091249,-2169.1109772322,-4643.0227598791,1201.9250921702,-21119.0820092821,11349.7355717165,13711.2056680227,19006.3926422179
561540753487,46487,-2,0,8388.1668357998,10842.0140863856,13888.3916691583,2556.1654131700,-5324.3407757830,-2451.1338541944,-5262.1151742304,-20590.3955823253,-7597.8870948465,-2172.8221247632,-4656.2490463257,1199.2116957787,-21118.9725000107,11348.9933422103,13712.5684500668,19006.5751576702
561540753487,46487,-2,0,8388.3615189489,10840.8459874906,13880.7016847662,2552.6854518786,-5321.2258453963,-2454.9788463904,-5262.8087329493,-20586.0638822563,-7593.1903638728,-2169.3786665623,-4659.5829952552,1204.0909422047,-21114.0445827974,11353.6535700935,13718.1169198181,19011.3448948248
561540753487,46487,-2,0,8387.7287987141,10844.6058058089,13882.0279637199,2557.7107106665,-5318.9869891809,-2449.5520536074,-5257.2967662885,-20584.1657215519,-7591.8640849191,-2168.3322446356,-4651.6496569266,1205.6362397012,-21113.8377319514,11355.4908923138,13718.1777583022,19012.5616645071
561540753487,46487,-2,0,8386.7553829683,10847.8545808607,13890.2898298627,2562.8576464226,-5322.9049875579,-2442.4582863596,-5254.8997300144,-20586.4897516451,-7595.8307540834,-2172.2380753157,-4644.3125357424,1200.8299994561,-21119.2401893408,11349.6747332324,13712.6414562478,19006.9766916654
561540753487,46487,-2,0,8382.5940306548,10844.4597934471,13890.3506683468,2561.2515104420,-5330.2907795294,-2448.8949979790,-5259.1584239025,-20589.7385266968,-7601.8659317076,-2176.2412475705,-4649.0944405938,1196.1576038761,-21124.8373298793,11343.1893508258,13707.3606758266,19003.2777118312
561540753487,46487,-2,0,8380.0509820189,10840.2376026495,13880.3853246488,2554.3159232529,-5331.5318846053,-2456.2929576473,-5264.8894091061,-20591.4298365552,-7603.9709432580,-2178.8329669938,-4661.0917896612,1196.4131255094,-21123.6327278939,11344.2236050558,13708.4922716311,19005.4192264720
561540753487,46487,-2,0,8382.0829873883,10841.7950678428,13873.9242776359,2552.6611164850,-5324.7301420813,-2460.0892790561,-5264.6095520791,-20584.1535538551,-7596.9380144943,-2173.2358264552,-4663.5618321163,1203.6772405127,-21116.8188176730,11349.7720748070,13715.3183495488,19012.3061428738
561540753487,46487,-2,0,8384.3096759069,10845.3723707088,13878.3168161889,2557.2240027936,-5319.9969080172,-2453.0685179892,-5260.0831688610,-20582.8759456887,-7592.0831034620,-2168.8067848117,-4654.9349350688,1206.2811276328,-21116.0765881668,11350.5629751005,13712.7144624287,19010.9555285265
561540756300,46488,-2,0,8382.6792045326,10846.0294263372,13886.2136514270,2560.6066225104,-5323.3430246435,-2445.7313968050,-5257.1385862299,-20587.5483412687,-7597.8505917560,-2172.5422677363,-4647.5248077036,1200.6839870943,-21120.4082882358,11347.3020323520,13710.8893079053,19009.2520509712
561540756300,46488,-2,0,8378.2988336764,10840.7851490065,13885.9946328842,2558.0635738744,-5328.1249294949,-2448.2744454410,-5261.7501433257,-20593.2184879882,-7602.7541735757,-2177.1781602258,-4649.3256268334,1195.1476850398,-21126.9545091265,11343.2501893099,13707.7378744281,19005.9302697386
561540756300,46488,-2,0,8373.3465810694,10832.8031398907,13879.2902319348,2549.4245091301,-5330.3394503167,-2456.9378455789,-5267.2377745929,-20593.9972205849,-7604.0196140453,-2176.4846015069,-4657.1129528001,1197.6542305854,-21125.0198453317,11343.7855679701,13710.7797986339,19011.8316026977
561540756300,46488,-2,0,8371.8864574507,10831.5255317243,13868.1446216450,2544.5939334914,-5325.9834148541,-2461.0748624987,-5267.5297993166,-20585.3094850533,-7596.7189959515,-2170.9726348461,-4660.1183739154,1205.0765256474,-21116.8309853699,11351.8040801764,13720.2219313685,19019.2417300629
561540756300,46488,-2,0,8376.3641698815,10839.1911807227,13871.5272413617,2550.1667386363,-5321.4935347264,-2453.9689275541,-5259.2314300834,-20579.0431211895,-7591.4017124399,-2165.7040221218,-4650.6519057871,1210.7223369732,-21114.8963215750,11355.2475383773,13725.4662086991,19023.6707717064
561540756300,46488,-2,0,8380.3186713490,10841.6977262682,13883.9626275148,2554.6566187640,-5323.8784033037,-2445.7800675923,-5253.7437988163,-20582.4257409062,-7594.8086675503,-2165.4971712758,-4639.9443325829,1207.8020897357,-21120.3231143580,11349.8572486848,13720.3192729430,19020.9330399213
561540756300,46488,-2,0,8377.5809395638,10839.7752301702,13888.5620169139,2556.6764564366,-5328.2222710695,-2446.5953032794,-5256.2381766650,-20586.4775839483,-7601.3548884410,-2171.2889949635,-4642.0493441333,1201.7669121115,-21127.0275153075,11344.4912943859,13714.3936045903,19014.9830361748
561540756300,46488,-2,0,8376.0234743705,10835.2731823457,13881.6751005121,2552.4055948517,-5330.5341334658,-2455.2708711142,-5262.2246835018,-20587.5118381782,-7601.7564224362,-2175.3165026119,-4652.0998617091,1202.0832722289,-21127.1735276694,11343.4813755496,13715.9389020868,19016.2606443413
561540788479,46489,-2,0,8376.8752131481,10834.5309528395,13874.5448301738,2549.9233846998,-5326.6283027857,-2460.8923470464,-5263.1737638540,-20583.1192996251,-7596.3539650468,-2170.1330637654,-4658.1958778174,1208.3131330023,-21121.7832379768,11348.1294357359,13721.5482103222,19024.2061503666
561540788479,46489,-2,0,8385.6724579511,10843.8757439996,13881.1032187614,2556.6764564366,-5319.0113245745,-2452.8860025369,-5256.4450275109,-20576.0620354678,-7589.1141854372,-2165.2659850362,-4650.1043594301,1214.4334845042,-21116.4659544652,11353.6535700935,13726.5856368069,19030.2413279908
561540788479,46489,-2,0,8388.6657113695,10849.8257477460,13891.8107919656,2564.2812669509,-5317.8188902859,-2441.7160568534,-5250.3003406154,-20575.9160231060,-7590.1971104544,-2165.2416496425,-4639.3237800450,1212.9855285823,-21120.3352820549,11349.7842425038,13723.8844081122,19026.9073790613
561540788479,46489,-2,0,8389.0185745774,10850.6288157363,13901.2164216097,2567.7125574550,-5320.0577465013,-2438.5646233763,-5249.8501358329,-20578.2643885928,-7592.7644944840,-2166.0447176328,-4634.9555768855,1209.0918655989,-21123.8639141335,11345.7080640682,13718.3237706641,19023.6342686160
561540788479,46489,-2,0,8387.3394324158,10845.7982400976,13898.0649881326,2563.4781989606,-5320.9459883694,-2443.9062422815,-5253.1354139751,-20580.2842262654,-7592.0587680683,-2166.5192578089,-4642.5725550967,1210.1382875257,-21120.1040958152,11347.0465107187,13721.4143656571,19024.3764981222
561540788479,46489,-2,0,8390.1623380787,10844.8978305327,13889.0243893931,2559.4020205249,-5315.4583571022,-2449.6858982724,-5254.0723266305,-20574.9791104506,-7585.1353485761,-2162.1145515590,-4648.8754220510,1216.8791915656,-21112.3532729390,11355.8559232185,13729.2503624111,19029.0732290958
561540788479,46489,-2,0,8396.4287019425,10850.2759525284,13891.4214256673,2563.5512051415,-5307.5980249546,-2443.0545035039,-5248.3170060332,-20569.5644853644,-7577.8347304823,-2155.4344860032,-4641.4044562017,1222.2451458645,-21106.6344554322,11359.8712631701,13732.2922866168,19032.4436811158
561540788479,46489,-2,0,8400.4197065005,10856.7978380255,13905.2804323486,2571.3993695923,-5306.0040566708,-2432.9796505345,-5243.1457348835,-20571.1462859514,-7577.4210287903,-2154.2055486241,-4632.0840004353,1219.0085385096,-21108.5326161366,11356.0749417613,13726.9385000147,19027.4427577215
561540837471,46490,-2,0,8400.6752281337,10858.5013155807,13912.2281872345,2574.5386353727,-5307.3181679277,-2428.7696274338,-5242.8050393724,-20574.7479242110,-7580.2561021501,-2158.3912363312,-4629.1637531978,1213.8372673599,-21113.5335395308,11352.0352664161,13721.4752041412,19020.8356983467
561540837471,46490,-2,0,8401.4296253368,10858.3918063093,13912.4715411709,2573.4922134459,-5310.0802351065,-2434.6587926961,-5247.4044287715,-20577.0962896978,-7582.3002752163,-2159.3403166834,-4637.8758241230,1210.9535232128,-21115.1275078146,11350.5751427973,13721.5238749285,19019.2660654565
561540837471,46490,-2,0,8402.9384197428,10856.0556085193,13903.4917809156,2567.2136818852,-5307.7440373165,-2443.1031742912,-5251.2737563612,-20575.2833028712,-7579.6842203994,-2158.4642425122,-4645.4562992437,1216.2221359372,-21111.1365032567,11356.1479479422,13727.5833879463,19025.7027770759
561540837471,46490,-2,0,8407.5986476260,10859.9736068963,13899.6711241132,2568.9293271373,-5303.0959771301,-2440.1950947505,-5247.3435902874,-20568.1286971393,-7574.5372846433,-2155.9455292698,-4642.2926980698,1222.0504627154,-21105.5271950213,11359.6522446272,13732.2071127391,19028.6230243134
561540837471,46490,-2,0,8410.6649072254,10864.0862884225,13907.8234809846,2576.5584730453,-5308.1455713116,-2435.6930469261,-5242.8780455534,-20569.1629513692,-7577.1776748538,-2154.7409272843,-4633.1669254526,1218.9963708128,-21108.3987714716,11356.3182956978,13727.0845123766,19025.2282368998
561540837471,46490,-2,0,8405.5666422566,10862.4314816545,13913.8951616992,2577.4710503070,-5314.1807489358,-2432.9674828377,-5243.5107657882,-20575.2711351743,-7583.2493555685,-2159.2673105025,-4630.7820568753,1212.6204976776,-21114.5799614576,11347.8982494963,13718.9199878084,19018.1344696520
561540837471,46490,-2,0,8401.9893393906,10858.3796386125,13909.7216416890,2571.1925187463,-5316.8698099337,-2438.2847663493,-5247.9763105222,-20578.0575377468,-7586.7901553440,-2162.3457377987,-4638.3381966023,1210.3329706749,-21114.4582844894,11349.6017270515,13720.9519931778,19018.6455129186
561540837471,46490,-2,0,8401.7094823637,10855.2890436195,13902.6157067444,2565.4128627554,-5312.6354514393,-2446.0720923160,-5252.3566813784,-20575.2954705680,-7582.3732813972,-2159.3889874707,-4646.8069135911,1215.4190679469,-21109.9927397554,11353.9212594236,13725.8312396038,19024.7901998141
561540853662,46491,-2,0,8401.1254329162,10855.7757514924,13896.7630445725,2562.1762554005,-5308.7296207591,-2447.3740358761,-5251.1642470898,-20572.8254281129,-7578.0537490251,-2156.6634233824,-4647.4396338259,1218.4731598494,-21106.1477475593,11356.7441650866,13730.0169273109,19028.0876456532
561540853662,46491,-2,0,8403.7171523395,10860.4724824660,13901.2285893065,2567.9194083010,-5310.3722598302,-2442.0567523645,-5247.8424658571,-20574.6627503332,-7580.2561021501,-2160.0947138864,-4641.0150899034,1213.5209072425,-21109.7372181221,11354.2862903283,13725.7947365134,19023.1353930462
561540853662,46491,-2,0,8402.4638795667,10861.3607243341,13908.0790026179,2572.8716609079,-5316.2492573957,-2439.2581820952,-5248.7793785125,-20581.5009959477,-7588.0920989040,-2165.3389912171,-4638.2043519373,1205.3563826743,-21115.8697373208,11346.1461011538,13718.4211122387,19015.2993962922
561540853662,46491,-2,0,8396.2340187934,10858.2822970379,13904.4408612678,2567.5908804868,-5321.3110192740,-2444.8309872401,-5254.7293822589,-20587.1224718799,-7593.2877054474,-2169.4395050464,-4646.7339074101,1201.4748873878,-21120.0797604216,11342.7999845275,13714.3692691966,19011.9532796659
561540853662,46491,-2,0,8393.7153055510,10856.0799439130,13895.2299147728,2562.7238017576,-5319.1573369364,-2452.0585991529,-5258.3310205185,-20585.2364788723,-7590.6351475400,-2169.9992191003,-4655.9448539051,1204.4559731094,-21115.2005139956,11346.8274921759,13719.0294970798,19017.0272092411
561540853662,46491,-2,0,8398.0713410136,10858.4161417030,13892.3340029290,2563.4051927797,-5310.5426075857,-2450.2942831136,-5254.3278482638,-20578.0697054436,-7582.4341198814,-2163.0636319112,-4653.2071221199,1212.4988207093,-21108.3135975938,11354.1767810569,13726.3909536577,19023.9627964302
561540853662,46491,-2,0,8404.0943509410,10864.3783131462,13903.8811472139,2572.5309653969,-5306.6489446024,-2439.1243374301,-5246.0173113337,-20574.7114211205,-7578.6134630790,-2157.7098453091,-4638.6910598102,1214.7011738343,-21106.0382382879,11357.3647176245,13728.2647789684,19026.7491990026
561540853662,46491,-2,0,8405.6518161343,10867.3959019583,13912.3620318995,2580.8293346301,-5308.3280867640,-2431.3735145539,-5240.5053446729,-20574.7357565141,-7581.9839150989,-2159.5958383167,-4631.4634478974,1212.1581251983,-21108.3744360779,11355.3935507392,13725.5878856674,19023.2205669240
561540888553,46492,-2,0,8402.4638795667,10864.9136918064,13909.5877970239,2576.9113362531,-5312.8909730726,-2435.7052146229,-5245.6036096417,-20578.0332023532,-7586.4494598329,-2163.2461473636,-4635.6126325140,1210.1504552225,-21110.3577706600,11355.2718737710,13723.3125263615,19019.7892764199
561540888553,46492,-2,0,8397.2074345392,10857.2845458984,13897.1767462645,2564.9748256698,-5316.0910773370,-2447.8729114458,-5253.2814263370,-20578.8606057371,-7587.0091738868,-2164.3047369872,-4646.9529259530,1210.1139521321,-21106.0990767720,11357.1578667785,13725.1498485818,19022.3201573591
561540888553,46492,-2,0,8395.2362676539,10854.1574478149,13887.7832843172,2559.5845359773,-5314.6552891119,-2452.2289469084,-5255.3377671001,-20574.7722596046,-7582.6896415146,-2161.7981914416,-4650.4937257284,1214.8228508025,-21101.8768859745,11364.1664601486,13732.4504666755,19029.8641293893
561540888553,46492,-2,0,8397.8279870772,10856.5179809986,13890.8373762198,2562.8089756353,-5311.8202157522,-2445.0743411765,-5248.9132231775,-20574.0665331889,-7581.3025240768,-2158.7806026295,-4641.8059901969,1215.6867572770,-21103.3735126837,11362.7306719234,13732.6086467342,19028.6351920102
561540888553,46492,-2,0,8397.1344283583,10857.4792290476,13903.5039486124,2569.2821903451,-5314.6674568087,-2436.7151334592,-5245.6766158226,-20577.2423020597,-7584.6243053095,-2160.1555523705,-4633.8848195651,1211.7687589000,-21110.5159507187,11356.1844510327,13725.5270471833,19024.4495043031
561540888553,46492,-2,0,8390.9167352817,10854.3642986609,13904.5382028424,2568.9536625309,-5317.9649026477,-2438.9418219778,-5246.6621992653,-20579.6393383338,-7588.3476205373,-2164.2804015935,-4637.3526131597,1207.8020897357,-21114.3487752180,11350.9645090957,13721.1710117207,19019.3147362438
561540888553,46492,-2,0,8386.3051781858,10850.8600019759,13891.2145748213,2561.5557028626,-5318.6462936698,-2448.2622777442,-5253.6099541512,-20579.0674565831,-7589.0776823467,-2165.6066805472,-4648.8754220510,1208.7024993006,-21114.0932535847,11351.6824032082,13721.4995395349,19017.1488862093
561540888553,46492,-2,0,8385.9888180684,10851.1033559124,13884.6318508401,2558.3555985981,-5315.5191955863,-2452.9468410210,-5255.1795870414,-20576.6947557026,-7584.0159204683,-2163.4895013000,-4654.0710285944,1213.3262240933,-21110.5159507187,11354.1889487537,13725.8920780880,19024.4981750904
561540915621,46493,-2,0,8389.7973071740,10854.1087770276,13884.7413601115,2560.0469084565,-5316.6629590877,-2451.6570651578,-5254.2061712955,-20577.5343267834,-7585.7437334172,-2164.8766187378,-4649.8853408873,1211.5132372667,-21114.1175889783,11352.4976388954,13722.5216260680,19022.7703621415
561540915621,46493,-2,0,8388.8117237314,10855.0213542894,13889.4015879946,2564.0379130145,-5326.0077502477,-2449.0045072504,-5256.8343938093,-20585.8935345008,-7595.6117355406,-2172.5666031299,-4646.5878950483,1202.0346014416,-21123.8152433462,11343.0798415544,13715.0993310060,19014.3989867273
561540915621,46493,-2,0,8382.1924966597,10852.5391441375,13890.1194821072,2559.5358651900,-5336.8248327233,-2456.7918332170,-5265.4369554631,-20596.1022321352,-7604.9565267006,-2180.5121091553,-4654.7402519196,1191.5460467802,-21133.8170901347,11334.2339259641,13707.7135390345,19008.9356908538
561540915621,46493,-2,0,8373.6994442773,10842.6711420141,13877.9882883747,2550.2154094236,-5340.8645080685,-2469.0690393114,-5274.9155912882,-20598.8034608299,-7607.9011093318,-2184.0285735372,-4668.1977246058,1189.2828551712,-21132.2352895477,11334.7814723212,13708.8694702327,19010.2619698075
561540915621,46493,-2,0,8372.6286869569,10839.2398515100,13867.3658890483,2546.0783925038,-5336.4111310313,-2473.7657702850,-5275.8768393372,-20593.9363821007,-7603.6667508374,-2182.6049530089,-4673.2959895746,1196.2671131475,-21124.2897835223,11342.2767735641,13715.3913557298,19017.9032834124
561540915621,46493,-2,0,8378.0311443462,10847.3435375941,13874.8490225944,2550.6412788124,-5331.7630708450,-2466.2826367389,-5269.1967737814,-20587.8160305988,-7600.1259510619,-2176.6062784752,-4664.7664341017,1200.4649685515,-21120.5543005977,11345.3186977698,13717.0826655881,19021.6144309434
561540915621,46493,-2,0,8381.5841118185,10850.9695112473,13885.1185587130,2558.5502817473,-5334.2087779064,-2456.8283363075,-5264.5243782014,-20590.3104084475,-7603.9587755611,-2176.6792846561,-4654.3265502277,1197.3257027711,-21124.6061436397,11341.1451777596,13712.4224377050,19013.4134032847
561540915621,46493,-2,0,8379.3087525127,10850.1177724697,13889.0365570900,2559.9860699724,-5338.0294347088,-2456.9621809726,-5265.8019863678,-20593.9242144039,-7609.6897607647,-2182.2155867105,-4655.1782890053,1192.8844934308,-21130.4466381147,11333.1753363405,13703.6008575083,19009.1303740030
561540946008,46494,-2,0,8375.1474001992,10846.1146002150,13883.7801120624,2555.7638791749,-5340.1709493496,-2464.7495069392,-5269.8173263194,-20594.7759531815,-7611.6000891660,-2184.0164058403,-4664.3283970161,1192.7019779784,-21134.2551272203,11333.0293239786,13707.3850112203,19009.8117650251
561540946008,46494,-2,0,8372.8720408933,10843.3890361266,13871.6245829363,2549.4731799174,-5338.7473288213,-2473.5345840454,-5274.0273494201,-20591.3568303743,-7608.4486556888,-2184.2354243831,-4671.1058041465,1197.3013673775,-21131.3713830733,11337.2636824730,13711.0839910544,19015.3358993827
561540946008,46494,-2,0,8377.1672378718,10845.8834139753,13869.8846022906,2551.5173529836,-5335.7540754029,-2469.7991011208,-5269.6348108670,-20587.3049873322,-7605.5040730577,-2182.5562822216,-4666.2630608110,1200.8786702434,-21126.5286397377,11340.9748300040,13715.9875728741,19020.8478660435
561540946008,46494,-2,0,8378.6395291874,10849.7040707777,13879.5092504776,2556.5912825588,-5338.2606209484,-2462.0361105477,-5265.1692661330,-20590.5659300808,-7609.3855683442,-2182.9699839136,-4657.2102943747,1197.1066842283,-21128.2807880802,11338.0180796761,13711.7653820765,19018.8036929773
561540946008,46494,-2,0,8377.0455609036,10846.6986496625,13884.8995401702,2555.6908729939,-5342.2394578095,-2460.8801793496,-5266.1913526661,-20595.3113318417,-7613.4982498703,-2185.2818463099,-4656.5654064431,1191.0715066041,-21132.2961280318,11332.7616346485,13707.1294895870,19014.4963283019
561540946008,46494,-2,0,8375.6462757689,10844.8126566549,13880.3244861647,2551.6268622551,-5341.8500915112,-2466.8180153991,-5272.2143625935,-20596.3942568590,-7615.3842428779,-2186.1579204812,-4665.6060051825,1191.9110776849,-21132.9166805698,11333.4186902770,13706.5454401395,19014.0339558227
561540946008,46494,-2,0,8377.8242935003,10845.2385260437,13875.7737675530,2548.5240995652,-5335.0240135935,-2469.7504303335,-5271.8249962951,-20590.5415946871,-7608.0106186032,-2179.9888981919,-4668.9277864152,1198.3842923947,-21127.1370245789,11338.8333153632,13714.5639523458,19021.5292570656
561540946008,46494,-2,0,8382.0099812073,10852.2106163233,13878.3776546731,2553.5615260499,-5329.0253390598,-2462.1942906064,-5264.9867506806,-20584.1413861583,-7600.1989572429,-2171.7513674428,-4659.8385168885,1205.7700843663,-21122.6958152385,11344.5156297795,13719.5162049527,19029.9128001766
561540974701,46495,-2,0,8385.1492469877,10859.1097004219,13887.9901351632,2563.0766649654,-5328.2952772504,-2451.3407050404,-5257.8321449488,-20584.2387277329,-7601.1845406855,-2170.9117963620,-4647.2206152831,1205.9404321218,-21125.8350810188,11342.5931336815,13717.8857335785,19026.3720004011
561540974701,46495,-2,0,8382.7278753199,10856.6153225732,13893.6359464890,2564.0257453176,-5332.9433374368,-2448.9923395535,-5256.7978907188,-20589.1788126430,-7605.9907809306,-2173.2966649393,-4644.8235790089,1201.3653781164,-21131.4808923447,11338.0667504633,13713.1159964239,19021.1885615546
561540974701,46495,-2,0,8375.4272572261,10848.6941519414,13888.6228553980,2555.3988482702,-5337.1411928407,-2457.3272118773,-5264.5852166855,-20591.1621472251,-7608.2539725396,-2176.8252970180,-4654.3752210150,1199.2116957787,-21134.2064564330,11335.7427203702,13713.1768349080,19019.4364132120
561540974701,46495,-2,0,8374.0523074851,10844.4111226598,13874.5691655675,2547.4898453353,-5334.7319888698,-2466.7693446119,-5269.3792892337,-20589.0693033716,-7605.1998806371,-2177.9325574289,-4664.1702169574,1201.8520859893,-21131.2253707114,11339.5268740821,13717.3138518278,19021.9916295449
561540974701,46495,-2,0,8378.1163182240,10847.4408791687,13874.9706995626,2549.8625462157,-5327.8329047711,-2464.0316128267,-5265.2666077076,-20582.8151072046,-7598.3494673258,-2173.1384848806,-4659.6681691329,1207.4370588310,-21123.4988832288,11345.2456915889,13722.1930982538,19027.2115714819
561540974701,46495,-2,0,8383.2024154960,10854.7536649593,13886.8585393587,2559.4263559186,-5326.3119426683,-2454.0541014319,-5258.2823497312,-20581.3914866763,-7597.8140886656,-2171.6053550809,-4648.7050742955,1206.2081214519,-21122.8174922067,11342.4349536228,13717.1800071627,19024.1939826698
561540974701,46495,-2,0,8381.4624348503,10853.6464045484,13889.5232649629,2561.2028396547,-5327.6260539252,-2448.1284330791,-5259.1097531152,-20588.0107137480,-7602.8271797566,-2176.3507568419,-4647.1841121926,1199.7835775294,-21126.8084967647,11339.5998802630,13714.3692691966,19017.7329356568
561540974701,46495,-2,0,8376.8508777544,10846.2362771832,13884.8508693829,2555.5570283289,-5331.4710461212,-2456.4389700092,-5266.1183464852,-20594.9584686339,-7605.1147067593,-2180.7676307886,-4658.6947533871,1195.2328589176,-21127.3195400312,11337.2758501699,13712.5197792795,19019.3390716375
561541048442,46496,-2,0,8375.8409589181,10845.4088737992,13876.0292891862,2549.4366768269,-5329.5363823264,-2465.3943948709,-5274.0395171169,-20595.2869964481,-7601.1845406855,-2179.1493271112,-4669.0981341707,1196.6929825363,-21121.1870208325,11342.4957921069,13714.1745860475,19023.1475607430
561541048442,46496,-2,0,8379.9779758379,10849.2173629048,13873.2915574011,2550.5317695410,-5323.3916954308,-2464.1289544013,-5271.1192698794,-20590.0670545110,-7594.7113259757,-2174.4404284407,-4667.5285012806,1201.6939059306,-21114.1175889783,11348.2876157946,13718.9808262925,19026.6883605185
561541048442,46496,-2,0,8387.4246062936,10858.9028495759,13885.9216267033,2559.5723682804,-5320.4471127996,-2453.0198472019,-5262.7113913748,-20588.2175645940,-7593.0930222983,-2169.1353126259,-4654.9227673720,1201.4018812068,-21114.7016384258,11348.3362865819,13716.5716223216,19025.8244540441
561541048442,46496,-2,0,8388.9942391837,10860.9835257326,13899.8779749592,2566.7634771028,-5323.4403662181,-2446.9359987905,-5260.7767275799,-20592.6466062375,-7596.4269712277,-2169.4638404401,-4650.5423965157,1194.5758032892,-21120.9801699865,11342.1429288990,13710.5607800910,19019.8136118136
561541048442,46496,-2,0,8385.6846256479,10855.0943604703,13897.4687709883,2562.5534540021,-5325.9834148541,-2450.2212769327,-5266.6537251454,-20595.7006981401,-7599.7730878541,-2173.1628202743,-4658.6582502966,1192.3126116801,-21124.8373298793,11339.5147063853,13708.8451348390,19017.0515446347
561541048442,46496,-2,0,8382.9347261659,10849.0470151493,13887.3939180189,2554.6444510671,-5324.2677696020,-2459.5660680927,-5272.3117041681,-20594.7394500911,-7596.6459897706,-2171.2889949635,-4668.7696063565,1194.2959462622,-21124.0829326763,11342.8486553148,13714.0407413824,19021.9307910607
561541048442,46496,-2,0,8386.2808427922,10850.9938466410,13884.2424845417,2553.1721597516,-5320.8729821884,-2460.1379498434,-5271.6546485396,-20590.0548868142,-7590.5621413591,-2165.7891959996,-4666.1413838427,1199.1873603850,-21118.5587983187,11348.9446714231,13719.6865527083,19028.5500181324
561541048442,46496,-2,0,8388.0451588315,10856.5788194827,13890.5575191928,2559.7305483391,-5321.2623484868,-2451.5475558864,-5266.2035203629,-20588.9476264033,-7591.6450663763,-2165.3389912171,-4657.0642820128,1200.9273410307,-21117.0986747000,11349.2610315405,13719.7717265860,19027.5400992961
561541069795,46497,-2,0,8387.1934200539,10861.4337305151,13899.0870746657,2565.9482414157,-5326.2997749715,-2445.2446889321,-5262.3341927732,-20592.0990598805,-7596.9258467975,-2168.5512631784,-4649.4229684080,1196.6321440522,-21120.7124806564,11345.9392503078,13715.3426849425,19023.4152500731
561541069795,46497,-2,0,8384.9302284449,10858.7325018204,13902.8955637713,2564.5489562810,-5330.3516180135,-2449.7224013629,-5265.0354214679,-20593.7538666484,-7601.5252361966,-2171.0943118144,-4653.9736870198,1193.2860274259,-21122.7809891163,11341.4493701801,13713.8217228396,19021.8577848798
561541069795,46497,-2,0,8382.5210244739,10852.2106163233,13893.7332880636,2556.9684811603,-5330.4367918913,-2461.1965394669,-5271.5451392682,-20593.9972205849,-7601.9024347981,-2173.6130250567,-4665.5451666984,1194.9408341938,-21120.6029713850,11344.3696174176,13717.4111934024,19022.0524680290
561541069795,46497,-2,0,8385.4899424987,10852.4661379566,13887.2114025665,2554.6201156735,-5325.9590794604,-2463.3745571983,-5271.9345055665,-20591.3933334647,-7595.2467046359,-2169.9383806162,-4667.1026318917,1200.3797946737,-21113.1198378389,11350.5873104942,13722.8988246695,19027.4062546311
561541069795,46497,-2,0,8388.5075313108,10855.6419068273,13894.9865608364,2558.7084618060,-5319.7413863839,-2452.4236300576,-5262.3706958637,-20586.8182794593,-7590.2701166353,-2163.0149611239,-4654.6185749514,1202.6673216764,-21111.1730063472,11352.2177818684,13725.3566994277,19028.5986889197
561541069795,46497,-2,0,8384.1879989387,10853.2692059469,13902.0803280842,2562.4196093370,-5322.4912858659,-2446.2059369811,-5259.3044362643,-20591.7096935821,-7594.2976242837,-2166.5557608994,-4648.4495526622,1197.0701811379,-21116.8918238540,11346.1339334570,13717.5328703706,19021.6387663370
561541069795,46497,-2,0,8374.9162139596,10848.2074440685,13895.1690762887,2558.7693002901,-5332.7364865908,-2456.6944916425,-5267.5906378008,-20600.9084723803,-7605.7230916005,-2179.0763209302,-4660.8362680279,1186.9588250780,-21128.9865144960,11336.5822914509,13707.7743775186,19009.9699450838
561541069795,46497,-2,0,8369.8666197781,10844.3624518725,13886.0433036715,2551.2009928662,-5339.5138937212,-2473.3642362899,-5279.2107882667,-20605.9215634713,-7611.4054060168,-2187.5693733126,-4677.5060126754,1183.0286590042,-21132.8193389952,11332.5182807121,13705.5598566968,19007.6094119001
561541077106,46498,-2,0,8374.8553754755,10848.1466055844,13878.1708038271,2547.5385161225,-5338.8446703959,-2483.5120954402,-5283.5181529420,-20605.1063277842,-7610.0669593663,-2191.5360424769,-4684.5389414390,1186.3504402368,-21131.2983768923,11336.6309622382,13709.9158921594,19011.0893731915
561541077106,46498,-2,0,8383.9446450022,10855.8609253702,13883.5610935196,2554.6444510671,-5337.5062237454,-2476.9537068527,-5278.4442233668,-20602.0522358816,-7609.1543821045,-2193.7627309955,-4676.5325969295,1187.0074958653,-21126.8815029456,11338.9549923314,13709.9645629467,19010.9555285265
561541077106,46498,-2,0,8384.8572222639,10859.2557127838,13891.6891149974,2559.1464988916,-5338.6621549436,-2468.7405114972,-5274.0151817233,-20604.5222783367,-7611.5392506818,-2194.0182526288,-4667.6136751583,1183.2598452438,-21129.0351852833,11333.3335163992,13703.1141496354,19004.0564444278
561541077106,46498,-2,0,8377.7147842288,10851.9185915995,13893.7941265477,2556.1654131700,-5340.7184957066,-2469.1298777955,-5276.5947334497,-20609.1338354326,-7613.5104175672,-2196.2449411474,-4670.4000777308,1178.1980833655,-21132.1257802763,11331.9829020519,13701.3254982024,19002.8518424424
561541077106,46498,-2,0,8372.7381962283,10843.2308560679,13881.5777589375,2547.6480253939,-5339.3313782688,-2475.9194526227,-5281.0237750933,-20608.7444691343,-7611.7826046183,-2195.7217301840,-4681.2536632968,1180.5586165491,-21129.8869240609,11333.1875040373,13704.5256024669,19005.6017419244
561541077106,46498,-2,0,8373.0058855584,10836.4047781503,13870.2983039826,2542.3794126696,-5332.9798405272,-2478.6936874983,-5282.5204018025,-20605.7147126253,-7604.9443590038,-2188.5184536648,-4684.4659352581,1186.3747756305,-21126.2487827108,11337.7503903459,13711.2786742036,19011.9411119691
561541077106,46498,-2,0,8379.5399387523,10843.0848437061,13877.1243819003,2547.1613175210,-5328.8063205170,-2470.5778337174,-5275.8403362467,-20599.8012119694,-7599.7244170668,-2182.3494313756,-4672.4320831002,1189.9520784964,-21122.7323183290,11341.8509041753,13714.5396169521,19014.9100299939
561541077106,46498,-2,0,8382.7887138040,10848.2561148558,13887.6494396521,2552.8314642405,-5331.7022323608,-2460.1501175402,-5269.3184507496,-20600.0323982090,-7601.6590808616,-2180.1957490379,-4660.6659202724,1188.4797871809,-21125.8715841093,11340.0257496518,13712.1182452844,19010.1524605361
561541100891,46499,-2,0,8377.7634550161,10845.7982400976,13889.6814450216,2552.5029364263,-5337.2020313248,-2460.3326329925,-5271.0462636985,-20603.4271856226,-7608.0714570873,-2182.4711083438,-4660.5685786978,1184.4157764420,-21131.1158614400,11333.9905720277,13708.4557685407,19006.9523562717
561541100891,46499,-2,0,8373.2370717980,10841.7585647524,13882.6241808643,2546.1392309879,-5340.0249369877,-2468.5214929544,-5276.9597643544,-20604.0964089479,-7608.6311711412,-2183.8825611753,-4669.8403636769,1185.4865337624,-21130.1181103005,11334.6962984434,13709.3196750151,19007.4025610542
561541100891,46499,-2,0,8371.4362526682,10838.4246158229,13869.7994284129,2541.7223570412,-5337.6644038041,-2475.0312107546,-5279.7461669269,-20600.0323982090,-7605.8447685687,-2182.0939097423,-4676.1797337217,1190.1224262520,-21126.1514411362,11339.4173648107,13715.1966725806,19012.2209689960
561541100891,46499,-2,0,8373.9671336074,10838.5341250943,13873.0117003741,2543.3163253250,-5334.9266720189,-2470.6143368079,-5277.9575154939,-20598.4749330157,-7603.2287137518,-2179.7942150428,-4669.9742083420,1192.5559656165,-21124.8616652730,11340.7193083707,13716.6567961993,19012.5859999007
561541100891,46499,-2,0,8374.1861521502,10841.0285029430,13884.7048570210,2549.8990493062,-5337.1168574470,-2462.1334521223,-5273.7839954836,-20601.4560187373,-7607.2440537033,-2181.0596555124,-4660.1062062186,1188.8934888728,-21128.2321172929,11338.8819861505,13712.8483070938,19008.4854860714
561541100891,46499,-2,0,8369.0878871814,10838.1569264928,13887.7346135299,2549.1324844063,-5343.6387429441,-2463.4840664697,-5274.1125232979,-20604.0842412511,-7612.0137908579,-2186.0970819971,-4660.5199079105,1184.5617888039,-21130.6656566575,11336.3876083018,13709.4535196802,19005.1515371419
561541100891,46499,-2,0,8362.8580264080,10832.0487426877,13880.9937094900,2542.9999652076,-5343.9794384552,-2470.8090199571,-5279.4541422031,-20606.2622589824,-7612.7925234546,-2187.2286778016,-4670.6677670609,1184.3062671706,-21130.7386628385,11337.0933347175,13710.4999416069,19000.7468308920
561541100891,46499,-2,0,8364.2938146331,10830.1505819833,13875.4330720419,2538.4249112022,-5340.8280049780,-2477.3065700605,-5282.7515880421,-20603.1959993830,-7607.0737059478,-2183.7365488134,-4676.1553983280,1190.3657801884,-21123.5840571066,11338.9184892410,13712.7387978224,19009.4832372109
561541137122,46500,-2,0,8367.4817512008,10833.7278848492,13872.6831725599,2540.6637674176,-5336.9221742979,-2474.7635214245,-5278.5780680319,-20599.5578580329,-7602.4864842456,-2180.5364445490,-4672.0183814082,1194.4176232305,-21118.5222952282,11345.2943623762,13718.0560813340,19017.0150415443
561541137122,46500,-2,0,8370.7913647366,10837.1348399596,13880.7503555535,2546.1027278974,-5338.9785150610,-2466.7085061277,-5273.6379831218,-20601.1761617104,-7604.8591851260,-2181.5950341726,-4662.1138761943,1191.3635313279,-21121.2600270134,11343.7125617892,13715.0384925219,19014.7518499352
561541137122,46500,-2,0,8371.2537372159,10837.7432248008,13888.5620169139,2548.9621366508,-5343.6387429441,-2466.1731274675,-5273.8935047550,-20605.7755511095,-7610.8578596598,-2185.3305170972,-4660.4469017296,1185.3526890974,-21126.3704596790,11339.1861785711,13710.6459539688,19011.0285347074
561541137122,46500,-2,0,8368.1144714355,10833.8373941206,13883.1717272213,2545.0441382738,-5345.4882328612,-2474.1308011897,-5279.0039374207,-20607.2843455155,-7612.5856726086,-2189.4797017138,-4668.8669479311,1184.6469626816,-21126.1879442267,11340.3664451629,13712.3859346145,19011.1745470693
561541137122,46500,-2,0,8368.6376823989,10834.0320772698,13874.8855256849,2543.9125424693,-5341.1687004891,-2479.7157740315,-5278.9430989366,-20601.4560187373,-7606.4409857130,-2184.0529089308,-4674.4154176823,1191.1931835724,-21119.0941769789,11347.1925230806,13720.0272482193,19019.5580901803
561541137122,46500,-2,0,8371.0833894603,10838.6679697593,13875.4452397387,2548.8282919858,-5332.4809649575,-2473.0843792630,-5273.5893123345,-20594.3135807023,-7597.9235979370,-2176.8861355021,-4667.4798304933,1198.4207954852,-21114.5799614576,11353.2277007047,13728.3256174525,19028.2458257119
561541137122,46500,-2,0,8373.2370717980,10843.0361729188,13882.6363485611,2556.6521210429,-5335.2308644395,-2462.9365201126,-5265.7289801868,-20593.4010034405,-7600.4544788761,-2177.9690605193,-4658.5122379348,1196.8633302919,-21117.0013331254,11350.4656335259,13725.6487241515,19024.7901998141
561541137122,46500,-2,0,8370.2803214700,10842.5129619554,13886.5178438476,2558.8788095615,-5342.9208488316,-2463.3137187141,-5268.2233580356,-20600.9206400771,-7608.7285127157,-2185.1723370385,-4659.0476165950,1188.9299919633,-21125.5552239919,11342.7634814370,13717.4111934024,19019.7284379358
561541165897,46501,-2,0,8363.5637528238,10835.4922008885,13880.4948339203,2548.7309504112,-5351.1827149744,-2473.6927641041,-5277.5803168924,-20606.6881283712,-7616.1143046873,-2188.9808261441,-4670.3635746403,1183.9777393564,-21129.1325268578,11336.9351546588,13712.6292885509,19017.0758800284
561541165897,46501,-2,0,8363.0162064667,10831.7688856607,13868.5218202465,2541.4668354079,-5352.0587891456,-2483.1957353228,-5283.1896251278,-20603.3906825322,-7615.0435473668,-2190.5382913374,-4679.9152166463,1188.3337748190,-21125.8350810188,11339.6728864440,13717.0704978913,19019.6067609676
561541165897,46501,-2,0,8366.7151863009,10835.1636730743,13867.0251935373,2542.5862635156,-5345.0745311693,-2480.7621959582,-5278.7119126969,-20596.9539709128,-7608.6920096253,-2186.0970819971,-4674.8291193743,1196.5226347808,-21121.6250579181,11346.7788213886,13723.5437126011,19026.4328388852
561541165897,46501,-2,0,8368.0049621641,10841.6247200873,13877.3920712304,2551.4078437122,-5343.2980474331,-2470.3466474778,-5272.4212134395,-20594.5204315482,-7607.0615382510,-2182.7996361580,-4661.1404604485,1196.2914485412,-21122.0387596101,11345.5012132222,13722.3269429188,19026.0191371933
561541165897,46501,-2,0,8369.1608933623,10841.5152108159,13885.1063910161,2554.9121403972,-5348.9560264558,-2466.8423507928,-5270.5352204319,-20597.3555049080,-7611.1133812930,-2184.7829707402,-4656.1030339638,1193.2373566386,-21126.3096211949,11341.4372024833,13716.5716223216,19019.7284379358
561541165897,46501,-2,0,8365.5957581932,10837.3051877152,13882.5025038960,2552.1744086121,-5348.9438587589,-2468.9595300400,-5274.4045480216,-20601.4073479500,-7613.4982498703,-2187.0339946524,-4661.9435284388,1191.1323450883,-21129.3028746134,11342.4957921069,13717.5207026738,19020.6531828943
561541165897,46501,-2,0,8367.0315464183,10836.1492565170,13875.1045442277,2547.0153051592,-5346.2061269738,-2476.2479804369,-5279.6488253523,-20598.2559144729,-7609.0692082268,-2182.3372636788,-4670.3757423371,1195.6587283064,-21122.9148337813,11346.7909890854,13722.7284769140,19026.6883605185
561541165897,46501,-2,0,8375.1352325024,10843.5228807917,13876.6376740274,2550.6412788124,-5338.9176765768,-2473.8266087692,-5274.8304174104,-20591.3203272838,-7600.3693049984,-2174.7324531644,-4666.4212408697,1201.9859306543,-21116.7579791889,11350.5386397069,13723.5437126011,19029.5599369687
561541221551,46502,5,0,8383.6282848848,10851.8212500249,13886.7490300872,2559.1708342853,-5336.3502925472,-2463.1312032618,-5266.1305141820,-20589.1179741589,-7599.3715538589,-2173.7347020249,-4655.3729721544,1202.0954399257,-21117.2081839714,11352.6558189541,13725.1863516722,19031.1052344652
561541221551,46502,5,0,8389.1037484551,10854.8753419275,13900.1334965925,2566.2159307458,-5340.8401726749,-2457.6314042978,-5264.7555644410,-20593.5348481056,-7605.9542778401,-2176.4846015069,-4650.6032349998,1194.3932878368,-21123.4745478352,11345.6472255840,13717.4841995833,19024.9118767824
561541221551,46502,5,0,8394.2750196049,10859.5720729012,13906.8622329356,2568.0532529660,-5344.6729971741,-2461.5980734621,-5269.2332768719,-20598.0368959301,-7608.5581649602,-2180.2930906125,-4654.6915811323,1191.7042268389,-21126.2852858013,11342.8851584052,13714.2232568347,19022.2349834813
561541221551,46502,5,0,8403.5103014935,10861.5432397865,13904.5138674487,2566.9338248583,-5338.8690057896,-2468.6066668321,-5271.5694746619,-20593.6200219833,-7603.6910862310,-2177.1051540449,-4661.2256343263,1197.9219199155,-21121.0775115611,11349.6260624451,13721.0006639651,19028.3066641960
561541221551,46502,5,0,8415.3373028054,10868.7708516993,13907.5314562608,2570.8639909321,-5329.9500840183,-2465.4795687486,-5266.2521911502,-20584.7741063931,-7592.6549852126,-2167.1763134374,-4655.5919906972,1207.4613942246,-21113.4727010467,11355.6125692820,13728.2161081811,19036.5441949451
561541221551,46502,5,0,8431.9705443623,10885.2945839849,13926.5008956078,2584.4918113738,-5325.1681791669,-2455.1613618428,-5257.2115924108,-20581.1481327398,-7589.6252287037,-2163.6355136619,-4644.2516972583,1209.9071012861,-21112.6574653596,11354.6634889298,13728.0822635161,19035.2179159914
561541221551,46502,5,0,8451.3415177045,10900.3825280453,13946.7357754243,2597.5720854585,-5329.3416991772,-2449.5033828201,-5254.2670097796,-20582.7299333268,-7594.3097919806,-2167.2979904056,-4638.6058859324,1204.2977930507,-21119.6052202455,11347.9590879804,13719.6013788305,19026.1043110710
561541221551,46502,5,0,8468.7656595549,10910.1166855037,13960.7164590739,2604.6901880999,-5330.4367918913,-2452.8008286591,-5258.4161943963,-20587.4509996941,-7597.1326976435,-2170.5711008510,-4643.9353371409,1199.3455404437,-21125.8959195029,11341.6075502388,13715.4035234266,19022.1498096036
561541227326,46503,5,0,8486.4574907355,10921.8950160283,13966.4717796712,2608.0363047262,-5326.2389364873,-2457.9234290216,-5262.1273419273,-20587.0616333958,-7592.9956807237,-2167.3831642834,-4653.6694945992,1201.2923719354,-21122.7201506322,11345.5498840095,13717.7275535198,19025.6176031981
561541227326,46503,5,0,8505.4512654761,10934.7562715701,13971.7160570018,2613.9011345949,-5314.9108107452,-2455.1005233587,-5256.7735553252,-20578.5929164070,-7581.8379027370,-2159.2794781993,-4651.3576322029,1211.0995355747,-21111.2703479218,11357.1700344754,13727.3156986162,19033.6969538885
561541227326,46503,5,0,8526.9880888527,10955.3318468977,13991.4155581582,2630.4248668804,-5304.7021131107,-2439.5745422126,-5245.5184357639,-20570.8420935308,-7571.9942360073,-2149.9833578266,-4636.2818558392,1217.9377811892,-21105.5515304150,11363.7162553661,13733.3387085436,19037.7609646274
561541227326,46503,5,0,8539.3139657343,10968.8988288553,14010.9933823463,2644.3568797427,-5302.8769585873,-2426.9079698199,-5236.4413339340,-20569.2602929438,-7572.8581424817,-2147.7566693080,-4625.0875747621,1216.2586390276,-21107.1211633051,11362.6454980457,13730.4914674870,19034.1471586710
561541227326,46503,5,0,8547.6245026644,10978.3166261962,14018.3426712274,2650.8179267557,-5306.3204167882,-2427.1878268468,-5239.0573887510,-20571.5113168561,-7577.9564074505,-2153.7553438417,-4629.7234672517,1213.1315409441,-21108.4109391684,11357.8514254974,13727.6077233400,19029.9006324798
561541227326,46503,5,0,8560.1450626952,10989.4865718797,14022.9907314137,2655.1131237342,-5304.8602931694,-2435.4253575960,-5243.9853059643,-20571.3531367974,-7576.3746068635,-2153.2199651815,-4639.0925938053,1214.0441182059,-21108.1797529287,11359.5914061431,13728.7028160541,19032.8208797173
561541227326,46503,5,0,8569.7697108822,10999.0260461889,14022.2363342107,2657.8508555193,-5299.0928048754,-2437.8467292637,-5243.9366351770,-20565.2449529922,-7570.9721494741,-2147.7931723984,-4642.4630458253,1220.6998483680,-21101.7552090062,11366.5756641195,13736.0277695415,19041.5572860362
561541227326,46503,5,0,8577.2163413378,11008.2004895934,14027.0182390621,2665.0176289480,-5296.6470978139,-2430.2175833557,-5236.9888802911,-20560.5117189281,-7568.4534362318,-2145.1649498847,-4633.9334903524,1224.1798096594,-21099.6015266686,11367.4760736844,13736.3684650525,19044.0273284912
561541258575,46504,5,0,8579.3335205850,11016.5596973107,14038.4193709852,2674.3745878049,-5299.2874880245,-2422.5032635700,-5233.8252791171,-20564.0281833100,-7572.8824778753,-2147.7688370048,-4626.2678413540,1219.3127309302,-21106.8169708846,11359.8712631701,13729.1895239270,19037.0552382117
561541258575,46504,5,0,8579.3456882818,11015.1482444793,14043.5054682572,2673.9243830224,-5305.6998642502,-2424.8151259664,-5238.1691468829,-20572.0345278194,-7578.7351400472,-2152.1857109515,-4631.6216279560,1210.7831754573,-21113.3753594721,11352.6558189541,13721.5238749285,19030.5455204114
561541258575,46504,5,0,8584.0910900428,11018.0198209295,14039.2711097628,2672.4885947973,-5305.0184732281,-2432.9188120504,-5242.5860208296,-20571.1462859514,-7576.8613147365,-2154.1812132305,-4641.3922885049,1212.6691684649,-21110.5037830219,11356.1601156391,13725.6730595451,19033.1737429251
561541258575,46504,5,0,8592.4746331538,11024.8337311503,14037.3851167553,2673.8148737510,-5296.6957686012,-2435.3523514150,-5242.4643438614,-20564.7460774225,-7568.7697963492,-2146.3695518701,-4643.0349275760,1220.3348174633,-21103.4221834710,11363.5824107011,13733.2657023627,19040.3040132634
561541258575,46504,5,0,8603.6445788372,11036.0523476211,14046.2432000424,2682.3687646176,-5293.2401427035,-2430.4122665049,-5237.1835634402,-20561.2296130407,-7564.2312454342,-2143.4736400263,-4636.0263342060,1222.9873753707,-21098.9323033433,11364.1056216644,13732.7303237024,19040.1458332047
561541258575,46504,5,0,8609.6067502805,11044.5088969130,14057.8268474178,2690.6671338508,-5292.7899379211,-2420.5320966847,-5231.7324352635,-20562.8235813245,-7566.8351325543,-2145.1649498847,-4626.4138537158,1219.9819542555,-21103.2275003218,11362.6941688330,13731.3432062646,19040.5717025935
561541258575,46504,5,0,8604.9343547005,11040.9315940471,14059.4694864889,2691.0808355428,-5298.6426000929,-2421.4325062496,-5232.6085094348,-20564.9772636621,-7571.9333975232,-2147.4646445842,-4625.1605809431,1217.5484148909,-21105.3811826595,11356.1236125486,13724.2372713200,19034.6703696344
561541258575,46504,5,0,8599.1425310127,11034.3610377627,14053.3247995933,2683.4273542412,-5299.4578357800,-2427.5285223579,-5235.5530920660,-20566.9119274570,-7572.2619253374,-2147.2942968287,-4632.9235715161,1219.0450416001,-21105.2595056912,11356.9023451453,13725.9042457848,19040.6690441681
561541287042,46505,5,0,8599.9577666999,11036.3200369512,14043.6758160127,2679.1199895658,-5295.1991418920,-2433.0648244123,-5237.4147496799,-20562.5680596912,-7566.1050707450,-2144.4227203785,-4637.3039423724,1223.9242880261,-21100.0273960574,11365.1277081976,13733.0345161230,19045.6699675623
561541287042,46505,5,0,8606.1632920796,11042.4403884531,14048.3603792896,2684.3034284124,-5288.9814488155,-2426.4821004311,-5231.1362181192,-20556.7032298225,-7560.5079302064,-2137.7791579131,-4628.8108899899,1229.2050684472,-21096.2310746486,11367.9506138605,13737.1350299524,19047.3734451175
561541287042,46505,5,0,8609.9961165788,11049.8261804247,14061.7326780980,2692.6869715234,-5288.5069086394,-2414.1440558526,-5223.8112646318,-20555.4256216561,-7559.0721419813,-2132.3401974333,-4614.7815355531,1227.9882987650,-21099.9178867860,11366.0037823688,13734.4824720449,19045.4996198068
561541287042,46505,5,0,8612.7581837576,11053.1479616573,14071.0896369548,2696.1060943307,-5291.3176466055,-2411.2603117056,-5224.6508357126,-20559.3922908204,-7564.3164193120,-2136.8787483483,-4613.6742751422,1221.8801149598,-21103.7507112852,11360.0051078351,13729.4937163475,19039.6956284222
561541287042,46505,5,0,8612.0646250387,11049.6680003660,14065.7966888368,2690.8131462127,-5293.5199997304,-2419.2788239119,-5232.7423540999,-20563.2981215006,-7566.6526171020,-2139.2757846224,-4624.5886991924,1219.5804202603,-21104.2130837645,11359.4332260844,13728.9461699905,19038.6005357082
561541287042,46505,5,0,8615.1430523349,11050.7752607769,14063.5943357119,2687.5400357673,-5286.2802201208,-2423.9025487046,-5234.1173038408,-20558.9664214316,-7557.4660060007,-2132.5592159761,-4629.1029147137,1227.4894231952,-21095.5496836265,11369.2525574205,13739.0088552631,19047.7019729317
561541287042,46505,5,0,8621.2999069273,11056.2750597408,14064.5190806704,2692.6383007361,-5278.3955525795,-2417.7213587186,-5226.4029840551,-20550.0353319636,-7549.6178415499,-2127.2662678581,-4622.0943213437,1236.4813511474,-21085.9250354396,11375.1295549860,13744.2044618065,19051.8876606388
561541287042,46505,5,0,8618.7933613818,11057.7473510564,14071.2721524072,2698.6126398762,-5279.9408500760,-2407.5856672651,-5220.5989926706,-20552.4202005409,-7552.6719334524,-2129.5659625577,-4612.6643563059,1234.0599794796,-21090.2932385990,11373.8641145164,13741.6492454737,19049.6123013329
561541323758,46506,5,0,8614.6563444620,11057.1754693057,14076.2487404077,2698.8194907222,-5288.5434117299,-2408.7050953728,-5224.9550281332,-20560.2075265075,-7561.1649858349,-2136.0513449643,-4615.3899203942,1225.2627346766,-21100.0152283605,11365.2007143785,13732.8398329739,19042.1291677868
561541323758,46506,5,0,8612.4904944275,11053.8293526794,14070.5177552041,2693.6117164820,-5295.2599803761,-2420.0940595990,-5234.3971608678,-20565.2084499018,-7569.1713303444,-2144.4713911658,-4628.4215236916,1219.1302154779,-21104.8701393929,11360.0172755319,13727.5833879463,19037.1769151799
561541323758,46506,5,0,8618.1728088438,11055.1191285427,14060.3942314474,2689.6572150145,-5291.6096713292,-2428.1369071990,-5238.6680224526,-20562.7262397499,-7565.7522075371,-2145.6516577576,-4638.4112027833,1222.9508722803,-21098.4942662577,11364.7505095961,13732.2192804359,19041.4112736743
561541323758,46506,5,0,8628.3450033878,11064.4882550963,14065.8210242305,2696.8118207464,-5283.5059852452,-2421.0431399512,-5231.3917397525,-20555.2431062038,-7556.4317517707,-2136.5867236245,-4630.1371689437,1230.4583412200,-21088.8817857676,11371.9902892057,13737.5608993412,19049.3811150933
561541323758,46506,5,0,8634.2585040438,11072.5676057868,14077.2343238504,2708.2737911536,-5277.0449382322,-2406.1742144336,-5219.1267013550,-20549.7189718462,-7552.9031196921,-2130.5637136971,-4614.7937032499,1233.8044578463,-21086.1927247697,11374.5455055385,13739.3008799868,19050.9994187708
561541323758,46506,5,0,8628.1746556323,11068.5035950479,14079.1081491611,2707.9087602489,-5279.8556761983,-2401.6234958218,-5217.5814038585,-20553.7829825850,-7556.2857394089,-2133.4352901474,-4610.4863385746,1228.5845159093,-21089.6970214547,11369.8366068680,13734.9691799179,19045.0615827212
561541323758,46506,5,0,8622.1029749176,11060.5094182352,14075.2023184810,2700.1944404632,-5287.0711204143,-2412.0147089086,-5226.3908163583,-20560.8159113487,-7563.5133513217,-2139.7624924953,-4621.9483089818,1222.8413630088,-21098.0927322625,11363.8014292439,13731.1728585091,19042.4090248138
561541323758,46506,5,0,8621.4215838956,11057.2484754867,14063.9106958293,2693.3196917582,-5288.0445361601,-2424.7664551791,-5234.3484900805,-20561.4242961898,-7562.1140661870,-2141.4051315664,-4634.6757198586,1223.7661079674,-21097.3626704531,11365.5292421927,13733.3022054531,19045.9254891956
561541353786,46507,5,0,8628.5275188402,11061.4098278001,14060.9296101077,2695.8627403942,-5282.0701970201,-2421.6636924892,-5230.2114731607,-20554.4765413039,-7554.7039388219,-2135.2117738835,-4630.1006658532,1232.5268496799,-21090.0377169657,11372.2701462326,13740.9800221484,19055.3797896270
561541353786,46507,5,0,8630.8758843270,11069.3796692191,14074.2289027351,2705.2927054320,-5277.3247952591,-2408.2792259840,-5221.7062530814,-20551.2764370395,-7551.4308283765,-2130.0283350369,-4615.6819451180,1234.0964825701,-21088.7479411025,11373.0610465261,13740.8218420897,19055.2094418715
561541353786,46507,5,0,8633.4676037503,11072.2390779725,14086.0315686534,2711.3278830562,-5280.9020981251,-2402.2440483598,-5220.1852909786,-20555.9123295290,-7558.0257200545,-2133.2649423918,-4612.6278532154,1226.7958644763,-21095.4645097488,11365.3467267404,13732.7546590961,19046.6555510050
561541353786,46507,5,0,8638.0304900589,11074.9768097577,14088.5624495926,2713.0800313987,-5284.5280717783,-2406.3323944923,-5224.1519601429,-20558.9542537348,-7561.6760291014,-2139.1541076541,-4620.4638499694,1222.9508722803,-21099.1999926734,11362.3899764124,13730.0412627046,19040.1580009015
561541353786,46507,5,0,8640.8290603281,11074.6239465498,14085.8490532010,2709.7582501660,-5282.8610973136,-2415.5676763809,-5226.8166857471,-20554.1115103993,-7559.1329804654,-2135.4186247295,-4628.1781697552,1228.0369695522,-21094.3572493379,11366.6973410877,13735.8574217859,19046.4973709463
561541353786,46507,5,0,8642.6420471548,11074.8064620022,14081.8702163399,2710.0867779802,-5274.8060820168,-2412.7082676275,-5222.7040042209,-20548.6968853130,-7549.9342016673,-2129.2374347434,-4623.6396188402,1235.2889168587,-21088.8574503739,11372.5743386532,13743.1215367892,19052.1675176658
561541353786,46507,5,0,8642.4716993992,11079.3450129171,14084.9608113330,2714.5036519270,-5275.7308269753,-2406.4784068542,-5218.1897886996,-20548.6360468289,-7551.2361452273,-2130.2230181861,-4616.2051560814,1234.0356440860,-21090.9259588338,11369.6662591125,13740.1404510676,19051.2914434945
561541353786,46507,5,0,8637.9088130906,11078.2742555967,14090.5336164779,2716.2436325726,-5283.9196869371,-2405.4928234115,-5218.5548196043,-20555.0605907514,-7559.6926945193,-2134.3113643186,-4609.8536183398,1228.1951496109,-21098.2387446244,11361.3557221825,13731.8542495312,19045.7308060464
561541433815,46508,5,0,8631.8614677696,11072.0565625202,14087.6255369372,2711.1088645134,-5289.3708151138,-2410.8222746200,-5222.3268056194,-20558.1511857445,-7563.8053760454,-2135.8688295119,-4615.9739698417,1225.8711195178,-21102.4244323315,11359.2872137226,13730.3332874283,19043.5406206183
561541433815,46508,5,0,8631.4842691681,11072.5189349995,14077.9643856598,2707.9087602489,-5286.1828785462,-2416.9061230314,-5224.7238418935,-20553.3692808931,-7559.6805268225,-2135.5524693946,-4623.4327679942,1230.6773597628,-21098.4455954704,11365.4562360118,13737.4757254634,19049.2351027314
561541433815,46508,5,0,8638.3590178731,11076.5586103447,14074.6791075176,2707.7749155839,-5279.8435085015,-2416.5410921267,-5222.6188303432,-20546.7743892150,-7552.4772503033,-2128.3370251785,-4622.6053646102,1238.2334994899,-21092.1548962129,11373.8641145164,13745.6402500316,19056.9007517299
561541433815,46508,5,0,8647.4239520062,11085.1368366049,14086.3114256803,2715.0268628903,-5275.9985163054,-2407.6221703555,-5216.4863111444,-20544.6815453615,-7551.0779651686,-2125.3072686696,-4613.6499397486,1238.7445427564,-21091.7655299146,11373.2435619785,13745.1657098555,19055.7813236222
561541433815,46508,5,0,8650.7457332388,11089.5415428548,14095.0843350897,2722.4978287396,-5281.0724458806,-2403.1201225310,-5215.6589077604,-20549.2809347605,-7557.6363537562,-2130.6610552717,-4608.9775441686,1232.6728620418,-21099.2973342480,11364.7991803833,13737.8650917617,19050.7438971375
561541433815,46508,5,0,8641.7781406803,11082.0462416118,14092.6386280282,2718.4946564849,-5291.0012864881,-2410.8222746200,-5222.7770104019,-20555.1701000228,-7566.3362569846,-2139.2514492287,-4617.6652797001,1225.7859456400,-21104.6024500628,11356.9510159326,13728.9583376873,19047.5559605699
561541433815,46508,5,0,8635.9741492958,11077.0696536112,14081.6511977971,2710.7681690023,-5294.4812477795,-2424.4865981521,-5233.1803911855,-20557.9321672017,-7570.3029261489,-2144.0090186865,-4631.0010754181,1224.2893189308,-21105.2230026008,11357.6689100451,13731.1363554186,19046.1080046479
561541433815,46508,5,0,8638.6023718095,11079.6613730345,14072.5862636640,2708.7118282392,-5292.2180561704,-2429.6091985146,-5235.5409243691,-20554.1845165802,-7566.2510831068,-2142.3420442218,-4635.1624277315,1230.3244965550,-21099.8570483018,11359.5792384463,13730.5279705775,19055.5014665952
561541467605,46509,5,0,8646.3410269889,11088.2639346883,14080.5561050831,2717.6794207977,-5286.7425926001,-2419.4248362738,-5226.2934747837,-20548.6482145258,-7560.6539425683,-2136.9517545292,-4623.2989233292,1234.4371780811,-21099.5893589717,11364.5923295374,13737.1593653460,19056.2801991919
561541467605,46509,5,0,8651.7069812879,11096.1607699264,14096.7756449480,2727.4987521339,-5284.8322641989,-2407.9628658666,-5218.5913226948,-20549.4026117288,-7560.9459672920,-2135.5281340009,-4611.5327605014,1232.3686696212,-21103.0814879599,11361.4530637570,13733.2413669690,19053.4086227417
561541467605,46509,5,0,8651.4271242609,11095.2846957552,14101.6427236772,2727.2067274101,-5287.6916729523,-2407.9506981698,-5219.7472538930,-20552.4323682377,-7564.7301210040,-2140.4560512142,-4614.3800015579,1227.5745970730,-21107.6078711781,11358.1799533117,13729.7370702840,19046.8989049414
561541467605,46509,5,0,8648.7137278694,11090.1864307864,14090.3267656319,2721.4392391160,-5291.0256218817,-2417.7943648995,-5226.2569716932,-20553.5517963454,-7566.5309401338,-2143.7656647500,-4626.4625245031,1227.8544540999,-21107.5592003908,11358.5206488227,13730.5401382743,19047.7871468095
561541467605,46509,5,0,8649.6628082216,11091.8899083416,14084.0725694649,2717.3995637708,-5288.5555794267,-2423.7443686459,-5229.1407158403,-20548.8794007654,-7562.6859479377,-2141.1982807204,-4630.7090506943,1231.6751109023,-21102.8624694171,11364.2272986327,13736.5266451112,19053.2504426830
561541467605,46509,5,0,8652.3397015226,11095.1751864838,14085.1919975726,2720.5753326416,-5286.9737788397,-2420.4834258974,-5225.7215930330,-20548.4900344671,-7562.6251094536,-2139.1054368668,-4625.8663073588,1232.7337005259,-21102.3635938474,11364.9208573516,13736.3197942652,19050.0016676313
561541467605,46509,5,0,8652.6317262464,11097.9372536626,14092.7238019060,2724.9435358010,-5290.6362555834,-2413.1584724100,-5223.0933705193,-20551.9456603648,-7566.1172384418,-2140.2857034587,-4617.8112920620,1227.7449448285,-21106.0990767720,11361.3557221825,13731.0146784504,19044.7330549069
561541467605,46509,5,0,8652.5708877623,11099.9205882447,14100.7058110219,2729.1048881145,-5292.9724533734,-2410.8344423168,-5223.0081966415,-20556.2286896464,-7569.9622306378,-2140.1275234000,-4616.9960563749,1224.3379897181,-21109.1653363714,11357.0726929008,13726.6464752910,19041.8128076694
561541476071,46510,5,0,8657.2676187359,11102.1716121570,14099.8540722443,2728.1679754591,-5289.3343120234,-2414.5942606351,-5225.3930652188,-20553.8681564628,-7565.1803257864,-2137.2802823434,-4624.0168174417,1226.9418768382,-21106.1964183466,11359.7495862018,13731.3310385678,19046.5217063399
561541476071,46510,5,0,8667.0017761943,11108.2432928716,14098.2357685668,2730.7353594888,-5279.5758191714,-2413.7303541607,-5222.5458241622,-20545.1682532344,-7556.1153916533,-2128.7142237801,-4624.2723390750,1238.2578348835,-21098.2509123212,11367.6707568336,13741.1747052976,19056.3653730697
561541476071,46510,5,0,8677.1861384351,11116.5173267112,14107.8604167537,2738.5713562427,-5272.5307227109,-2405.9430281940,-5215.7562493350,-20538.6098646468,-7548.6444258040,-2123.0805801510,-4614.7572001595,1243.3195967619,-21094.9169633917,11371.8442768438,13744.4478157429,19062.4005506939
561541476071,46510,5,0,8679.3519884696,11124.4871681302,14114.6256561873,2746.7723839014,-5275.1711129215,-2398.4112238606,-5210.0495995251,-20539.5224419085,-7551.1023005623,-2124.6623807380,-4604.3903224663,1239.3529275976,-21099.2486634607,11367.8776076796,13739.4347246519,19056.5843916125
561541476071,46510,5,0,8676.2978965670,11125.9351240522,14120.2592998163,2748.9747370263,-5281.7660045995,-2401.0637817680,-5211.3758784788,-20543.8784773712,-7557.9527138736,-2130.1256766115,-4606.0207938406,1233.4394269416,-21103.3491772900,11360.6743311604,13731.7690756534,19047.6654698413
561541476071,46510,5,0,8670.8589360872,11119.1090461345,14112.7883339670,2741.3212557247,-5284.6984195338,-2410.2017220820,-5219.5890738343,-20549.8284811176,-7560.4835948128,-2134.4330412868,-4618.6508631428,1229.4727577774,-21107.5713680876,11359.6279092336,13731.6108955947,19049.1864319441
561541476071,46510,5,0,8672.4042335837,11117.8922764522,14103.6625613498,2735.5781028243,-5280.2693778903,-2416.8087814569,-5223.2272151843,-20548.2101774401,-7556.5899318294,-2131.4397878684,-4626.0244874175,1234.4371780811,-21100.7452901699,11365.3345590436,13737.9015948522,19058.1661921995
561541476071,46510,5,0,8684.3164087733,11124.9738760032,14107.7022366950,2742.2216652896,-5273.9056724519,-2409.7880203900,-5216.2551249048,-20543.1362478650,-7549.7516862149,-2127.3149386454,-4618.2736645413,1241.3971006638,-21096.4622608882,11370.5545009806,13743.5839092685,19063.1184448064
561541483491,46511,5,0,8689.0739782311,11131.2402398670,14121.8411004033,2751.2135932418,-5273.4798030631,-2399.1169502763,-5210.2077795838,-20542.1263290287,-7549.6421769435,-2125.3194363665,-4606.7143525595,1239.5597784436,-21099.2121603702,11367.2692228384,13740.7245005151,19061.0499363465
561541483491,46511,5,0,8686.4335880205,11133.6129407475,14126.4039867119,2755.0099146505,-5277.7506646479,-2395.2597903834,-5208.7476559650,-20543.5986203442,-7553.0491320540,-2127.5096217946,-4604.5485025250,1236.2258295141,-21103.1423264440,11362.7063365298,13736.0521049351,19055.3311188397
561541483491,46511,5,0,8683.5255084799,11134.7080334615,14122.2548020953,2752.8075615256,-5279.3324652349,-2402.3778930248,-5215.2087029780,-20547.1272524229,-7556.8454534627,-2132.0360050127,-4615.3899203942,1233.4515946385,-21105.5028596277,11359.7739215955,13734.1174411403,19051.3766173723
561541483491,46511,5,0,8683.8905393845,11134.7323688552,14112.9586817226,2747.5267811044,-5280.8899304282,-2414.8741176620,-5222.6553334336,-20545.3386009899,-7555.2271497853,-2132.1455142841,-4624.6252022829,1234.5223519589,-21103.3978480773,11362.2439640505,13735.7722479082,19053.9561690987
561541483491,46511,5,0,8689.6945307691,11139.7576276430,14111.4012165292,2749.4371095056,-5276.4608887847,-2411.0047900723,-5218.3844718488,-20538.1961629548,-7550.3479033593,-2127.0107462248,-4618.1033167858,1241.5066099352,-21096.2432423454,11366.2836393957,13740.1891218549,19059.7236573928
561541483491,46511,5,0,8693.9653923539,11146.3160162306,14123.9217765600,2759.7918195019,-5271.3139530286,-2396.3427154007,-5208.0175941556,-20534.8378786317,-7547.6223392709,-2123.3361017843,-4604.2808131949,1245.4246083122,-21095.7808698662,11370.3598178314,13740.8461774833,19059.1639433390
561541483491,46511,5,0,8696.0339008138,11148.2385123286,14135.0187160626,2765.6323139770,-5273.0052628870,-2389.9790099623,-5204.0995957786,-20537.5512750232,-7548.8999474373,-2123.0440770606,-4599.3163928911,1241.9933178082,-21098.7011171037,11365.9794469752,13736.7213282604,19055.9760067713
561541483491,46511,5,0,8695.6688699091,11147.8491460303,14134.7145236420,2765.0360968326,-5276.8259196894,-2397.8880128972,-5211.8625863517,-20540.6175346226,-7553.5966784110,-2127.9354911834,-4609.5615936161,1238.0266486439,-21102.8503017203,11362.5238210775,13734.0079318689,19052.6663932355
561541513735,46512,5,0,8695.6567022123,11149.3701081332,14123.7635965013,2761.3371169985,-5276.4000503006,-2407.7195119301,-5215.3668830367,-20537.1254056344,-7551.6376792225,-2129.0062485038,-4619.0037263507,1242.2123363510,-21098.3847569863,11366.4053163640,13739.2643768964,19057.5821427520
561541513735,46512,5,0,8697.5548629167,11151.4142811994,14121.5490756796,2762.1036818983,-5270.6325620065,-2406.1742144336,-5210.9986798773,-20530.4331723818,-7546.0648740776,-2123.4334433589,-4613.9662998660,1248.6003771830,-21096.4744285851,11370.4084886187,13744.1314556255,19064.9314316330
561541513735,46512,5,0,8698.6621233276,11157.9361666965,14129.7014325509,2768.2970395812,-5270.7542389747,-2396.0628583737,-5203.9779188104,-20529.3745827582,-7547.0261221266,-2121.4744441704,-4602.1636339477,1248.2840170656,-21098.6646140132,11368.9361973032,13742.0994502561,19064.2865437014
561541513735,46512,5,0,8697.6278690976,11158.0091728774,14134.7388590356,2771.2294545155,-5275.2441191024,-2392.0110153317,-5202.1770996806,-20533.1709041670,-7552.3920764255,-2126.7795599852,-4597.7467600010,1243.7089630602,-21105.4055180531,11363.8501000312,13737.6339055221,19060.9039239846
561541513735,46512,5,0,8695.5836960314,11154.6995593416,14134.5198404928,2767.8103317083,-5279.5514837777,-2399.7861736016,-5207.9567556715,-20536.6265300647,-7555.8720377169,-2129.4321178926,-4606.1911415961,1239.8031323800,-21108.3866037747,11359.5792384463,13734.5554782259,19059.5289742436
561541513735,46512,5,0,8702.0204076507,11157.4616265204,14133.3274062042,2766.6178974196,-5274.5627280803,-2405.1156248100,-5211.7287416866,-20533.7792890081,-7551.1631390464,-2126.4510321710,-4613.9906352596,1244.9135650457,-21101.2076626492,11365.9186084911,13741.3450530531,19067.0364431834
561541513735,46512,5,0,8713.7378996912,11164.3728783158,14135.0917222435,2771.5214792393,-5260.6307152180,-2399.6401612397,-5204.4524589865,-20525.5660936526,-7538.9832745266,-2117.2644210697,-4608.2109792687,1255.4994612816,-21089.9525430880,11375.6892690399,13749.1688821102,19069.9080196336
561541513735,46512,5,0,8719.8825865868,11172.0263596175,14144.4243457067,2778.8586004235,-5258.8663991787,-2387.9956753801,-5196.8963192595,-20523.9599576720,-7537.0364430350,-2115.2689187907,-4597.3330583090,1254.0758407533,-21090.0742200562,11371.7225998756,13744.5086542271,19070.4312305970
561541546216,46513,5,0,8710.8541555442,11170.4567267273,14147.2229159760,2780.8054319152,-5267.9921717959,-2388.4093770721,-5200.1450943112,-20533.8887982795,-7548.0847117502,-2123.6037911144,-4597.6859215169,1242.9180627667,-21101.4631842825,11363.3877275519,13734.8353352528,19062.0841905765
561541546216,46513,5,0,8703.8090590837,11166.7699145900,14140.6888627820,2776.4128933621,-5277.7750000416,-2398.0340252591,-5209.3682085030,-20541.5057764907,-7557.7093599371,-2132.4862097952,-4609.2452334987,1235.4592646142,-21109.4330257015,11354.3106257220,13728.3134497557,19056.2071930110
561541546216,46513,5,0,8704.9284871914,11165.9425112060,14133.0840522677,2771.9473486281,-5275.3049575865,-2406.1255436463,-5213.4808900291,-20538.2813368326,-7553.8035292570,-2130.6367198781,-4617.6044412160,1239.8031323800,-21105.6367042927,11358.1556179180,13732.3774604946,19060.5510607768
561541546216,46513,5,0,8711.1461802679,11170.8460930257,14132.4513320329,2776.4615641494,-5264.7312290474,-2401.5504896409,-5206.4601289623,-20526.5638447921,-7542.3537265466,-2118.1526629377,-4611.5327605014,1251.1677612127,-21095.0264726631,11368.4373217334,13741.8560963197,19070.2973859319
561541546216,46513,5,0,8718.2034444252,11178.8037667479,14139.8127886108,2785.2709766492,-5258.5987098486,-2390.3075377765,-5197.5047041006,-20522.5241694469,-7538.9467714362,-2114.5996954654,-4598.9270265928,1254.4773747485,-21094.2355723696,11369.2768928142,13744.3261387747,19071.0396154381
561541546216,46513,5,0,8716.6459792319,11178.7550959606,14149.2305859518,2787.3151497154,-5265.2666077076,-2383.8221553699,-5196.5677914452,-20527.9509622299,-7543.8260178622,-2117.8606382140,-4593.2690475701,1247.6026260435,-21102.5217739061,11361.5747407253,13738.9236813853,19065.5884872615
561541546216,46513,5,0,8710.7568139696,11170.4445590305,14147.8921393012,2782.2412201403,-5271.4599653905,-2389.2732835465,-5202.4204536171,-20533.1830718638,-7549.5083322785,-2122.1923382830,-4598.4281510231,1243.7089630602,-21108.5934546207,11356.9510159326,13735.6627386368,19063.2522894715
561541546216,46513,5,0,8707.5445420083,11165.3341263649,14137.3914169430,2773.8333416356,-5269.1359352973,-2397.6933297480,-5205.9612533926,-20530.8590417706,-7546.6245881314,-2119.6979604343,-4606.0694646279,1248.7098864544,-21103.7020404979,11361.4165606666,13738.0111041236,19066.5984060978
561541578222,46514,5,0,8714.8573277989,11171.1137823558,14135.3837469672,2776.9604397191,-5259.7303056531,-2395.9168460119,-5200.8751561206,-20521.2343935837,-7536.8782629763,-2112.3365038564,-4604.4389932536,1257.2151065337,-21093.3594981984,11372.5500032596,13749.3148944721,19077.6831779035
561541578222,46514,5,0,8720.6248160930,11179.2174684398,14144.3270041321,2782.7765988005,-5257.4184432568,-2388.4580478594,-5196.9328223499,-20520.4191578965,-7534.9435991814,-2109.1120641983,-4596.8828535266,1257.7504851939,-21091.2666543449,11373.7302698514,13748.3901495136,19076.8679422163
561541578222,46514,5,0,8722.0484366213,11183.9507025040,14154.8155587935,2787.8748637693,-5261.7866464162,-2382.9460811986,-5194.1220843838,-20526.1623107970,-7539.6524978519,-2113.4680996609,-4591.5655700149,1250.1091715891,-21094.8196218171,11369.3742343888,13741.6127423832,19070.1148704796
561541578222,46514,5,0,8720.4301329438,11180.7262628459,14157.2247627644,2787.7775221947,-5265.5099616440,-2384.7469003284,-5197.5777102816,-20530.6521909246,-7545.5659985078,-2118.6880415980,-4596.3839779568,1244.6580434124,-21097.3991735436,11365.7725961292,13736.2711234779,19063.8971774031
561541578222,46514,5,0,8717.3030348603,11172.5252351872,14146.9795620395,2777.6418307412,-5267.6028054976,-2395.2962934739,-5205.0486761308,-20532.9883887146,-7545.6390046888,-2119.7587989184,-4607.1767250388,1243.9279816030,-21096.2432423454,11367.1840489606,13738.7898367203,19067.4258094817
561541578222,46514,5,0,8717.3395379508,11169.4224724974,14138.2553234175,2772.5435657724,-5261.5554601766,-2396.2088707356,-5203.1870185169,-20527.1600619364,-7538.6060759251,-2114.2103291671,-4607.8824514545,1252.8104002838,-21089.4049967309,11375.4824181939,13748.6456711469,19078.8634444953
561541578222,46514,5,0,8716.4269606891,11170.9312669034,14139.6424408553,2775.3908068290,-5255.4229409778,-2386.2313593408,-5195.4240279439,-20520.5164994711,-7532.7290783596,-2107.6519405795,-4593.9991093795,1258.7360686365,-21085.4991660508,11381.2012357007,13754.9363704043,19085.1176406623
561541578222,46514,5,0,8712.1074283169,11170.3350497591,14149.2549213454,2779.2114636314,-5254.5103637161,-2374.8788982050,-5188.2937576056,-20521.7211014566,-7532.2423704867,-2104.7560287357,-4581.5272201360,1259.6729812919,-21087.3243205742,11377.3075727173,13750.8845273623,19083.8400324959
561541608400,46515,5,0,8714.4557938038,11172.8902660919,14155.8498130234,2782.1925493530,-5255.6906303079,-2373.6499608259,-5189.2793410483,-20524.9942119020,-7536.7930890985,-2108.5888532349,-4584.7273244004,1255.3534489197,-21089.5266736992,11375.8109460081,13749.8867762228,19083.1464737770
561541608400,46515,5,0,8716.4634637796,11174.5329051630,14151.7858022846,2778.8464327267,-5258.6838837264,-2386.1705208567,-5198.9891631130,-20527.5615959316,-7539.4699823996,-2114.1373229862,-4599.1338774388,1252.4453693791,-21090.0377169657,11373.5964251863,13748.3293110295,19079.5448355174
561541608400,46515,5,0,8722.6203183720,11175.4454824247,14145.4951030271,2776.4007256653,-5255.9583196380,-2392.7775802315,-5202.7976522186,-20526.1014723128,-7536.3185489224,-2112.2269945850,-4605.0595457916,1256.1686846069,-21085.4139921730,11377.9524606489,13753.5735883601,19084.3510757624
561541608400,46515,5,0,8727.6334094630,11181.3954861711,14148.3788471741,2781.4989906341,-5249.2417509918,-2385.9515023139,-5195.5092018217,-20519.7377668744,-7530.9890977140,-2107.0922265257,-4595.2645498491,1261.0600987297,-21080.0723732677,11383.7564520335,13759.0612196273,19089.0356390393
561541608400,46515,5,0,8726.2949628125,11181.4198215648,14156.8232287693,2788.5197517009,-5247.6842857984,-2373.7107993100,-5186.2617522362,-20516.8661904242,-7529.2977878556,-2103.3080728138,-4581.8800833439,1262.6418993167,-21079.8533547249,11384.8758801412,13758.9030395686,19087.9648817189
561541608400,46515,5,0,8719.9069219804,11176.4432335642,14160.2301838797,2788.2033915835,-5250.7627130946,-2370.4498565614,-5185.3856780650,-20519.9932885077,-7532.6195690882,-2103.8191160803,-4581.1135184440,1258.9550871793,-21083.2724775322,11381.4932604244,13756.4208294167,19084.2172310974
561541608400,46515,5,0,8714.8938308894,11173.4499801458,14154.6087079475,2782.4967417736,-5253.5734510607,-2379.9893308706,-5192.5037807064,-20519.8229407522,-7532.6439044819,-2105.7537798752,-4591.2370422007,1257.6288082256,-21081.6906769452,11381.9678006005,13755.5082521550,19083.6331816499
561541608400,46515,5,0,8717.2786994667,11172.9146014856,14143.3170852958,2779.0654512695,-5248.0493167031,-2382.8244042304,-5193.7692211760,-20518.4114879207,-7527.8133288432,-2103.6122652343,-4599.2555544070,1262.3012038056,-21075.6068285337,11386.2629975790,13760.3388277937,19088.5245957727
561541637504,46516,5,0,8724.5671498636,11177.7695125179,14146.7118727094,2782.9956173433,-5245.2750818275,-2381.9239946655,-5191.6885450192,-20516.8661904242,-7525.0390939675,-2099.7551053415,-4594.5344880397,1262.0821852628,-21075.1931268417,11385.7641220093,13758.6353502385,19089.9603839978
561541637504,46516,5,0,8727.3778878297,11182.3080634329,14159.5366251608,2789.6026767182,-5246.3215037543,-2371.2529245518,-5187.6975404613,-20520.1758039601,-7527.4239625448,-2102.1399739188,-4586.9783483127,1257.2029388368,-21079.5491623044,11380.0331368057,13751.0548751178,19081.3213192535
561541637504,46516,5,0,8727.0858631060,11180.9939521760,14164.3306977090,2790.9289556719,-5249.5946141996,-2369.5981177838,-5187.9895651851,-20524.4831686354,-7533.8485064674,-2107.1408973130,-4587.6110685475,1250.4620347969,-21084.6230918795,11372.1241338708,13743.0606983051,19072.2198820300
561541637504,46516,5,0,8722.2309520736,11176.3215565960,14159.5366251608,2783.5066606099,-5252.5391968308,-2378.6630519169,-5193.9395689315,-20525.5417582590,-7535.4181393575,-2109.3189150443,-4595.4957360887,1249.0992527528,-21085.3409859921,11372.8298602865,13742.9268536401,19072.0738696681
561541637504,46516,5,0,8717.6802334618,11169.4103048005,14148.6222011106,2775.8653470051,-5248.2196644586,-2384.0776770031,-5194.0369105061,-20520.6990149235,-7529.0179308286,-2102.7361910631,-4598.4768218104,1258.2736961573,-21077.4684861476,11381.2012357007,13751.4442414161,19081.5646731900
561541637504,46516,5,0,8719.6757357408,11171.9290180429,14147.9408100885,2778.1285386141,-5241.5882696901,-2376.3390218237,-5184.4974361969,-20511.5975776999,-7520.6100523240,-2095.5572499375,-4588.8400059266,1266.9614316888,-21071.2507930711,11390.1323251687,13759.3775797447,19089.2789929757
561541637504,46516,5,0,8723.8370880543,11175.9443579945,14158.8917372292,2785.9523676713,-5240.4080030983,-2365.8504671624,-5177.9390476093,-20511.2690498857,-7520.1233444511,-2094.3283125584,-4576.2464397148,1266.8884255079,-21076.5559088859,11387.6866181073,13758.3068224243,19086.9671305794
561541637504,46516,5,0,8720.4423006407,11174.6910852217,14165.0364241248,2787.7531868011,-5246.7230377494,-2366.6535351527,-5179.2896619567,-20516.1847994021,-7526.7425715228,-2099.1832235908,-4575.7232287515,1260.1961922553,-21084.4162410335,11380.8727078865,13752.6366757048,19083.0247968087
561541668832,46517,5,0,8713.7013966007,11166.1493620520,14156.2148439281,2777.9460231618,-5251.3467625421,-2376.4363633983,-5187.6123665836,-20521.4169090360,-7532.9359292056,-2106.1066430830,-4587.3555469142,1257.4341250765,-21087.5920099043,11377.9037898617,13750.9697012400,19080.4574127791
561541668832,46517,5,0,8709.6008827714,11160.2358613960,14146.4806864698,2771.1686160314,-5248.3170060332,-2382.7270626558,-5191.3356818114,-20518.2046370747,-7529.2612847651,-2102.4685017330,-4595.0942020936,1262.2160299279,-21082.7005957815,11384.2066568159,13757.7957791577,19087.3929999682
561541668832,46517,5,0,8712.1195960138,11159.2989487407,14143.1710729339,2769.0149336937,-5243.1213994898,-2380.3665294721,-5189.2550056547,-20515.0045328103,-7523.9074981630,-2097.9786216053,-4590.7503343278,1266.9614316888,-21078.0160325047,11388.4166799167,13762.5411809187,19093.8175438907
561541668832,46517,5,0,8717.7897427333,11164.5188906777,14152.5645348812,2776.4250610589,-5243.5107657882,-2371.3015953391,-5183.1468218495,-20514.3231417882,-7524.1508520995,-2097.7109322752,-4581.2230277154,1265.6108173415,-21078.8434358886,11386.1413206108,13760.6065171238,19090.4227564771
561541668832,46517,5,0,8721.0871885723,11169.3738017101,14163.0530895426,2783.0807912211,-5247.3435902874,-2367.2862553875,-5181.5041827784,-20516.5863333973,-7526.9737577624,-2100.2783163048,-4575.2730239690,1261.9848436883,-21081.8731923975,11381.7852851482,13755.3744074899,19087.8553724474
561541668832,46517,5,0,8715.7820727575,11166.4170513821,14162.6272201538,2780.3187240422,-5247.7572919794,-2371.3380984295,-5185.0814856444,-20518.4114879207,-7527.5699749067,-2099.3900744368,-4581.1621892313,1261.9361729010,-21082.9561174148,11382.1624837497,13757.2360651039,19088.6219373473
561541668832,46517,5,0,8711.0731740870,11159.5544703740,14150.4716910277,2772.9816028580,-5244.3503368689,-2377.6653007775,-5187.4298511312,-20515.5520791673,-7524.6983984565,-2097.2485597959,-4589.3875522836,1266.6937423587,-21077.1399583334,11386.4333453345,13761.9692991680,19092.5521034211
561541668832,46517,5,0,8709.4061996222,11158.8000731709,14143.8646316528,2771.2537899092,-5240.1646491618,-2377.5557915060,-5187.5515280994,-20513.5200737979,-7521.2306048620,-2095.3625667884,-4588.4263042346,1268.4823937917,-21073.3071338342,11386.4576807282,13760.2293185223,19091.4691784039
561541697614,46518,5,0,8713.2633595151,11161.6716496212,14152.7835534240,2774.0888632689,-5243.9001320865,-2373.2970976180,-5187.9408943978,-20518.7521834318,-7524.8322431216,-2099.2927328622,-4585.5182246939,1261.3034526662,-21077.6875046904,11384.3039983905,13757.4794190403,19089.7900362423
561541697614,46518,5,0,8713.5432165420,11159.5179672835,14158.3441908721,2775.3421360417,-5250.8600546692,-2372.1655018135,-5190.5812846084,-20527.9022914426,-7534.0310219197,-2107.5059282177,-4586.4186342588,1250.5107055842,-21084.5014149113,11375.8839521890,13749.0350374452,19078.8391091016
561541697614,46518,5,0,8710.0024167666,11153.7261435958,14156.3243531995,2771.0469390632,-5255.4594440683,-2378.1398409535,-5196.8963192595,-20531.9176313942,-7539.1657899790,-2111.2900819296,-4594.5953265238,1245.6557945519,-21089.2711520659,11373.4139097340,13746.3216410537,19076.7340975513
561541697614,46518,5,0,8706.3156046292,11149.0050772285,14145.9453078096,2763.0284268568,-5254.2305066892,-2387.5941413850,-5201.9824165315,-20530.5061785627,-7536.2333750446,-2109.3067473475,-4604.5971733123,1248.4178617307,-21086.5090848871,11376.4071631524,13747.9764478216,19079.5691709110
561541697614,46518,5,0,8708.7126409033,11152.5093739135,14141.6379431342,2763.6854824853,-5247.3192548937,-2385.6229744997,-5197.9427411862,-20522.2443124200,-7527.2901178798,-2103.1133896646,-4602.0906277668,1256.8622433258,-21077.7605108714,11385.0218925031,13755.9827923311,19085.9207086526
561541697614,46518,5,0,8710.9393294219,11158.4472099631,14147.7704623330,2770.8887590045,-5243.8149582087,-2375.2195937160,-5189.5713657721,-20519.5552514221,-7524.4307091264,-2098.8790311702,-4591.0788621420,1258.9185840889,-21076.0083625289,11387.0052270852,13756.3599909326,19086.2492364668
561541697614,46518,5,0,8707.0578341354,11158.5445515377,14156.8110610724,2774.5999065355,-5248.9010554807,-2371.0704090994,-5189.9728997672,-20525.2862366257,-7529.4924710047,-2102.4076632489,-4586.0901064446,1251.9464938093,-21080.3887333851,11381.8461236323,13749.0350374452,19080.1288849649
561541697614,46518,5,0,8702.9573203061,11151.9253244660,14152.8200565145,2769.9153432586,-5256.9682384743,-2380.2326848071,-5199.4393678955,-20533.6697797367,-7538.0220264776,-2111.2170757487,-4597.7345923042,1241.6526222971,-21085.8885323491,11374.3143192989,13740.4203080945,19069.8471811495
561541728823,46519,5,0,8701.9960722571,11146.9487364654,14140.4455088456,2758.9157453307,-5261.6284663575,-2395.5274797135,-5209.8792517695,-20539.4494357276,-7541.9765279451,-2119.2720910455,-4613.5160950835,1236.9193882330,-21087.1418051219,11373.5112513086,13741.2233760849,19072.4632359664
561541728823,46519,5,0,8702.9329849124,11145.3912712721,14134.5928466738,2752.2356797749,-5262.6018821034,-2402.1467067852,-5213.8094178434,-20538.2326660453,-7540.4433981454,-2116.7533778031,-4616.0834791132,1241.1415790306,-21084.0512101288,11378.1836468886,13745.4942376697,19078.9851214635
561541728823,46519,5,0,8706.9604925608,11145.8414760545,14140.6888627820,2756.7985660835,-5258.7568899073,-2391.8893383635,-5204.8539929817,-20533.1709041670,-7534.8097545164,-2112.4460131278,-4602.4069878842,1247.6634645276,-21081.1187951945,11382.4058376861,13750.7385150004,19083.6331816499
561541728823,46519,5,0,8705.7437228785,11146.8027241035,14149.6564553406,2763.0892653410,-5257.0169092616,-2380.6098834086,-5195.7038849708,-20530.2871600199,-7534.6272390640,-2109.8786290981,-4589.1685337408,1249.8171468653,-21081.8975277912,11382.7100301067,13753.2815636364,19085.3853299924
561541728823,46519,5,0,8698.7351295085,11143.3349305090,14149.3157598295,2762.2861973506,-5261.2269323624,-2383.1650997414,-5197.6507164625,-20532.5990224163,-7539.4334793091,-2111.9958083453,-4590.7259989341,1247.8581476768,-21087.1053020314,11377.8064482871,13750.2639748243,19084.9229575131
561541728823,46519,5,0,8690.7409526959,11137.7256222736,14137.5252616081,2753.4402817604,-5265.5951355218,-2395.8803429214,-5205.4015393387,-20533.6819474335,-7542.0982049133,-2116.4613530794,-4603.5750867792,1248.2840170656,-21088.2977363201,11376.6626847857,13751.6997630494,19086.8211182175
561541728823,46519,5,0,8690.9478035418,11138.7842118972,14127.3530670641,2749.9238173785,-5263.0399191890,-2401.4531480663,-5208.3947927571,-20528.3768316187,-7537.8151756316,-2113.5776089323,-4606.4953340167,1253.7594806359,-21084.3919056399,11376.8086971476,13752.8678619444,19088.5367634695
561541728823,46519,5,0,8701.2051719636,11151.5724612581,14139.9101301854,2759.8769933797,-5258.1850081566,-2391.9015060603,-5201.6538887172,-20528.7905333107,-7536.1360334701,-2110.9372187217,-4599.0243681674,1253.8324868169,-21085.9250354396,11375.9934614605,13753.3667375142,19091.3961722229
561541782354,46520,5,0,8702.7626371569,11154.9550809749,14149.6686230374,2764.4642150820,-5264.1350119030,-2388.2146939229,-5203.7102294803,-20538.0136475025,-7544.7750982144,-2118.6515385075,-4597.1992136439,1243.9279816030,-21094.9899695727,11366.8068503591,13742.8903505496,19079.7881894538
561541782354,46520,5,0,8701.3755197191,11149.7716421283,14147.9773131790,2762.3713712284,-5269.4644631115,-2393.0209341680,-5208.0419295493,-20546.2998490389,-7551.7471884939,-2124.3338529238,-4603.0397081190,1237.6616177392,-21099.3825081258,11362.7428396203,13739.5198985296,19073.7651795265
561541782354,46520,5,0,8699.0636573227,11147.1799227050,14143.4752653545,2756.5065413597,-5266.9457498691,-2397.5594850830,-5211.9964310167,-20545.4967810486,-7548.6930965913,-2121.3771025958,-4610.4011646968,1238.5011888200,-21095.6591928979,11367.4760736844,13745.1657098555,19077.7561840844
561541782354,46520,5,0,8700.7549671811,11144.4178555262,14136.4301688940,2753.1239216430,-5258.5378713645,-2398.1922053178,-5210.5484750948,-20539.1939140943,-7538.9589391330,-2115.3054218812,-4613.0293872106,1244.4998633537,-21086.0345447110,11377.1615603555,13752.8313588539,19085.3488269019
561541782354,46520,5,0,8708.9559948398,11150.7693932678,14142.8425451197,2761.5683032381,-5253.8168049972,-2391.6703198207,-5205.1216823118,-20535.9329713458,-7535.5763194162,-2113.4315965704,-4606.5075017135,1246.1303347280,-21082.2990617863,11380.0939752898,13753.6344268443,19085.4948392638
561541782354,46520,5,0,8711.8275712900,11156.8410739824,14155.6551298743,2767.4209654099,-5256.4450275109,-2384.3818694237,-5203.2600246979,-20540.4593545639,-7540.5285720231,-2116.1693283556,-4601.0320381432,1240.7157096417,-21086.7037680362,11373.8397791228,13746.0296163299,19077.2451408178
561541782354,46520,5,0,8705.1231703406,11151.9618275564,14155.4239436346,2764.6223951407,-5265.6803093996,-2389.4801343925,-5210.6579843662,-20548.2953513179,-7549.2163075547,-2123.2509279066,-4608.5395070829,1231.3952538754,-21094.1625661887,11366.5634964227,13736.6118189890,19066.6105737946
561541782354,46520,5,0,8704.3687731376,11149.5526235855,14148.5248595360,2759.2442731449,-5265.8141540646,-2398.4233915574,-5217.4597268902,-20550.2300151127,-7552.3312379414,-2127.8259819120,-4620.6341977249,1229.5457639583,-21094.5519324870,11366.7338441782,13734.6771551941,19066.1603690121
561541787247,46521,5,0,8706.9483248640,11150.0636668521,14141.4189245914,2755.8129826408,-5261.8961556876,-2403.1444579247,-5220.2339617659,-20546.7987246087,-7547.2208052758,-2122.7763877305,-4624.5886991924,1236.6030281156,-21089.4293321246,11374.3508223894,13740.2377926422,19072.4267328760
561541787247,46521,5,0,8710.4769569427,11155.1740995177,14144.6068611590,2760.9112476097,-5258.0268280979,-2396.2210384324,-5212.8116667039,-20539.7049573609,-7541.5506585563,-2117.4104334315,-4615.4142557879,1242.0784916859,-21086.3144017379,11379.1692303312,13744.7763435572,19078.2428919573
561541787247,46521,5,0,8712.8374901263,11162.5598914892,14154.7790557030,2769.9396786523,-5257.6009587091,-2385.3309497759,-5205.4867132165,-20538.8167154928,-7543.5339931384,-2118.0431536663,-4603.3073974491,1242.4921933779,-21090.5974310196,11375.7014367367,13742.1481210434,19075.6876756245
561541787247,46521,5,0,8711.9614159551,11165.5288095140,14161.2887735033,2773.9915216943,-5261.9691618686,-2383.7126460985,-5204.0874280818,-20539.5832803927,-7549.0337921024,-2120.5496992119,-4601.0685412336,1240.9590635782,-21095.9147145312,11369.3985697824,13736.9403468032,19071.4898202206
561541787247,46521,5,0,8712.4359561312,11163.9835120175,14159.4027804957,2770.6940758553,-5262.6992236779,-2392.6802386570,-5208.8936683269,-20539.7292927545,-7549.7395185181,-2121.4257733831,-4608.3083208433,1241.6161192066,-21098.2509123212,11366.9285273274,13737.2080361333,19072.8769376584
