timestamp,sequence,battery,flags,EEG-ch1,EEG-ch2,EEG-ch3,EEG-ch4,EEG-ch5,EEG-ch6,EEG-ch7,EEG-ch8,EEG-ch9,EEG-ch10,EEG-ch11,EEG-ch12,EEG-ch13,EEG-ch14,EEG-ch15,EEG-ch16
561380200028,43215,-2,0,7409.9570174162,9851.3202110617,13409.1912651804,1874.2998509092,-5863.6739374599,-2930.9183076198,-5742.1064785019,-20373.6037280309,-8147.4776249451,-2455.9157590458,-4826.1100939740,644.7784223445,-21297.7646371270,10661.4576332300,13002.4616634799,18920.6225473129
561380200028,43215,-2,0,7406.3553791566,9850.7970000983,13413.4377913716,1874.6162110266,-5870.1836552601,-2927.2193277856,-5742.0943108050,-20379.8457565011,-8152.3568713711,-2460.5029807480,-4823.1533436460,637.8671705491,-21305.8926586047,10653.2566055713,12995.0150330243,18911.9713148718
561380200028,43215,-2,0,7401.8654990289,9846.1002691247,13408.0596693759,1869.5422814514,-5874.3693429672,-2934.6051197572,-5748.5796932117,-20382.0116065356,-8157.0414346480,-2462.1699552128,-4831.9627561458,635.8716682701,-21309.8228246785,10651.6261341971,12992.0217796059,18908.2601673408
561380200028,43215,-2,0,7398.8235748232,9840.6978117353,13395.9528110371,1862.2416633576,-5872.7267038961,-2943.7917308585,-5750.6847047620,-20377.9232604031,-8154.3158705596,-2462.4741476334,-4842.4634785040,642.7220815814,-21306.1238448444,10655.5441325741,12997.3147277238,18912.9690660113
561380200028,43215,-2,0,7401.4031265496,9844.9808410170,13392.5093528362,1863.5679423113,-5869.1007302429,-2942.5627934794,-5746.3286692994,-20370.7321515807,-8148.8039038988,-2456.1469452854,-4837.3408781415,650.3025567021,-21300.6240458804,10661.0804346285,13003.1308868052,18916.9235674788
561380200028,43215,-2,0,7407.4261364770,9851.1255279125,13402.5111996246,1872.1218331779,-5865.0123841104,-2930.1152396295,-5738.8577034501,-20367.2886933798,-8147.5993019134,-2452.0099283656,-4824.3822810251,650.9717800274,-21302.5708773721,10660.1070188827,13002.4981665704,18914.2101710872
561380200028,43215,-2,0,7405.4549695917,9852.2449560203,13408.7288927011,1877.1714273594,-5869.6239412063,-2923.4473417705,-5737.1907289854,-20371.0606793949,-8151.7728219236,-2455.8184174712,-4819.2961837531,645.2042917333,-21308.0950117297,10652.0033327986,12997.1565476651,18906.6905344507
561380200028,43215,-2,0,7404.2503676062,9849.1178579368,13405.4192791653,1874.1781739409,-5873.1769086786,-2928.6916191012,-5742.8000372208,-20375.0881870433,-8154.4618829215,-2457.3515472709,-4824.9054919885,642.2232060117,-21310.4068741260,10649.7888119768,12993.3358908627,18903.7946226068
561380223795,43216,-2,0,7402.6198962319,9845.8812505819,13399.1164122110,1866.8897235440,-5871.4977665170,-2938.3040995913,-5746.6571971136,-20374.1756097816,-8151.7606542268,-2455.6237343220,-4835.7834129482,644.5350684081,-21307.4987945853,10652.6968915175,12996.0127841638,18906.6905344507
561380223795,43216,-2,0,7404.9804294156,9844.2021084203,13394.4561843278,1864.2980041207,-5865.5355950738,-2938.9368198261,-5744.0533099935,-20368.7853200890,-8145.3604456979,-2451.2311957690,-4834.1286061803,651.7140095336,-21302.0476664087,10658.6590629607,13001.7437693674,18910.9005575514
561380223795,43216,-2,0,7408.5455645847,9849.0083486653,13402.8275597420,1871.9271500287,-5863.9781298804,-2928.2049112283,-5736.4119963887,-20367.1913518052,-8143.5109557809,-2447.8364083554,-4823.0073312841,652.9307792159,-21302.1693433769,10658.9754230781,13000.8311921057,18912.0808241432
561380223795,43216,-2,0,7409.1174463354,9852.9506824360,13410.6392211023,1877.6703029291,-5869.2710779984,-2922.0967274232,-5733.5039168480,-20369.9047481967,-8148.8039038988,-2450.9756741357,-4814.5142789017,647.4188125551,-21308.7398996613,10652.2101836446,12995.4409024131,18908.8077136979
561380223795,43216,-2,0,7405.1264417774,9848.6433177607,13404.9204035956,1874.9569065376,-5877.6302857158,-2931.6362017324,-5740.7680318513,-20374.8935038941,-8156.7737453179,-2459.0550248261,-4824.2727717537,642.4057214640,-21313.8868354174,10647.5256203677,12992.2042950582,18904.8897153209
561380223795,43216,-2,0,7402.5468900510,9844.9200025328,13394.6386997802,1866.9992328154,-5878.1899997696,-2944.1445940663,-5747.9834760673,-20374.7109884418,-8155.8003295720,-2460.5151484449,-4836.1484438529,643.9753543542,-21309.8714954658,10648.1096698152,12995.2462192639,18907.8342979520
561380223795,43216,-2,0,7405.0534355965,9845.3702073153,13393.0325637996,1865.5756122871,-5872.4225114756,-2946.6754750055,-5747.6306128595,-20370.1724375268,-8147.7209788816,-2455.1126910555,-4836.8906733591,649.6698364673,-21303.7633116607,10658.2331935719,13003.3012345607,18917.2764306866
561380223795,43216,-2,0,7408.9105954894,9851.4053849395,13398.8122197904,1871.1970882193,-5868.6991962477,-2937.4036900264,-5742.7878695239,-20368.7488169986,-8145.9079920550,-2453.0320148988,-4827.3146959594,649.7793457387,-21301.0864183597,10661.4941363205,13004.3233210938,18916.2665118503
561380238895,43217,-2,0,7410.1030297780,9853.4982287930,13407.1470921142,1877.0740857848,-5871.0353940377,-2927.6208617808,-5740.0258023451,-20374.2121128721,-8150.2761952144,-2454.3339584588,-4821.4133630003,642.9411001243,-21305.7953170301,10655.7509834201,12998.4219881347,18909.0632353311
561380238895,43217,-2,0,7404.1043552443,9846.6113123912,13407.2931044760,1872.8397272904,-5876.7785469382,-2931.9282264561,-5745.2335765853,-20380.2472904962,-8155.4839694546,-2460.0892790561,-4827.3025282626,636.8937548033,-21310.9787558767,10649.6427996149,12992.8248475962,18904.2204919956
561380238895,43217,-2,0,7399.6996489944,9839.9555822291,13395.6242832228,1862.0591479053,-5877.0097331778,-2943.0981721396,-5752.5706977696,-20381.8777618705,-8157.1996147067,-2463.3258864110,-4841.5022304550,637.9523444268,-21309.2996137151,10650.6040476639,12994.0294495816,18903.7946226068
561380238895,43217,-2,0,7401.7073189702,9841.4765443319,13389.1997393003,1860.2096579882,-5873.7122873388,-2948.1599340179,-5752.4855238918,-20374.8083300164,-8150.3126983049,-2460.8680116527,-4843.5464035212,643.0627770925,-21302.7655605212,10653.9501642903,12998.3489819538,18905.1452369542
561380238895,43217,-2,0,7404.6884046918,9846.4653000294,13393.4097624011,1865.3687614411,-5869.4900965412,-2938.7421366770,-5747.3264204389,-20373.6767342118,-8147.7696496689,-2456.4633054028,-4833.8000783661,644.7297515572,-21302.8142313085,10657.3206163102,12996.8766906382,18904.0866473306
561380238895,43217,-2,0,7406.6717392740,9849.3247087827,13400.1750018346,1873.1195843173,-5872.2764991137,-2930.2612519914,-5743.8099560571,-20376.4874721779,-8151.2131078698,-2457.9720998089,-4825.1366782281,641.6148211706,-21307.8151547027,10651.2611032924,12993.0195307453,18898.9032084840
561380238895,43217,-2,0,7404.3355414840,9848.0105975259,13401.7811378152,1873.9713230949,-5876.5230253049,-2931.8065494879,-5746.6328617200,-20380.0891104375,-8155.3744601832,-2459.8580928164,-4826.6576403310,637.6238166126,-21311.4897991433,10648.4381976295,12990.3426374443,18895.9342904592
561380238895,43217,-2,0,7401.3666234592,9842.3282831096,13393.5314393693,1865.7094569522,-5876.8637208159,-2941.0053282860,-5752.5828654664,-20381.8047556896,-8154.9364230976,-2458.9090124642,-4836.9515118432,638.8284185981,-21309.8714954658,10650.7257246322,12992.8005122025,18897.0293831732
561380272610,43218,-2,0,7402.5955608383,9842.4256246841,13387.6422741070,1862.2659987513,-5870.0498105951,-2944.2906064282,-5752.0353191094,-20376.1711120605,-8148.4023699037,-2454.7233247571,-4840.7234978583,645.2529625206,-21301.5487908389,10658.2940320560,12998.6775097680,18901.5801017850
561380272610,43218,-2,0,7409.3364648782,9850.8213354920,13393.7382902153,1870.7225480432,-5864.3066576947,-2934.7998029063,-5744.3696701109,-20370.1724375268,-8143.7664774141,-2449.6493951820,-4830.0402600478,649.0249485357,-21297.0102399240,10662.8934214551,13000.8190244088,18901.3489155454
561380272610,43218,-2,0,7413.7168357344,9857.6960841969,13404.5675403877,1879.2156004256,-5866.4725077291,-2924.4694283036,-5739.7581130150,-20372.8128277374,-8147.4046187642,-2448.5786378616,-4818.9798236357,643.7685035082,-21299.4316115917,10657.1746039483,12992.9465245644,18894.9608747133
561380272610,43218,-2,0,7410.7479177096,9857.2458794145,13407.4634522316,1881.4422889442,-5871.2665802774,-2923.8732111593,-5739.8189514991,-20375.8547519432,-8152.3082005838,-2452.5696424195,-4820.1235871371,639.7531635566,-21304.5055411669,10652.2953575223,12988.8825138255,18890.0451251969
561380272610,43218,-2,0,7409.1052786386,9853.3887195216,13400.3940203774,1877.5607936577,-5870.2809968347,-2930.6262828960,-5742.5810186779,-20371.0363440013,-8150.5925553318,-2451.7787421260,-4828.3489501894,645.9465212395,-21303.3009391814,10653.6824749601,12988.7608368573,18889.3759018716
561380272610,43218,-2,0,7409.0809432449,9852.6829931059,13394.1398242104,1872.2435101461,-5866.4968431228,-2937.0994976059,-5739.8919576801,-20364.2467691741,-8143.1215894825,-2446.2181046779,-4830.9163342190,654.5855859838,-21299.0057422029,10659.4742986479,13000.2228072645,18903.7824549100
561380272610,43218,-2,0,7414.3738913629,9859.4117294490,13397.9848164065,1878.3395262544,-5859.8776160511,-2931.0764876785,-5735.0005435573,-20359.6473797750,-8139.0210756532,-2442.1297585454,-4822.7639773476,658.9902922337,-21297.7524694302,10661.8835026188,13004.2381472161,18907.1894100204
561380272610,43218,-2,0,7415.0796177786,9862.6240014102,13405.0299128670,1884.4477100595,-5861.8852860269,-2921.8898765772,-5729.3790676251,-20361.3630250270,-8141.9048198002,-2444.4172855481,-4813.1879999480,655.0966292504,-21303.4712869370,10657.4787963689,12998.7748513426,18902.2736605039
561380303746,43219,-2,0,7411.9160166047,9859.1562078157,13407.1714275078,1883.5838035851,-5867.2634080226,-2921.8047026994,-5732.7981904323,-20368.4932953653,-8149.0472578353,-2449.5155505169,-4814.4534404176,647.6013280074,-21309.9323339499,10651.1515940210,12991.5959102170,18895.7517750068
561380303746,43219,-2,0,7408.1805336800,9854.0336074532,13400.3575172870,1875.7721422247,-5870.0863136856,-2930.6141151992,-5740.7315287609,-20371.1701886663,-8151.2982817475,-2454.6138154857,-4826.7671496024,645.5206518507,-21310.1878555832,10651.4557864416,12993.2142138945,18894.7540238674
561380303746,43219,-2,0,7405.9660128582,9849.0448517558,13386.4255044247,1867.8996423803,-5868.0543083161,-2940.9444898019,-5746.3530046931,-20369.9655866808,-8148.6822269306,-2455.0396848745,-4837.4503874129,649.0006131421,-21304.6880566193,10656.2011882025,12998.3854850442,18897.3335755938
561380303746,43219,-2,0,7407.1827825405,9848.9961809685,13384.6855237790,1867.0235682090,-5865.9249613721,-2938.9611552198,-5744.2601608395,-20369.4545434143,-8145.6281350281,-2452.3506238767,-4832.7049856520,649.7793457387,-21303.3861130592,10656.9434177087,12999.0182052790,18899.5115933251
561380303746,43219,-2,0,7406.6595715771,9851.1255279125,13392.8743837409,1871.5377837304,-5867.8961282574,-2930.4559351405,-5742.4593417097,-20373.2752002167,-8148.2806929355,-2454.8450017254,-4824.0172501204,645.8248442713,-21306.4888757490,10652.6847238207,12994.6743375133,18895.1677255593
561380303746,43219,-2,0,7401.9628406035,9849.4707211446,13392.6066944107,1871.2944297939,-5873.9434735784,-2928.6307806171,-5743.3354158810,-20377.5703971952,-8152.6488960949,-2459.7364158482,-4822.9343251032,640.8239208771,-21309.6889800135,10650.8960723877,12990.5738236839,18889.6192558081
561380303746,43219,-2,0,7398.5802208867,9844.4697977504,13386.3159951533,1865.3200906538,-5874.5518584196,-2935.5298647157,-5749.1272395687,-20381.1598677580,-8153.8778334740,-2459.9067636037,-4832.7293210456,639.3394618647,-21309.3726198961,10651.8329850431,12990.3061343538,18890.0086221064
561380303746,43219,-2,0,7398.0083391360,9843.2408603713,13378.2488121597,1859.2484099392,-5871.2544125806,-2944.0350847949,-5752.9965671584,-20377.8989250094,-8148.5362145687,-2456.2077837695,-4841.1250318535,645.7640057872,-21302.9359082767,10657.8681626672,12996.9861999096,18896.1289736084
561380335143,43220,-2,0,7403.9705105793,9848.3512930369,13377.2510610202,1863.2150791035,-5864.1241422423,-2938.8516459484,-5747.3629235294,-20371.1336855758,-8140.4081930910,-2449.1505196122,-4833.6540660042,653.5878348443,-21295.7326317576,10666.3490473528,13004.2259795193,18902.7847037705
561380335143,43220,-2,0,7409.7136634797,9855.3598864069,13388.0194727085,1871.5864545176,-5860.2304792590,-2924.7736207242,-5739.3200759294,-20369.1625186905,-8138.2423430565,-2445.0743411765,-4817.4466938360,653.5026609666,-21297.5091154937,10664.5117251326,13003.4229115289,18901.5070956041
561380335143,43220,-2,0,7407.9006766531,9853.2913779470,13394.2615011787,1875.0542481122,-5865.5234273770,-2918.8722877651,-5737.5435921932,-20373.0683493707,-8144.1923468029,-2447.8607437490,-4813.9180617574,648.0028620026,-21302.2910203451,10659.1336031368,12996.8401875477,18896.5061722099
561380335143,43220,-2,0,7401.1232695227,9846.9641755991,13385.5007594661,1867.5467791724,-5870.4026738030,-2927.8277126268,-5745.1118996171,-20376.6334845398,-8151.0670955079,-2453.5917289526,-4824.8689888980,643.8780127796,-21306.3915341745,10655.6293064518,12994.9420268434,18893.6832665469
561380335143,43220,-2,0,7397.0957618743,9841.4400412415,13372.6638393179,1858.3480003743,-5873.6514488547,-2941.7962285795,-5752.5341946791,-20376.9498446572,-8151.3956233221,-2455.7089081998,-4837.7180767430,645.9221858459,-21304.2986903209,10656.7852376500,12997.0227030001,18898.8302023030
561380335143,43220,-2,0,7396.8889110283,9841.9875875985,13368.4173131267,1855.3790823495,-5871.5951080916,-2943.4632030443,-5751.6824559015,-20373.4820510627,-8148.2563575418,-2452.3262884830,-4836.2701208211,649.9375257974,-21299.7114686187,10657.7586533958,13000.6000058660,18898.6476868507
561380335143,43220,-2,0,7399.6023074198,9844.7009839900,13373.7832674257,1861.3899245800,-5871.1814063996,-2933.5952009208,-5745.2214088885,-20374.1269389943,-8149.5704687987,-2452.4236300576,-4825.5625476169,648.9032715675,-21301.9989956214,10659.0240938654,13001.6220923992,18900.6066860392
561380335143,43220,-2,0,7399.3832888770,9844.7374870805,13380.9135377639,1865.9284754950,-5875.7321250114,-2929.6406994534,-5746.1704892407,-20379.3225455377,-8155.3257893959,-2458.0086028993,-4822.2042632938,642.7950877624,-21306.9390805315,10653.3661148428,12996.2683057971,18894.4376637500
561380367704,43221,-2,0,7396.2561907935,9839.8460729577,13378.0419613137,1859.9054655676,-5881.9011473006,-2938.9733229166,-5753.3494303662,-20385.0900338318,-8160.3632158806,-2462.5958246016,-4831.2083589428,638.4512199966,-21309.6524769230,10650.3728614243,12993.3115554691,18892.6855154075
561380367704,43221,-2,0,7393.6036328861,9835.0276650158,13366.6408293906,1851.3759100947,-5881.9619857847,-2953.1243543217,-5759.6888004110,-20383.0336930687,-8159.9495141887,-2465.0415316630,-4844.9335209590,640.9699332389,-21306.6592235046,10654.8140707647,12997.0470383937,18893.3912418232
561380367704,43221,-2,0,7395.2706073509,9836.0132484584,13362.2604585343,1850.6215128917,-5878.6037014616,-2955.5700613831,-5758.5207015160,-20377.7407449507,-8155.5934787260,-2462.3646383619,-4844.2521299370,644.3647206525,-21304.1161748686,10657.4666286721,12999.2372238219,18895.0217131975
561380367704,43221,-2,0,7396.8402402410,9840.4666254956,13369.7679274741,1857.7761186236,-5878.7375461267,-2946.5537980373,-5751.4391019650,-20378.1301112490,-8157.3821301590,-2459.7850866355,-4832.2061100822,642.9411001243,-21306.8295712601,10653.9744996839,12996.3291442812,18891.6877642680
561380367704,43221,-2,0,7394.5283778447,9842.9245002539,13375.9977882474,1862.2538310545,-5883.5681217654,-2939.9102355720,-5748.9568918132,-20381.9020972642,-8161.2514577487,-2463.9099358585,-4825.4530383455,637.9036736396,-21313.0837674271,10648.8640670183,12991.2917177965,18886.7355116610
561380367704,43221,-2,0,7391.8514845436,9839.5905513244,13372.5299946529,1860.3556703501,-5885.6487979221,-2943.0616690491,-5753.3859334567,-20385.6375801888,-8164.9504375829,-2466.6963384309,-4832.6319794711,634.1803584117,-21312.7065688256,10645.5179503920,12988.4931475272,18882.7323394063
561380367704,43221,-2,0,7391.2552673993,9836.6216332996,13365.6552459479,1853.0063814690,-5883.3369355257,-2951.0801812554,-5757.3404349242,-20383.6177425162,-8160.6187375139,-2464.6765007583,-4841.7455843914,638.1956983633,-21307.2067698616,10652.9767485444,12994.2241327308,18889.8747774414
561380367704,43221,-2,0,7395.1002595953,9839.3471973879,13361.5303967250,1853.4930893419,-5875.2210817448,-2949.9364177541,-5755.2232556770,-20377.8867573126,-8153.0747654837,-2459.5173973054,-4841.1493672471,644.7662546477,-21297.8498110048,10661.0804346285,13001.0745460421,18894.8148623515
561380399064,43222,-2,0,7400.4662138943,9844.6036424154,13367.7237544078,1860.3313349564,-5871.8141266344,-2938.8638136452,-5748.2876684879,-20375.8912550336,-8151.0670955079,-2455.1005233587,-4830.0037569573,645.8735150586,-21296.9007306526,10663.2219492693,13000.5756704724,18892.4786645615
561380399064,43222,-2,0,7398.7749040359,9844.3359530853,13374.7201800810,1863.0812344384,-5875.9876466447,-2931.3928477959,-5746.3286692994,-20381.7317495086,-8155.1676093372,-2456.8405040043,-4822.8369835286,639.2177848964,-21303.4712869370,10655.9821696597,12993.7374248579,18885.4579034946
561380399064,43222,-2,0,7394.9664149303,9841.1480165177,13373.7467643352,1861.9009678466,-5879.5284464202,-2935.3473492634,-5750.1614937986,-20384.8345121985,-8159.3776324380,-2461.8292597017,-4829.2858628447,634.2655322895,-21306.8417389569,10652.9524131508,12991.0970346473,18880.8950171860
561380399064,43222,-2,0,7393.0074157418,9838.3616139453,13364.9738549258,1855.2817407749,-5876.9732300873,-2944.5339603647,-5754.9555663469,-20383.3987239734,-8156.8710868925,-2461.3060487384,-4839.8352559902,638.0983567887,-21304.5298765606,10656.1403497184,12995.7572625305,18883.0486995237
561380399064,43222,-2,0,7394.3945331796,9838.2034338866,13361.1897012139,1852.8238660167,-5872.0574805709,-2946.8944935483,-5751.4756050555,-20376.8768384763,-8150.5073814541,-2455.8914236521,-4839.7987528998,644.3890560462,-21299.3586054108,10662.5162228536,13001.4395769468,18889.2785602970
561380399064,43222,-2,0,7401.9141698162,9844.8226609583,13369.8774367455,1861.2560799150,-5866.4846754260,-2936.0409079823,-5743.6639436952,-20374.2851190530,-8147.7331465784,-2452.4966362385,-4828.5679687322,646.6522476553,-21297.6916309461,10663.2584523598,13002.2426449371,18888.7553493336
561380399064,43222,-2,0,7401.0745987354,9847.3170388070,13376.7156823600,1866.4760218520,-5871.4855988202,-2927.3410047539,-5740.9627150005,-20379.4685578996,-8152.5880576108,-2456.6579885520,-4822.3502756557,639.1691141091,-21302.5465419784,10653.7068103538,12993.6157478897,18876.4173047552
561380399064,43222,-2,0,7395.1610980795,9841.5008797256,13374.2699752986,1862.1199863894,-5878.3116767379,-2932.1837480894,-5747.4359297103,-20385.9296049125,-8159.7061602522,-2462.1942906064,-4828.5314656417,632.3795392819,-21310.3217002483,10649.6793027054,12989.9532711460,18875.6994106426
561380462555,43223,-2,0,7389.1259204553,9837.8384029819,13364.4141408720,1854.8680390829,-5878.6037014616,-2943.8038985553,-5753.6536227868,-20386.1364557585,-8159.8278372204,-2463.0581970809,-4839.9691006553,633.7666567198,-21308.9954212946,10651.4679541384,12993.1898785009,18876.4416401488
561380462555,43223,-2,0,7391.2309320056,9838.3007754612,13357.1500258687,1852.6656859580,-5872.1669898423,-2947.1743505753,-5753.2642564885,-20378.0206019776,-8150.9210831460,-2457.4732242391,-4840.9303487043,644.1335344129,-21300.5753750931,10658.8780815035,13001.6220923992,18881.7345882668
561380462555,43223,-2,0,7398.8965810041,9844.3967915695,13365.8985998844,1861.1222352499,-5864.8542040517,-2935.0066537523,-5743.5666021206,-20370.7564869743,-8144.4478684362,-2449.8684137248,-4827.6067206832,648.1853774549,-21298.6285436014,10662.3823781886,13004.7978612699,18884.5818293234
561380462555,43223,-2,0,7402.9849271366,9851.9650989933,13378.9788739691,1871.6351253049,-5863.3940804329,-2921.1719824646,-5735.4264129461,-20369.1138479032,-8144.1436760157,-2447.8485760522,-4813.0054844956,648.2705513327,-21301.5001200516,10658.6468952639,13002.0114586975,18882.6958363158
561380462555,43223,-2,0,7404.5423923299,9852.4274714726,13381.5827610892,1875.6017944692,-5864.0876391518,-2918.3004060144,-5733.2362275179,-20369.0651771160,-8146.6258861675,-2447.9337499299,-4811.8008825102,647.7108372788,-21302.7655605212,10658.0871812101,13001.1353845262,18880.2014584671
561380462555,43223,-2,0,7404.9074232346,9851.2715402744,13379.8184450498,1871.0024050701,-5862.7005217140,-2925.1021485384,-5735.7914438507,-20365.9015759420,-8143.3892788126,-2446.1207631033,-4817.9212340121,652.3588974652,-21300.1008349170,10661.0195961444,13004.6396812112,18884.0707860568
561380462555,43223,-2,0,7406.7204100613,9851.1741986998,13374.6593415969,1868.3498471627,-5856.5680025153,-2929.6285317566,-5734.8666988922,-20360.0975845574,-8136.2590084744,-2441.5578767947,-4822.2772694747,660.6450990016,-21291.8998072583,10663.7694956264,13008.2048163804,18887.3073934117
561380462555,43223,-2,0,7410.9304331620,9857.0025254780,13375.9491174601,1873.7036337648,-5852.1024577812,-2921.9872181518,-5728.3448133951,-20356.2160892709,-8132.6817056084,-2439.9030700268,-4815.2078376206,663.8208678724,-21290.8533853316,10667.4441400669,13011.3319144639,18892.2474783218
561380486813,43224,-2,0,7415.6393318325,9862.5266598356,13387.3624170801,1882.4035369932,-5854.0979600602,-2912.3260668743,-5724.2442995658,-20359.0268272370,-8136.8795610124,-2438.6254618604,-4804.0865627244,658.7104352068,-21296.1706688432,10662.4432166727,13005.1263890842,18886.9788655975
561380486813,43224,-2,0,7411.7821719396,9860.0809527742,13390.3678381953,1882.3061954187,-5858.0646292245,-2911.9853713633,-5727.1645468033,-20365.6217189151,-8141.9291551939,-2442.8233172643,-4805.7778725828,653.0646238809,-21300.5145366090,10657.0407592833,13000.4661612010,18880.0189430148
561380486813,43224,-2,0,7410.0056882034,9856.1264513068,13383.2984063412,1876.0763346453,-5858.1619707991,-2919.7970327236,-5731.2407252390,-20366.2544391498,-8140.3108515164,-2443.3343605309,-4818.1767556454,653.7460149030,-21297.3022646477,10662.1633596457,13004.5788427271,18882.4159792889
561380486813,43224,-2,0,7412.2323767220,9857.2823825049,13377.2875641107,1872.6450441412,-5851.6400853020,-2925.1508193257,-5732.2749794689,-20360.5599570367,-8132.8033825767,-2438.8444804032,-4822.6179649858,660.6085959112,-21289.8312987984,10669.2571268935,13011.3805852512,18888.6945108495
561380486813,43224,-2,0,7415.4446486833,9860.2756359234,13376.8008562377,1874.2633478187,-5847.9776085583,-2920.1255605379,-5728.9166951458,-20357.3233496818,-8129.1530735298,-2435.2793452341,-4814.8914775032,663.7113586010,-21287.2760824656,10672.8222620626,13013.0597274127,18891.2375594855
561380486813,43224,-2,0,7415.1161208691,9861.8817719040,13382.2154813240,1880.5053762889,-5849.7419245976,-2911.6690112459,-5724.4754858054,-20360.3044354034,-8133.5577797797,-2437.2018413321,-4806.6661144509,660.4260804588,-21288.7483737812,10665.8866748736,13006.6716865807,18882.5619916508
561380486813,43224,-2,0,7410.0665266876,9858.5113198841,13383.5660956713,1879.0087495796,-5858.1133000118,-2911.4134896126,-5729.2087198695,-20367.5807181036,-8139.8849821276,-2441.4240321297,-4807.3475054730,651.7140095336,-21297.9836556698,10661.0195961444,13002.0722971816,18880.6273278559
561380486813,43224,-2,0,7405.5401434694,9852.0624405679,13376.2411421839,1871.7446345763,-5861.8487829364,-2923.6785280101,-5737.6774368583,-20372.4721322264,-8144.0950052284,-2445.3663659003,-4820.4156118608,648.4895698755,-21299.2734315330,10658.6225598703,13000.9772044675,18878.8265087261
561380505571,43225,-2,0,7405.1507771711,9849.0326840590,13366.7625063588,1866.6098665171,-5858.7095171561,-2932.5852820845,-5741.5102613575,-20369.6127234730,-8140.7610562989,-2444.5632979100,-4829.5778875685,653.0524561841,-21295.7326317576,10662.4797197631,13005.3089045365,18883.9369413918
561380505571,43225,-2,0,7407.7181612007,9851.1741986998,13365.1928734687,1866.1474940378,-5856.6775117867,-2931.0278168912,-5740.2326531911,-20368.0309228860,-8138.5222000835,-2442.6286341151,-4826.7306465119,654.3057289569,-21293.1895831216,10664.4995574357,13007.9979655344,18884.1681276314
561380505571,43225,-2,0,7408.1440305895,9853.9484335755,13370.9360263691,1869.5544491482,-5860.4981685891,-2925.0291423575,-5739.3079082326,-20372.5329707105,-8141.6979689542,-2444.4172855481,-4819.4786992055,647.8203465503,-21299.3951085013,10661.0195961444,13001.8411109420,18879.2767135086
561380505571,43225,-2,0,7404.8587524473,9852.0624405679,13374.4524907509,1870.1141632021,-5866.6063523942,-2923.6420249197,-5742.4350063161,-20380.3689674645,-8148.8890777766,-2450.8174940770,-4820.9631582178,640.0086851899,-21303.3739453624,10656.6027221977,12997.0957091810,18872.0977723830
561380505571,43225,-2,0,7400.6608970434,9847.2075295356,13368.6850024568,1865.1862459888,-5870.5121830744,-2932.2689219671,-5749.2367488401,-20381.5370663595,-8150.5560522413,-2452.4601331481,-4830.5026325270,638.4512199966,-21302.6925543403,10657.4057901880,12998.4706589220,18871.9030892339
561380505571,43225,-2,0,7402.1940268431,9847.1101879610,13364.9008487449,1861.0857321594,-5866.0709737340,-2939.6547139387,-5751.4512696619,-20376.8281676890,-8145.8349858740,-2448.2866131378,-4837.5477289875,645.0947824619,-21295.6352901830,10664.4022158612,13005.8077801062,18877.2082050487
561380505571,43225,-2,0,7410.6992469224,9853.9362658786,13365.1320349845,1865.6851215585,-5860.2669823494,-2937.1360006963,-5745.3674212504,-20370.7321515807,-8140.2621807291,-2446.2059369811,-4834.1042707866,649.1587932008,-21290.7073729697,10668.3932204191,13009.5675984245,18879.3253842959
561380505571,43225,-2,0,7415.3473071087,9860.5433252535,13375.5962542523,1876.7820610610,-5860.5468393764,-2925.7713718637,-5738.6751879978,-20369.3085310524,-8140.8827332671,-2445.9747507414,-4820.6954688877,648.8180976897,-21293.3477631803,10665.4608054848,13005.6009292603,18875.2492058602
561380538861,43226,-2,0,7412.8285938664,9859.8984373219,13381.9721273875,1879.5927990271,-5866.8862094211,-2921.8412057899,-5739.3565790199,-20374.0417651165,-8147.7696496689,-2449.6737305756,-4816.6192904521,641.6269888674,-21299.7844747996,10655.5806356645,12996.9253614255,18867.8390784950
561380538861,43226,-2,0,7409.0444401544,9855.5545695561,13377.3849056852,1874.9934096281,-5869.2832456952,-2928.7159544948,-5743.2137389127,-20378.0206019776,-8152.3325359775,-2454.6989893635,-4825.8059015534,640.1912006423,-21303.6172992988,10653.5121272046,12995.0393684179,18865.1378498003
561380538861,43226,-2,0,7408.0223536213,9852.2449560203,13367.5047358650,1866.9262266345,-5868.1759852844,-2939.1071675816,-5748.2998361847,-20376.7551615080,-8149.7408165542,-2454.9910140872,-4837.3408781415,644.3768883494,-21299.7844747996,10658.0871812101,12998.8478575235,18868.9098358154
561380538861,43226,-2,0,7410.6262407414,9853.7294150327,13365.1198672877,1866.8288850599,-5863.4792543107,-2940.5307881099,-5747.6184451626,-20373.3968771849,-8144.5452100108,-2451.8152452165,-4836.3066239116,646.5670737775,-21296.8033890780,10661.3967947459,13001.1110491326,18871.8665861434
561380538861,43226,-2,0,7412.6339107172,9858.9250215760,13370.6805047358,1873.5211183125,-5863.3210742520,-2930.3829289596,-5743.2259066096,-20373.0561816739,-8145.0197501869,-2451.0730157103,-4826.5359633628,645.1799563397,-21298.7867236601,10659.1579385305,12998.6410066775,18867.3280352284
561380538861,43226,-2,0,7411.0642778270,9858.0611151016,13376.2411421839,1876.7090548801,-5866.1561476117,-2924.1774035799,-5740.8897088196,-20376.8281676890,-8149.5339657082,-2453.7012382240,-4820.0627486530,640.6900762120,-21303.4834546338,10649.7279734927,12990.1236189015,18857.4722008019
561380538861,43226,-2,0,7409.0079370640,9857.5257364414,13375.9734528538,1875.4557821073,-5868.3098299494,-2928.2900851060,-5743.6882790888,-20378.4099682760,-8151.7484865300,-2454.8693371190,-4825.4043675582,638.1713629697,-21306.1846833285,10651.7599788621,12991.4742332488,18860.1612617997
561380538861,43226,-2,0,7410.3220483208,9855.7857557957,13370.0234491074,1873.1439197110,-5863.3697450393,-2934.1549149747,-5744.8320425902,-20372.3747906518,-8146.7353954389,-2451.4380466149,-4833.8365814565,644.5107330144,-21299.3464377140,10658.5860567798,12999.4805777583,18866.2816133017
561380557576,43227,-2,0,7412.5609045363,9856.8321777225,13364.2316254196,1872.0244916033,-5855.8501084027,-2934.9701506618,-5740.9870503941,-20365.6703897024,-8140.7245532084,-2444.7823164528,-4831.1596881555,652.6995929763,-21292.1309934980,10666.1178611132,13007.6451023265,18871.5988968133
561380557576,43227,-2,0,7418.0850388939,9863.5730817624,13375.3650680126,1880.3715316238,-5851.2993897909,-2922.1575659073,-5732.1654701975,-20362.2147638046,-8136.6848778632,-2439.9639085109,-4817.6535446820,655.3643185805,-21291.2914224172,10667.9795187271,13008.7645304342,18873.5578960018
561380557576,43227,-2,0,7419.5208271190,9865.0210376843,13383.9919650601,1886.2363614925,-5854.1953016348,-2913.6645135249,-5728.0284532777,-20363.6627197266,-8138.7412186263,-2440.3897778997,-4808.0532318887,651.3611463257,-21295.1485823101,10665.8501717831,13006.0754694363,18870.5646425834
561380557576,43227,-2,0,7414.7754253580,9860.1052881679,13379.1127186341,1882.4400400837,-5856.1056300360,-2915.2949848991,-5730.7296819724,-20368.4081214875,-8143.4257819031,-2444.9526642083,-4814.9888190778,647.8325142471,-21298.7258851760,10661.5063040173,13002.4616634799,18865.8922470033
561380557576,43227,-2,0,7410.6870792255,9854.0701105437,13368.6606670632,1872.8518949872,-5856.2638100947,-2927.2314954824,-5738.8455357533,-20368.9435001477,-8142.7078877905,-2444.1982670053,-4826.7793172992,648.8546007802,-21298.2513449999,10661.1291054158,13005.3819107174,18868.3014509743
561380557576,43227,-2,0,7408.3022106482,9852.0624405679,13360.5813163728,1866.8167173631,-5853.2583889794,-2932.9503129892,-5741.4737582671,-20366.3882838149,-8139.4347773452,-2443.0666712008,-4830.7946572508,653.2836424238,-21295.1485823101,10663.4288001153,13007.5477607519,18870.6619841579
561380557576,43227,-2,0,7408.9714339735,9856.3941406369,13361.1288627298,1871.0632435543,-5855.0592081092,-2926.2459120398,-5738.6751879978,-20366.2179360594,-8141.2599318686,-2444.9648319051,-4821.9852447510,650.9717800274,-21299.3586054108,10658.8415784131,13004.6153458176,18865.7097315510
561380557576,43227,-2,0,7407.8033350785,9858.5721583682,13369.7922628677,1876.8672349388,-5862.2259815379,-2921.9872181518,-5737.7139399488,-20369.7344004412,-8145.8593212677,-2447.7634021744,-4815.5850362221,644.2673790780,-21308.1680179106,10650.2025136688,12995.8789394987,18859.1635106603
561380588928,43228,-2,0,7403.9218397920,9852.4518068662,13367.4073942904,1873.6306275839,-5865.1583964723,-2923.5081802546,-5740.7801995482,-20375.7330749749,-8149.6069718892,-2451.0730157103,-4819.4908669023,640.0451882804,-21310.5042157006,10646.9780740107,12992.6544998406,18854.7831398040
561380588928,43228,-2,0,7403.5081381000,9849.4342180542,13360.7394964315,1869.6274553292,-5860.2548146526,-2930.1274073263,-5743.2745773969,-20371.8272442948,-8144.2775206807,-2447.8242406585,-4827.8379069228,646.4818998997,-21303.7511439639,10653.3174440555,12999.6630932107,18860.7088081568
561380588928,43228,-2,0,7410.1638682621,9854.7515015658,13361.2992104853,1871.4891129431,-5848.8293473359,-2928.7037867980,-5738.7360264819,-20364.4171169296,-8132.7668794862,-2437.7493876891,-4826.7063111183,655.8875295439,-21291.8511364710,10665.2904577292,13009.2634060040,18868.8611650281
561380588928,43228,-2,0,7419.2896408794,9862.1372935373,13370.7170078263,1879.5076251494,-5842.6724927435,-2915.6356804102,-5730.7540173660,-20358.6496286355,-8126.9142173144,-2432.9674828377,-4814.2709249652,658.5279197544,-21288.2738336051,10667.0426060717,13010.5045110799,18869.7980776835
561380588928,43228,-2,0,7421.6745094566,9868.0507941933,13379.6115942038,1886.3823738543,-5844.8870135652,-2907.3494788738,-5727.6025838889,-20361.8984036872,-8132.1706623419,-2435.9607362562,-4805.9968911256,654.4274059251,-21293.6032848136,10662.5892290345,13005.3697430206,18864.9309989543
561380588928,43228,-2,0,7416.1260397054,9863.0133677086,13379.4169110547,1882.9267479566,-5850.3381417419,-2910.0263721748,-5731.0217066962,-20367.8362397368,-8136.6362070759,-2439.0391635524,-4809.3186723583,649.7428426483,-21297.7281340365,10658.1480196942,13002.2913157244,18862.3514472279
561380588928,43228,-2,0,7412.6095753236,9855.3355510133,13370.1937968629,1875.9911607676,-5852.0416192971,-2921.8777088804,-5737.4827537091,-20366.2787745435,-8137.0134056774,-2440.3167717188,-4819.2961837531,651.9816988637,-21293.2504216057,10661.2751177777,13004.4571657589,18864.0427570863
561380588928,43228,-2,0,7414.9579408104,9857.1242024463,13363.1973711897,1872.2556778429,-5849.6202476294,-2928.8863022504,-5734.7206865303,-20358.1629207626,-8132.1949977355,-2436.8368104274,-4821.7053877240,661.5941793538,-21287.6411133703,10670.2913811235,13014.6415279997,18874.5069763540
561380620029,43229,-2,0,7415.4568163801,9862.0156165691,13364.5114824466,1876.4900363373,-5846.5539880300,-2920.9286285282,-5728.6855089061,-20356.3012631487,-8130.5766940581,-2434.4397741533,-4811.7643794197,664.6239358627,-21287.3855917370,10671.5446538962,13014.5685218188,18876.8431741440
561380620029,43229,-2,0,7415.9800273435,9862.2102997182,13373.8927766971,1881.7708167584,-5851.0682035513,-2913.0196255933,-5725.0717029497,-20360.7668078827,-8135.7723006015,-2436.8976489115,-4803.5146809738,659.6230124685,-21293.1044092438,10666.5315628052,13009.1295613389,18870.9418411849
561380620029,43229,-2,0,7412.2688798125,9862.1616289309,13373.1262117972,1882.0141706949,-5858.8920326084,-2914.9421216913,-5728.3326456983,-20364.7578124406,-8145.0927563678,-2445.4880428685,-4807.2501638984,652.0912081351,-21301.3297722961,10658.4157090243,13002.6928497196,18863.1180121277
561380620029,43229,-2,0,7407.7181612007,9857.2458794145,13365.1320349845,1875.8451484057,-5862.5301739585,-2927.4018432380,-5736.4606671760,-20367.3008610766,-8148.6822269306,-2447.8364083554,-4820.2695994989,651.2516370543,-21304.0066655972,10656.4323744421,13002.9118682624,18863.4952107292
561380620029,43229,-2,0,7409.9083466289,9857.4892333509,13356.6998210862,1872.2678455397,-5859.8167775670,-2935.5176970189,-5737.1298905013,-20362.8718194331,-8143.7056389300,-2443.8332361006,-4826.0857585803,657.5788394023,-21296.1828365400,10663.8911725946,13010.5653495640,18870.9661765785
561380620029,43229,-2,0,7415.5176548642,9864.6316713860,13362.0657753852,1878.4490355258,-5854.4143201776,-2930.1030719327,-5732.9198674005,-20357.6397097992,-8138.1328337851,-2439.1243374301,-4817.5927061979,661.6306824443,-21289.2229139573,10667.9308479398,13012.8650442636,18869.4817175661
561380620029,43229,-2,0,7416.3937290355,9867.0408753569,13370.1329583788,1883.1701018931,-5856.1421331265,-2919.3954987285,-5729.0140367204,-20362.9204902204,-8141.1504225972,-2440.4627840807,-4807.3840085634,655.9240326343,-21292.7393783391,10665.6433209371,13010.0786416911,18865.9774208811
561380620029,43229,-2,0,7412.1958736316,9863.2688893418,13372.0676221736,1881.0164195554,-5863.7104405503,-2920.4054175648,-5734.8180281049,-20371.8637473852,-8147.8548235467,-2445.7557321986,-4809.8662187153,647.5891603106,-21298.9327360220,10658.7929076258,13001.5612539150,18859.8935724696
561380650129,43230,-2,0,7407.0976086628,9856.8078423289,13362.2117877470,1873.3994413443,-5867.3364142036,-2932.4149343290,-5742.6540248589,-20374.4067960212,-8150.5438845445,-2452.1559407275,-4822.4111141398,645.9708566332,-21301.2932692057,10657.5274671562,13003.2890668639,18860.5749634917
561380650129,43230,-2,0,7407.0002670882,9853.0723594042,13352.4411271982,1867.0114005122,-5861.4837520317,-2940.0562479338,-5744.8685456807,-20369.2841956588,-8145.0197501869,-2448.7733210107,-4829.4562106003,652.8334376413,-21293.4451047549,10666.0813580227,13010.8817096814,18867.1211843825
561380650129,43230,-2,0,7410.1517005653,9855.5910726466,13354.2176109344,1867.3764314169,-5858.2471446768,-2937.2455099677,-5743.3475835778,-20368.5784692430,-8142.4036953700,-2447.7390667808,-4826.0857585803,653.3201455142,-21291.1332423585,10667.5293139447,13014.3251678823,18869.2748667201
561380650129,43230,-2,0,7408.6429061593,9856.5158176051,13357.9287584654,1870.1384985957,-5862.2746523252,-2930.6019475024,-5741.8752922622,-20373.3117033072,-8148.3050283291,-2452.9103379305,-4820.8049781592,648.1002035772,-21296.8155567748,10661.1169377190,13007.0732205758,18860.6358019758
561380650129,43230,-2,0,7406.0755221296,9854.2647936929,13360.3379624363,1872.1826716620,-5866.6428554847,-2928.1684081378,-5742.0699754114,-20377.3027078651,-8152.9774239091,-2456.6093177647,-4818.2010910390,643.0384416988,-21300.5510396995,10657.6978149117,13003.0092098370,18855.6957170657
561380650129,43230,-2,0,7406.6474038803,9854.3864706611,13358.9630126953,1870.1384985957,-5866.2656568832,-2934.6659582413,-5746.3286692994,-20376.8159999922,-8152.4298775521,-2455.8549205617,-4825.9640816121,643.8415096892,-21298.0688295476,10661.1534408094,13004.8952028445,18857.5573746796
561380650129,43230,-2,0,7403.6906535523,9850.3954661032,13347.2576883516,1862.4606819004,-5863.4914220075,-2943.0860044427,-5750.8428848207,-20373.3725417913,-8148.6092207497,-2455.1978649332,-4835.7225744641,649.3656440468,-21292.7637137328,10664.0858557438,13008.8132012215,18859.5650446554
561380650129,43230,-2,0,7404.8709201442,9850.6631554333,13342.7313051335,1859.9541363549,-5861.1187211270,-2945.3370283550,-5750.8793879112,-20372.7641569501,-8145.5794642408,-2453.5187227717,-4834.9073387769,650.9717800274,-21292.2405027694,10666.9452644972,13013.1327335937,18864.6998127147
561380682575,43231,-2,0,7405.5644788631,9856.3576375464,13350.6281403716,1866.5611957298,-5862.5423416553,-2935.2986784761,-5747.2169111675,-20376.6578199335,-8149.1080963194,-2452.9590087178,-4823.5670453380,646.9564400758,-21298.8597298411,10661.8713349220,13008.6063503755,18862.6799750421
561380682575,43231,-2,0,7404.4450507554,9855.2625448323,13357.0648519909,1870.0289893243,-5867.7014451083,-2931.4536862800,-5747.4602651039,-20382.3036312593,-8155.0702677627,-2456.9378455789,-4820.8901520369,640.2642068232,-21304.6515535288,10655.9456665692,13003.3134022575,18857.0950022004
561380682575,43231,-2,0,7400.2958661387,9849.3977149637,13350.1536001955,1864.4805195730,-5871.3395864583,-2939.5330369704,-5754.5905354422,-20385.0170276508,-8159.4506386189,-2460.6368254131,-4831.5612221506,636.4192146272,-21306.4767080522,10653.3661148428,13001.5369185214,18855.2090091928
561380682575,43231,-2,0,7397.6554759282,9844.0074252711,13340.3342688594,1855.9144610097,-5872.1061513582,-2950.9098334999,-5761.0394147583,-20384.0922826923,-8158.4407197826,-2458.7386647087,-4840.7965040392,638.1470275760,-21304.3960318955,10656.1525174152,13005.9294570745,18858.3726103668
561380682575,43231,-2,0,7400.1498537769,9845.8447474914,13337.6938786488,1855.8049517383,-5867.3120788099,-2948.6101388004,-5756.9875717163,-20377.5947325888,-8152.1743559188,-2452.6669839941,-4837.4747228066,645.4476456698,-21297.3874385255,10663.5018062963,13009.4459214563,18861.1590129392
561380682575,43231,-2,0,7408.6672415529,9853.6442411549,13348.7299796672,1866.9140589376,-5863.2724034647,-2934.5564489699,-5748.0686499451,-20374.5041375958,-8149.5704687987,-2447.4227066634,-4821.3038537289,647.8081788534,-21294.7227129213,10667.3833015828,13014.5198510315,18865.9774208811
561380682575,43231,-2,0,7406.7204100613,9854.8001723531,13358.2086154923,1869.9559831434,-5865.6451043452,-2924.5789375750,-5744.8563779838,-20378.6289868188,-8152.3568713711,-2446.3154462525,-4813.8693909701,643.4521433908,-21297.8984817921,10665.1687807610,13010.4680079894,18861.6335531153
561380682575,43231,-2,0,7403.1309394985,9850.7970000983,13354.7894926850,1864.6386996317,-5868.5531838859,-2930.3099227787,-5748.9690595100,-20379.7849180170,-8154.1576905009,-2448.0432592013,-4819.1988421785,642.3935537672,-21297.8011402175,10664.4995574357,13010.3219956276,18860.5019573108
561380711355,43232,-2,0,7404.8465847505,9848.5216407924,13347.5132099849,1860.0879810200,-5864.6108501152,-2938.7056335865,-5752.0109837157,-20375.3558763734,-8148.5970530529,-2448.6394763457,-4827.6553914705,645.8735150586,-21292.0823227107,10670.4860642726,13016.5153533104,18863.0328382500
561380711355,43232,-2,0,7407.4261364770,9849.7505781715,13347.6713900436,1859.9176332644,-5859.2083927258,-2937.4401931169,-5749.0420656909,-20370.6348100061,-8141.9048198002,-2443.8332361006,-4824.6743057488,651.3246432353,-21288.6510322066,10675.7060062097,13019.9709792081,18866.5736380254
561380711355,43232,-2,0,7411.2102901889,9854.8731785340,13356.0671008515,1866.5003572457,-5859.0015418799,-2928.8497991599,-5743.6882790888,-20370.0872636491,-8142.3915276732,-2442.6164664183,-4816.5706196648,649.3778117436,-21290.7073729697,10670.8875982678,13015.9556392566,18862.0837578978
561380711355,43232,-2,0,7411.1251163112,9858.3166367349,13363.0878619183,1873.9713230949,-5862.0556337824,-2921.0016347091,-5740.7193610640,-20374.6014791704,-8146.0540044169,-2445.8287383796,-4810.9126406421,644.8149254350,-21296.1098303591,10665.1687807610,13010.1759832657,18855.1603384055
561380711355,43232,-2,0,7409.1296140322,9856.3211344559,13364.4628116593,1872.9370688650,-5861.4837520317,-2923.3256648023,-5742.2403231669,-20375.0881870433,-8145.9444951454,-2445.4393720812,-4815.5485331316,643.9388512637,-21296.0124887845,10664.3900481643,13009.5919338182,18854.3329350215
561380711355,43232,-2,0,7410.8695946779,9853.5955703676,13357.3325413210,1868.3985179500,-5857.8456106817,-2933.2788408035,-5745.2214088885,-20372.4721322264,-8140.1891745482,-2443.3343605309,-4825.3556967709,650.3268920958,-21287.7749580354,10671.7515047422,13016.2111608899,18859.9665786506
561380711355,43232,-2,0,7414.7145868739,9856.5158176051,13353.3050336726,1867.9483131676,-5850.5693279816,-2933.0354868670,-5743.1042296413,-20366.6681408418,-8134.2148354081,-2441.8133984280,-4825.8180692502,655.2183062186,-21280.3161598829,10678.2733902393,13022.0273199712,18862.6191365580
561380711355,43232,-2,0,7418.8029330064,9859.7280895664,13356.6633179958,1870.6252064686,-5849.5350737516,-2925.3333347781,-5738.5535110296,-20368.7001462113,-8134.8962264302,-2444.2104347021,-4816.9599859631,652.4075682525,-21282.1899851936,10676.3630618381,13019.3747620638,18860.1734294966
561380734352,43233,-2,0,7416.8074307275,9858.3166367349,13364.3533023879,1872.0731623906,-5857.1763873564,-2920.8312869536,-5739.4782559881,-20375.2950378893,-8143.7299743237,-2453.9324244637,-4814.8306390191,643.7320004177,-21291.6686210187,10668.0281895144,13011.6239391876,18851.0111537889
561380734352,43233,-2,0,7413.6925003408,9854.4838122357,13360.4596394045,1870.8198896178,-5863.5765958853,-2928.2049112283,-5745.8054583360,-20381.8655941737,-8151.0305924174,-2463.4840664697,-4822.9951635873,638.4025492093,-21296.3896873860,10665.5459793625,13007.0853882727,18846.4239320866
561380734352,43233,-2,0,7412.3175505998,9851.2715402744,13352.0395932031,1864.5170226635,-5862.7856955918,-2939.6547139387,-5750.1493261018,-20379.6267379583,-8150.3978721826,-2464.8711839075,-4834.4084632072,641.3349641436,-21292.2648381630,10668.3810527223,13011.7942869431,18850.2445888890
561380734352,43233,-2,0,7415.8096795880,9851.6244034823,13349.1680167528,1863.8112962478,-5856.8600272390,-2942.7939797190,-5748.6283639989,-20373.7740757864,-8143.6326327491,-2457.2420379995,-4835.1750281070,648.5382406628,-21286.1931574484,10673.9538578672,13018.8028803131,18855.6105431880
561380734352,43233,-2,0,7418.4744051922,9858.6208291555,13350.9445004890,1869.9194800529,-5856.1664685201,-2934.5564489699,-5741.9482984432,-20371.3405364218,-8142.5740431255,-2455.9522621363,-4825.6963922820,649.9618611911,-21286.8988838641,10671.3256353534,13016.9655580929,18854.4911150802
561380734352,43233,-2,0,7414.7024191771,9857.5500718351,13354.6434803232,1873.5819567966,-5862.9560433473,-2927.1341539079,-5740.8288703354,-20374.3581252339,-8150.6898969064,-2458.5926523468,-4819.1866744817,642.1136967403,-21295.5379486084,10662.7474090932,13008.9957166739,18846.4117643898
561380734352,43233,-2,0,7409.6893280861,9852.6829931059,13353.2441951885,1870.9537342829,-5870.7677047076,-2931.2590031308,-5746.9370541406,-20380.6609921882,-8157.6984902764,-2462.1091167287,-4824.5039579933,636.4313823240,-21300.8917352105,10655.5684679677,13001.3787384627,18839.2936617484
561380734352,43233,-2,0,7404.5788954204,9845.6257289486,13342.6096281653,1862.2294956608,-5873.7731258229,-2943.4388676506,-5753.1425795203,-20382.2549604720,-8159.3411293475,-2464.4331468218,-4837.9249275890,637.8671705491,-21302.4005296165,10659.2309447114,13006.0389663459,18843.5036848491
561380767298,43234,-2,0,7406.9394286041,9843.5693881855,13336.1120780618,1860.0879810200,-5869.8064566586,-2947.6123876609,-5754.4323553835,-20377.2175339873,-8154.1941935914,-2460.5881546258,-4841.0155225821,643.8658450828,-21297.2657615573,10665.7893332990,13010.3098279307,18849.8917256812
561380767298,43234,-2,0,7410.8087561938,9849.6532365970,13343.9115717253,1867.2060836614,-5864.8907071422,-2936.9169821535,-5747.7644575245,-20374.6866530481,-8150.7385676937,-2453.7255736177,-4828.5801364290,647.5283218265,-21295.7813025449,10667.5171462478,13011.6361068844,18850.2810919795
561380767298,43234,-2,0,7412.6704138077,9854.5811538103,13354.5583064454,1874.6527141170,-5866.2899922768,-2925.8808811351,-5741.6319383258,-20374.1756097816,-8152.6245607012,-2453.2388657447,-4816.0717440950,644.8635962223,-21299.5167854695,10664.0736880469,13008.8253689183,18844.9759761647
561380767298,43234,-2,0,7410.8817623747,9850.6753231301,13354.2176109344,1873.2899320729,-5870.2809968347,-2924.2747451545,-5743.2137389127,-20377.3878817428,-8156.0801865990,-2454.9545109968,-4816.8626443885,640.3980514883,-21302.8263990053,10660.2651989414,13006.0754694363,18840.8146238513
561380767298,43234,-2,0,7406.3067083693,9845.3337042248,13349.3505322052,1866.9262266345,-5871.7776235439,-2934.9944860555,-5748.8960533291,-20377.3513786524,-8154.7782430389,-2454.8328340285,-4827.6188883800,641.1159456008,-21300.5753750931,10660.3625405159,13008.6915242533,18842.6641137683
561380767298,43234,-2,0,7406.4527207311,9842.9853387380,13340.8696475196,1862.9473897734,-5867.8474574701,-2940.5064527163,-5749.4679350797,-20372.1557721090,-8148.6213884465,-2450.8053263802,-4833.3133704931,649.1101224135,-21294.1751665642,10667.6388232161,13013.9966400681,18847.5920309816
561380767298,43234,-2,0,7411.4779795190,9850.2981245286,13344.5199565665,1868.3985179500,-5862.3719938998,-2932.8164683242,-5743.1772358223,-20368.8461585731,-8143.3284403285,-2447.7147313871,-4824.2849394505,653.3566486047,-21290.8412176347,10669.9628533092,13016.1624901026,18848.8574714512
561380767298,43234,-2,0,7414.8362638422,9855.3112156196,13356.1279393356,1878.8505695209,-5862.5301739585,-2922.1940689978,-5736.4850025697,-20370.5374684315,-8144.8128993409,-2446.4127878271,-4813.4921923686,649.4386502277,-21293.4451047549,10667.5658170351,13011.5509330067,18844.4162621108
561380857843,43235,-2,0,7411.3076317635,9855.0556939864,13360.5569809791,1880.1038422937,-5865.6572720420,-2920.5149268362,-5738.2006478217,-20372.6546476787,-8148.8404069893,-2449.9414199057,-4813.7477140018,644.9852731905,-21296.3531842955,10665.4973085752,13007.7424439011,18839.3910033230
561380857843,43235,-2,0,7408.6064030688,9849.0691871495,13353.6335614869,1874.9082357503,-5865.7667813134,-2931.0764876785,-5743.8464591475,-20375.2828701925,-8148.7187300211,-2452.9103379305,-4825.5990507074,644.9122670096,-21295.6474578798,10665.7771656022,13008.7158596469,18839.7195311372
561380857843,43235,-2,0,7408.8619247021,9846.3192876675,13344.0454163904,1867.6441207470,-5863.9537944868,-2939.8493970878,-5745.3674212504,-20370.6834807934,-8143.3527757222,-2449.2478611868,-4831.1475204587,651.2516370543,-21288.9065538399,10671.5689892899,13016.1868254962,18846.7159568104
561380857843,43235,-2,0,7411.3563025508,9848.9353424844,13344.1062548745,1869.9559831434,-5860.3034854399,-2934.5442812730,-5739.4539205944,-20366.3274453308,-8138.6560447485,-2446.6926448540,-4824.2606040569,656.3377343263,-21284.6235245582,10676.4360680191,13021.2242519809,18851.3761846936
561380857843,43235,-2,0,7412.5974076267,9852.5978192281,13350.6159726748,1878.8262341273,-5860.7293548287,-2924.3234159418,-5733.7594384813,-20367.5198796194,-8141.4302796241,-2446.5588001889,-4812.5431120164,653.0159530937,-21287.5559394926,10673.6009946593,13013.9114661903,18842.8466292207
561380857843,43235,-2,0,7407.2679564183,9847.8402497703,13351.0540097604,1875.2367635645,-5867.3485819004,-2924.7127822401,-5735.0857174350,-20371.5960580551,-8146.6623892580,-2450.0630968740,-4812.6039505005,647.3093032837,-21293.4086016644,10668.2958788445,13012.3661686938,18843.0169769762
561380857843,43235,-2,0,7400.3688723197,9840.1624330751,13342.5609573780,1869.1042443658,-5869.7212827809,-2932.7434621432,-5741.9604661400,-20375.1490255274,-8148.0981774831,-2452.4844685417,-4823.6643869125,646.0195274205,-21294.2116696547,10668.0890279985,13011.1372313147,18844.6961191378
561380857843,43235,-2,0,7404.8344170537,9839.9555822291,13334.9683145605,1863.6409484923,-5866.0101352499,-2941.0053282860,-5745.5499367027,-20373.0318462802,-8144.4965392235,-2450.8661648643,-4832.8388303170,651.4219848098,-21289.2229139573,10671.6419954708,13015.6757822297,18849.5631978670
561380866636,43236,-2,0,7408.5942353720,9845.1511887725,13336.8786429617,1867.7901331089,-5862.2138138411,-2936.8683113662,-5740.7071933672,-20369.5275495952,-8141.3572734432,-2445.1960181448,-4826.6819757246,654.5125798029,-21286.4973498690,10673.7226716275,13017.7929614768,18853.0066560678
561380866636,43236,-2,0,7412.2932152062,9850.6996585237,13345.9679124884,1875.0542481122,-5863.3575773425,-2924.6032729687,-5736.0347977872,-20372.1314367153,-8142.5253723382,-2444.4051178513,-4815.7310485840,651.6045002622,-21290.6830375760,10669.3057976808,13013.1692366841,18846.7889629913
561380866636,43236,-2,0,7409.6649926924,9848.3999638242,13350.4456249193,1876.8185641515,-5867.8352897733,-2921.1963178583,-5736.4606671760,-20377.8015834348,-8147.6358050038,-2449.0288426440,-4814.8549744127,644.4255591367,-21297.0589107113,10664.2562034993,13007.0123820917,18837.5658487995
561380866636,43236,-2,0,7403.4472996159,9841.0506749431,13343.4005284588,1868.3255117691,-5872.2399960232,-2928.4726005584,-5743.5787698174,-20382.0967804133,-8150.4708783636,-2451.0365126198,-4825.9640816121,640.4345545787,-21298.5798728141,10661.6888194696,13004.2138118224,18836.0813897871
561380866636,43236,-2,0,7400.9894248576,9836.4026147568,13332.9484768879,1859.0050560027,-5871.4612634265,-2939.7885586037,-5750.3926800383,-20381.1963708484,-8147.6236373070,-2450.5984755342,-4837.3287104447,644.1943728970,-21293.8223033564,10666.5315628052,13008.0223009280,18840.1210651323
561380866636,43236,-2,0,7405.6739881345,9838.5806324881,13330.5271052201,1860.0149748390,-5866.9713832989,-2938.8638136452,-5747.8861344927,-20376.0250996987,-8143.9246574728,-2448.6516440425,-4835.7469098577,648.1245389708,-21290.6587021824,10669.6221577982,13011.6482745813,18842.6884491620
561380866636,43236,-2,0,7407.1949502373,9841.7077305716,13338.6064559105,1867.0965743900,-5867.0078863894,-2927.9980603823,-5742.5445155875,-20377.0106831413,-8145.3361103043,-2447.7877375681,-4824.1754301791,644.4863976208,-21296.9980722272,10664.0006818660,13006.5013388252,18838.8556246628
561380866636,43236,-2,0,7407.5964842325,9844.0439283616,13347.7443962246,1872.5111994762,-5870.9015493727,-2923.2039878341,-5740.6341871863,-20380.7461660660,-8149.5948041923,-2450.5376370500,-4820.4034441640,639.1812818060,-21303.2766037878,10657.4057901880,12999.8456086630,18831.7618574150
561380876713,43237,-2,0,7406.1728637042,9842.2309415350,13346.8561543565,1870.9780696765,-5871.8506297249,-2927.6817002649,-5744.1628192649,-20381.7439172055,-8151.8336604078,-2452.7764932655,-4826.0857585803,639.0961079282,-21303.9214917194,10655.9091634787,13000.3079811423,18831.0804663929
561380876713,43237,-2,0,7407.9006766531,9841.2453580923,13340.2004241943,1866.9627297249,-5868.2733268589,-2936.1747526473,-5746.4260108740,-20376.9255092636,-8147.2586064023,-2450.4767985659,-4834.4571339945,643.8415096892,-21298.0566618507,10661.0804346285,13006.8907051235,18837.7240288582
561380876713,43237,-2,0,7409.5311480274,9843.2773634617,13338.4726112455,1865.2957552602,-5864.5621793279,-2936.9048144567,-5745.1240673139,-20374.1634420848,-8143.4987880840,-2447.6538929030,-4832.8631657107,648.3313898168,-21294.5158620753,10666.5072274115,13010.5045110799,18841.0336423941
561380876713,43237,-2,0,7409.3608002718,9845.0416795011,13340.8209767323,1869.2745921213,-5866.2899922768,-2928.1440727442,-5740.3908332498,-20376.3292921192,-8145.0927563678,-2448.7733210107,-4822.3137725652,646.5184029902,-21296.9615691367,10664.2927065898,13007.6572700233,18837.8457058265
561380876713,43237,-2,0,7403.9461751856,9842.4621277746,13344.9579936521,1869.8708092656,-5873.0430640135,-2924.0192235212,-5740.7680318513,-20380.9165138215,-8150.8237415714,-2452.2654499989,-4816.4976134838,640.0330205836,-21303.8119824480,10657.3084486134,12999.9429502376,18830.6302616105
561380876713,43237,-2,0,7397.4729604758,9835.8550683997,13342.0985848987,1864.6873704190,-5877.5451118380,-2932.7556298401,-5747.8252960086,-20386.7083375092,-8155.3744601832,-2455.7940820776,-4824.2362686632,635.3484573067,-21306.3185279935,10653.7919842316,12997.1200445747,18829.3039826568
561380876713,43237,-2,0,7397.1322649648,9831.7058837831,13332.5226074991,1856.9608829365,-5875.5252741654,-2942.9156566872,-5750.2953384637,-20382.7660037386,-8151.3956233221,-2455.3195419015,-4834.1286061803,640.6657408184,-21299.7236363155,10660.3747082128,13004.6396812112,18834.1953967796
561380876713,43237,-2,0,7404.4937215427,9836.8284841456,13333.2405016116,1858.2993295870,-5866.6915262720,-2941.8083962763,-5746.6815325073,-20376.2197828478,-8141.7344720447,-2448.0189238077,-4831.5003836665,649.0614516262,-21292.7758814296,10667.5536493383,13013.0718951095,18841.4716794797
561380900126,43238,-2,0,7412.3662213871,9846.7938278436,13343.9115717253,1867.7536300184,-5862.5180062617,-2930.4437674437,-5739.9162930737,-20372.0340951407,-8138.8385602009,-2444.5389625163,-4818.3957741882,650.4242336704,-21292.1553288916,10666.6654074702,13010.5531818672,18838.9651339342
561380900126,43238,-2,0,7414.0575312455,9847.1223556578,13352.2586117459,1874.0321615791,-5864.6595209025,-2920.8191192568,-5736.0347977872,-20375.5870626130,-8142.3671922795,-2446.1572661938,-4809.8905541090,647.3944771615,-21297.2049230731,10664.1831973183,13010.5896849577,18837.4928426186
561380900126,43238,-2,0,7409.8596758416,9845.2363626502,13350.0075878336,1871.0997466447,-5868.3341653431,-2924.9804715702,-5739.2470697485,-20379.4320548091,-8145.4334518789,-2448.4082901060,-4815.1226637428,644.8879316159,-21299.6141270441,10662.4067135822,13008.9227104929,18836.3734145109
561380900126,43238,-2,0,7405.6983235281,9839.8704083513,13340.5167843117,1862.5580234750,-5869.2102395143,-2935.8583925299,-5744.1871546586,-20379.3347132345,-8144.6060484949,-2448.8463271917,-4827.4972114118,646.8347631076,-21295.1364146132,10664.4387189516,13011.7699515495,18838.6366061200
561380900126,43238,-2,0,7405.6009819535,9839.7487313831,13331.1719931517,1860.9640551912,-5864.4648377534,-2938.8151428579,-5744.0046392062,-20375.2707024957,-8138.8507278977,-2445.1473473575,-4829.6630614463,651.7383449272,-21288.9308892335,10669.3544684681,13011.7699515495,18836.3977499045
561380900126,43238,-2,0,7410.2733775336,9847.8159143767,13339.6163747468,1867.7536300184,-5862.6153478363,-2930.0787365390,-5737.7139399488,-20374.4919698990,-8136.6605424695,-2444.8796580274,-4820.9144874306,649.6941718610,-21289.8678018889,10669.2571268935,13013.0232243222,18835.9962159094
561380900126,43238,-2,0,7408.6064030688,9847.2683680197,13346.3451110899,1871.4039390653,-5867.7987866828,-2923.1674847436,-5737.4584183155,-20381.1477000611,-8141.7223043479,-2447.1063465460,-4816.4976134838,641.8581751070,-21295.8056379385,10660.6180621492,13002.8023589910,18825.8483567590
561380900126,43238,-2,0,7404.1286906380,9842.8636617698,13343.7290562730,1868.9217289134,-5874.7952123560,-2929.4460163042,-5744.4183408982,-20386.6474990251,-8149.4001210432,-2455.1491941459,-4824.8324858075,635.4457988813,-21300.3685242471,10655.8118219042,12996.3534796748,18817.2944658925
561380947959,43239,-2,0,7402.6077285351,9842.0970968699,13332.9728122815,1861.5359369419,-5876.7542115445,-2942.3559426334,-5752.3881823172,-20387.8155979201,-8149.9354997034,-2458.1789506549,-4836.4283008798,637.6359843095,-21299.0544129902,10659.4134601638,13001.1475522231,18824.4612393212
561380947959,43239,-2,0,7403.3499580413,9842.0362583858,13327.0228085351,1858.1533172251,-5872.7875423802,-2948.7804865559,-5753.6901258773,-20381.3180478167,-8145.1170917615,-2453.4335488939,-4838.6063186111,644.7297515572,-21292.3256766471,10666.9087614067,13008.6306857692,18834.6334338652
561380947959,43239,-2,0,7406.1971990979,9846.1732753056,13328.9331369363,1863.2272468003,-5868.3463330399,-2938.9246521293,-5746.6815325073,-20379.0670239044,-8142.8539001524,-2451.1095188007,-4828.3124470989,648.5625760565,-21291.5469440505,10668.1133633922,13009.3120767913,18837.6023518900
561380947959,43239,-2,0,7406.9880993914,9849.9087582302,13337.9372325853,1870.3940202290,-5871.0962325219,-2928.6672837076,-5741.3764166925,-20380.6853275819,-8146.4555384120,-2451.5840589768,-4817.8238924375,644.0361928383,-21296.9250660462,10663.5869801740,13004.8708674509,18832.2607329847
561380947959,43239,-2,0,7400.6974001339,9843.9709221807,13337.7303817393,1867.0235682090,-5879.0052354568,-2930.9183076198,-5746.2434954217,-20386.1242880617,-8152.8679146377,-2455.5507281411,-4821.3768599098,638.1105244855,-21302.4370327070,10657.9411688482,12997.4485723889,18823.2201342453
561380947959,43239,-2,0,7395.9885014634,9837.2421858376,13327.5216841048,1857.6179385649,-5882.0228242689,-2944.1567617632,-5753.5076104249,-20387.1463745948,-8155.2041124277,-2460.6976638972,-4834.7369910214,639.4368034392,-21301.9016540468,10658.2696966624,13002.9483713529,18827.5883374047
561380947959,43239,-2,0,7397.7406498059,9837.9114091628,13319.8682028032,1854.0041326085,-5876.4013483367,-2950.1189332064,-5754.6513739263,-20382.0237742324,-8149.5096303146,-2456.0739391045,-4838.3142938874,644.9122670096,-21295.1120792196,10665.2052838515,13009.0078843707,18834.7672785303
561380947959,43239,-2,0,7403.1796102858,9842.8028232856,13325.6478587941,1859.5769377534,-5872.4103437787,-2941.4920361589,-5747.3994266198,-20377.7285772539,-8143.8029805046,-2447.5443836316,-4825.2461874995,647.8568496407,-21292.5690305836,10668.7460836270,13012.8772119604,18838.1255628534
561380968900,43240,-2,0,7405.5401434694,9846.5626416039,13338.0589095535,1867.0479036027,-5871.9601389963,-2928.6916191012,-5740.8167026386,-20379.9552657725,-8144.5330423140,-2445.3663659003,-4814.1735833906,645.4476456698,-21294.0048188087,10666.8965937099,13007.7302762043,18832.2242298943
561380968900,43240,-2,0,7403.9705105793,9846.3314553643,13340.1760888007,1868.6783749770,-5874.6126969037,-2926.7204522159,-5741.4615905702,-20382.1454512006,-8147.1856002214,-2446.4006201302,-4813.7355463050,641.7608335324,-21295.7934702417,10665.2661223356,13004.7491904826,18828.7564362997
561380968900,43240,-2,0,7402.5103869605,9842.2187738381,13337.8398910107,1864.1519917588,-5874.0286474562,-2934.2887596398,-5746.0366445757,-20382.0116065356,-8145.2752718202,-2444.8431549369,-4821.7662262082,643.2209571512,-21291.8754718647,10669.1597853189,13008.1804809867,18831.2629818452
561380968900,43240,-2,0,7407.3166272056,9844.7983255646,13333.4351847608,1861.6332785165,-5866.0223029467,-2939.3870246086,-5744.8928810743,-20374.6623176545,-8136.9647348901,-2439.3676913666,-4826.5846341500,650.8135999687,-21284.4775121963,10677.1904652221,13017.1602412420,18836.9452962616
561380968900,43240,-2,0,7413.6438295535,9852.4518068662,13338.3874373677,1868.3255117691,-5860.9848764620,-2932.9259775956,-5737.6652691615,-20368.5906369399,-8132.4870224593,-2436.2284255863,-4818.1889233422,655.9605357248,-21282.9200470030,10679.8795262199,13021.0539042254,18838.3080783057
561380968900,43240,-2,0,7414.8605992358,9856.1264513068,13347.4037007135,1874.4945340583,-5864.0146329709,-2922.4495906310,-5733.3944075766,-20371.8394119916,-8136.9038964060,-2438.2604309557,-4808.7102875171,651.6775064431,-21289.3932617128,10673.1264544832,13015.3837575059,18832.4432484371
561380968900,43240,-2,0,7409.8596758416,9852.6464900154,13349.3018614179,1874.2633478187,-5871.3882572456,-2923.7758695847,-5738.3953309709,-20379.4198871123,-8145.4699549694,-2447.5687190253,-4812.3362611704,643.3669695131,-21296.5843705352,10664.1101911374,13006.3796618569,18825.2521396147
561380968900,43240,-2,0,7405.3454603203,9846.7938278436,13337.3896862282,1865.6729538617,-5875.9754789479,-2935.7367155617,-5746.0609799693,-20383.3013823988,-8149.8016550383,-2454.2731199747,-4825.8180692502,640.7630823929,-21298.4460281491,10661.7496579538,13004.0312963701,18822.9767803088
561380997843,43241,-2,0,7405.6861558313,9845.7352382200,13330.3324220709,1859.7594532057,-5871.1570710060,-2944.5461280615,-5749.4557673829,-20379.6997441392,-8145.8228181772,-2450.6593140183,-4833.4958859455,646.4940675966,-21294.1751665642,10666.6897428639,13008.1926486835,18828.5860885442
561380997843,43241,-2,0,7412.1228674506,9852.8411731646,13334.6276190494,1866.5611957298,-5864.1484776360,-2937.3550192391,-5741.4007520861,-20372.7519892533,-8138.1815045724,-2444.1982670053,-4824.7838150203,653.0037853968,-21288.7727091748,10671.6054923803,13013.4004229238,18832.5040869212
561380997843,43241,-2,0,7420.7375968013,9861.2247162756,13347.5375453786,1878.9114080051,-5860.3399885304,-2921.3423302201,-5731.0338743930,-20371.2188594536,-8136.0521576284,-2441.0224981345,-4810.6449513120,653.4418224825,-21288.4563490574,10673.2237960578,13014.0696462490,18831.4698326912
561380997843,43241,-2,0,7419.8858580237,9861.9669457818,13353.9499216043,1881.4666243379,-5864.0754714550,-2917.2053133003,-5731.0460420898,-20375.3680440702,-8141.0287456290,-2442.3244416946,-4807.8098779522,647.9785266090,-21293.9683157182,10668.5392327810,13008.7645304342,18825.6050028226
561380997843,43241,-2,0,7414.4590652406,9853.9971043628,13348.2311040975,1874.8839003567,-5868.6018546732,-2926.8421291841,-5738.9915481152,-20378.7749991807,-8145.8106504804,-2446.7291479445,-4819.5517053864,644.6324099826,-21295.9394826036,10665.1322776705,13006.9758790012,18825.9335306368
561380997843,43241,-2,0,7411.2954640667,9848.1687775846,13334.3355943257,1866.4516864584,-5868.8695440033,-2938.5352858310,-5744.2358254459,-20377.9232604031,-8144.8494024314,-2447.4713774507,-4831.1353527618,646.8469308044,-21292.8002168232,10667.6631586097,13008.8253689183,18828.8172747838
561380997843,43241,-2,0,7413.1692893774,9849.6532365970,13332.1210735039,1864.8090473873,-5865.6451043452,-2936.6857959139,-5743.3597512746,-20375.8182488527,-8141.9778259812,-2446.4736263112,-4828.5923041258,648.4652344819,-21290.5735283046,10670.1818718521,13011.3197467670,18832.9056209163
561380997843,43241,-2,0,7415.2986363214,9853.5834026708,13340.7358028545,1870.9293988892,-5866.9592156021,-2926.5622721572,-5738.8820388438,-20377.5947325888,-8143.2189310571,-2445.4150366876,-4817.8238924375,646.2507136601,-21293.8223033564,10667.4806431574,13006.6960219743,18828.1115483681
561381032548,43242,-2,0,7415.4203132897,9854.3377998738,13346.5032911486,1875.3097697455,-5867.7987866828,-2919.6753557554,-5737.3854121345,-20379.1643654790,-8146.3825322311,-2446.7048125508,-4812.1780811117,642.5639015227,-21294.5645328626,10664.2318681056,13001.4274092500,18820.2998870078
561381032548,43242,-2,0,7414.4225621502,9853.7659181231,13345.1770121949,1873.6914660680,-5868.5410161890,-2925.2603285971,-5742.8730434017,-20382.8390099195,-8146.3338614438,-2448.1649361696,-4821.7053877240,641.7973366229,-21296.7425505939,10665.9961841450,13003.2768991671,18820.4215639760
561381032548,43242,-2,0,7413.2787986488,9850.4441368905,13336.8056367807,1867.4007668106,-5866.8132032402,-2935.2500076888,-5747.8252960086,-20381.1111969707,-8143.0364156048,-2444.1495962180,-4831.2083589428,645.4963164571,-21292.5203597963,10670.6442443313,13008.3629964391,18826.1890522701
561381032548,43242,-2,0,7415.6880026198,9852.2206206266,13334.1530788733,1867.4372699010,-5862.1286399634,-2936.1260818600,-5744.7590364093,-20376.2076151510,-8138.1936722692,-2441.8742369121,-4828.3367824926,650.2173828244,-21287.3490886466,10674.1850441068,13012.9867212318,18829.0484610235
561381032548,43242,-2,0,7418.1337096812,9857.5379041382,13343.0111621604,1875.2002604741,-5863.3697450393,-2926.3310859176,-5740.1839824038,-20376.7916645985,-8141.1260872036,-2442.3001063009,-4817.8482278312,648.3435575136,-21290.8168822411,10670.7659212996,13010.2368217498,18824.9357794973
561381032548,43242,-2,0,7414.7510899644,9855.1408678641,13348.6813088799,1876.3318562786,-5868.9912209715,-2922.7781184453,-5739.9892992547,-20379.7484149265,-8146.4677061088,-2445.7070614113,-4813.4191861876,642.7342492783,-21298.0079910635,10663.7208248391,13004.2503149129,18819.9470237999
561381032548,43242,-2,0,7410.3707191081,9848.4242992178,13341.2225107275,1869.2502567276,-5872.2034929327,-2931.1251584658,-5744.6738625315,-20382.9606868877,-8151.4442941094,-2451.6692328546,-4822.6666357731,638.9500955663,-21300.3320211566,10661.3967947459,13001.8532786388,18816.8077580196
561381032548,43242,-2,0,7408.8375893084,9844.6401455059,13333.7880479686,1862.6431973528,-5869.2224072111,-2940.2265956894,-5750.1493261018,-20381.8777618705,-8148.2441898450,-2451.0486803166,-4833.2403643122,642.4665599482,-21296.5356997479,10664.9254268245,13006.9028728203,18820.3972285824
561381052517,43243,-2,0,7412.9137677441,9847.9740944354,13334.0435696019,1861.2317445213,-5864.3431607851,-2940.6402973813,-5748.0686499451,-20377.8137511316,-8141.5397888955,-2446.5101294017,-4832.5589732901,646.9077692885,-21289.4784355906,10671.0092752360,13011.8916285177,18825.5806674289
561381052517,43243,-2,0,7417.9268588352,9852.5369807440,13341.4171938766,1868.5201949183,-5863.4062481298,-2931.5266924609,-5743.4814282428,-20381.8534264769,-8142.9025709397,-2448.1771038664,-4824.0659209077,644.8879316159,-21290.5126898205,10668.9651021698,13007.8276177789,18821.2246319663
561381052517,43243,-2,0,7414.4955683311,9851.3080433649,13346.2356018185,1871.9271500287,-5870.2079906538,-2925.9538873160,-5744.4061732014,-20389.3973985071,-8149.0959286226,-2453.1293564733,-4820.6589657973,635.4823019718,-21296.0854949654,10663.7451602327,12999.4684100615,18813.4859767869
561381052517,43243,-2,0,7408.8254216116,9847.0493494769,13343.4978700334,1866.6950403948,-5874.5153553291,-2933.6317040113,-5751.2565865127,-20394.7025143219,-8153.0382623932,-2458.1911183517,-4829.5413844780,630.4448754871,-21297.1440845890,10661.1169377190,12996.0492872542,18810.9915989382
561381052517,43243,-2,0,7408.0831921054,9844.0074252711,13334.1287434797,1861.0127259785,-5872.6658654120,-2944.1445940663,-5756.3305160879,-20390.5533297053,-8150.2396921239,-2458.7873354960,-4840.5896531933,635.0077617957,-21293.3112600898,10665.0714391864,13002.7536882037,18815.0799450707
561381052517,43243,-2,0,7411.3441348540,9846.5991446944,13327.7893734349,1861.1709060372,-5865.9979675530,-2945.9332454993,-5753.5562812122,-20383.5812394257,-8143.5839619618,-2452.9833441115,-4839.6770759315,642.6734107942,-21288.2251628178,10670.5225673631,13009.1052259453,18822.8672710374
561381052517,43243,-2,0,7416.3572259450,9852.2814591107,13336.7204629030,1868.3376794659,-5863.9416267900,-2933.6560394050,-5745.0267257394,-20380.1742843153,-8139.8971498244,-2447.9945884141,-4825.9762493089,644.4255591367,-21288.4198459670,10668.5757358714,13008.2048163804,18822.0398676535
561381052517,43243,-2,0,7415.3594748055,9854.0092720596,13344.5321242633,1874.2511801219,-5867.5432650496,-2924.7979561179,-5741.3034105115,-20382.4983144085,-8145.2266010329,-2452.0099283656,-4818.7851404865,640.0938590677,-21295.6839609703,10663.3801293280,13003.6297623749,18816.9537703815
561381083820,43244,-2,0,7408.9227631862,9847.4143803815,13339.6893809278,1869.3841013927,-5875.4157648940,-2930.9548107103,-5745.9027999106,-20388.6673366977,-8152.7462376695,-2457.6435719946,-4826.8158203897,633.2799488468,-21301.7799770786,10656.2620266866,12997.6189201444,18808.5337241800
561381083820,43244,-2,0,7404.6519016014,9839.7487313831,13329.2129939632,1859.1389006678,-5878.4333537061,-2945.7263946533,-5755.0650756183,-20389.1662122674,-8154.6809014643,-2459.2253725816,-4839.2633742396,634.1438553213,-21301.2324307215,10657.3449517039,12998.8478575235,18809.6288168941
561381083820,43244,-2,0,7406.2215344915,9841.3792027574,13322.6789407693,1856.3768334890,-5874.0043120625,-2950.0702624191,-5755.5031127039,-20385.2968846778,-8150.6412261191,-2457.7895843565,-4842.1106152961,640.5927346374,-21296.0854949654,10662.2241981299,13003.5080854067,18814.4472248359
561381083820,43244,-2,0,7409.2999617877,9847.9619267386,13325.8912127306,1862.1078186926,-5871.9966420868,-2942.4046134207,-5749.7234567130,-20382.5956559831,-8148.8160715957,-2454.7476601508,-4831.1840235491,642.0893613466,-21295.7813025449,10662.3215397044,13003.9096194019,18814.1065293249
561381083820,43244,-2,0,7409.8475081448,9852.0624405679,13337.4991954996,1869.4084367863,-5875.7442927082,-2932.0377357275,-5744.6008563506,-20382.0724450197,-8150.5682199382,-2451.8152452165,-4818.9919913325,639.8261697376,-21298.6407112982,10659.6081433129,13000.9407013771,18810.4562202780
561381083820,43244,-2,0,7409.1417817290,9850.6753231301,13341.2955169084,1872.1461685715,-5875.9268081606,-2929.4460163042,-5743.7734529666,-20384.6884998366,-8153.4154609947,-2452.8129963559,-4819.3448545404,638.1470275760,-21299.2004253521,10655.1912693662,12998.3368142570,18806.2705325709
561381083820,43244,-2,0,7407.7911673817,9848.4364669147,13333.5933648195,1867.9483131676,-5875.5252741654,-2939.0584967943,-5745.6229428837,-20381.9020972642,-8151.4077910189,-2452.3019530894,-4828.5436333385,641.2619579627,-21298.5555374205,10659.9001680367,13002.2791480276,18809.1907798084
561381083820,43244,-2,0,7411.9403519983,9850.3711307095,13330.1985774059,1865.8676370109,-5870.1106490792,-2942.9399920809,-5746.4746816613,-20377.3392109555,-8145.5429611503,-2446.0112538319,-4830.9041665222,646.7374215330,-21293.8344710532,10665.0714391864,13006.8298666394,18814.9095973152
561381114968,43245,-2,0,7416.0530335245,9854.6663276880,13333.0214830688,1870.1384985957,-5868.2854945558,-2935.7367155617,-5741.2912428147,-20374.9178392878,-8144.1923468029,-2442.7259756897,-4821.9122385700,649.1344578071,-21292.4473536154,10665.9596810545,13008.8253689183,18816.7469195355
561381114968,43245,-2,0,7416.3328905514,9856.8808485098,13339.9935733483,1875.9303222834,-5872.0331451772,-2926.4405951890,-5738.3588278804,-20379.8700918947,-8148.5483822656,-2446.5344647953,-4814.6846266572,642.8924293370,-21299.2369284426,10661.1656085063,13002.9727067465,18810.4318848844
561381114968,43245,-2,0,7412.4027244776,9852.0016020838,13340.5167843117,1872.5720379603,-5878.8713907917,-2930.4194320501,-5745.9514706979,-20388.9350260278,-8155.7759941784,-2451.8274129133,-4819.7585562324,633.5963089642,-21305.5397953969,10654.1570151362,12994.2606358213,18801.5616339004
561381114968,43245,-2,0,7406.1120252201,9843.7397359410,13330.1012358313,1862.4485142036,-5881.6212902737,-2944.4852895774,-5755.1745848897,-20392.9260305857,-8157.9540119097,-2455.9765975299,-4835.3818789530,630.9924218441,-21305.1017583112,10653.3904502364,12993.5792447992,18801.8779940178
561381114968,43245,-2,0,7407.9006766531,9844.5063008409,13323.4333379723,1858.4331742520,-5875.3427587131,-2950.2162747810,-5756.6955469926,-20388.1197903407,-8150.9940893270,-2452.1802761211,-4840.8451748265,637.9280090332,-21296.6695444129,10661.3359562618,12998.3611496506,18804.8469120426
561381114968,43245,-2,0,7416.6857537592,9854.7515015658,13332.8389676165,1868.3498471627,-5866.3873338514,-2940.0562479338,-5748.4701839402,-20381.8412587800,-8142.8904032429,-2444.1252608244,-4828.7139810941,643.3791372099,-21290.0989881285,10666.6167366829,13004.1529733383,18810.6752388208
561381114968,43245,-2,0,7418.5109082827,9858.6086614587,13343.1815099160,1874.9447388408,-5867.0443894798,-2927.5843586903,-5741.0357211814,-20382.5348174989,-8144.9954147933,-2444.1252608244,-4816.7409674203,639.9843497963,-21294.8687252831,10664.0128495628,13002.6563466291,18809.7626615591
561381114968,43245,-2,0,7415.5541579547,9856.5644883924,13346.3329433931,1876.2223470072,-5870.6825308299,-2924.8587946020,-5741.1695658465,-20384.3964751129,-8149.1445994099,-2447.0333403650,-4814.8914775032,638.5242261775,-21298.8110590538,10661.9200057093,13001.6220923992,18807.4994699500
561381191703,43246,5,0,7415.5298225611,9855.4085571942,13342.2445972606,1872.7667211095,-5872.1791575391,-2932.3540958449,-5743.4205897587,-20382.1211158070,-8148.1225128768,-2446.5222970985,-4822.6301326826,642.7829200656,-21296.1463334495,10664.6090667072,13006.7325250648,18811.5756483857
561381191703,43246,5,0,7416.0652012213,9852.1476144457,13334.4937743844,1867.2425867519,-5867.7136128051,-2939.1680060658,-5745.5134336123,-20376.3536275129,-8141.6006273797,-2442.4461186628,-4828.0569254656,650.2782213085,-21289.7704603143,10671.7271693486,13013.6316091634,18818.8154279954
561381191703,43246,5,0,7418.9732807620,9855.5667372529,13333.7150417877,1867.9239777739,-5863.4549189171,-2935.2986784761,-5741.4859259639,-20374.6379822609,-8138.1571691788,-2440.4627840807,-4822.6544680762,651.1907985702,-21287.0327285292,10674.3188887719,13014.9578881171,18818.3165524256
561381191703,43246,5,0,7418.5109082827,9856.7105007543,13341.1738399402,1872.4746963857,-5865.4139181055,-2926.6839491254,-5739.9162930737,-20379.8822595915,-8141.6736335606,-2442.3609447850,-4813.9910679383,644.5350684081,-21292.2770058599,10667.3589661891,13007.5477607519,18809.8356677400
561381191703,43246,5,0,7414.8605992358,9852.8533408614,13344.7511428061,1872.9370688650,-5870.8407108886,-2924.6276083623,-5742.0213046241,-20386.9030206584,-8148.5240468719,-2446.5101294017,-4815.2565084079,638.2565368474,-21298.0931649412,10660.8249129952,12996.1101257384,18797.4489523743
561381191703,43246,5,0,7412.5122337490,9851.4053849395,13339.3973562040,1868.3741825564,-5871.5951080916,-2933.2545054098,-5746.9735572310,-20386.5988282378,-8150.3857044858,-2449.2965319741,-4826.2317709422,637.4047980698,-21297.2049230731,10658.8050753226,12998.1786341983,18797.3151077092
561381191703,43246,5,0,7412.5730722331,9850.2251183476,13332.1089058071,1863.9573086097,-5868.5653515827,-2941.6745516113,-5750.3440092510,-20383.0945315528,-8146.8814078008,-2449.2235257932,-4834.1894446644,642.7950877624,-21293.1165769406,10667.2494569177,13005.9294570745,18806.3557064487
561381191703,43246,5,0,7416.8195984243,9854.2647936929,13332.3887628340,1865.6972892553,-5865.1705641691,-2939.0828321880,-5746.4625139645,-20379.1765331758,-8142.5132046414,-2444.8188195433,-4829.7238999304,646.8956015917,-21291.3522609013,10670.2548780330,13008.5698472851,18809.2881213830
561381200408,43247,5,0,7419.2044670016,9860.4946544662,13340.4194427371,1874.3120186060,-5866.3021599736,-2927.8763834141,-5741.2669074211,-20380.3324643740,-8144.5452100108,-2446.1207631033,-4818.8946497579,644.4133914398,-21294.6740421340,10666.1543642037,13004.7856935731,18805.5283030647
561381200408,43247,5,0,7415.2256301405,9857.7569226810,13342.9381559795,1875.9424899803,-5872.0088097836,-2924.6276083623,-5741.6441060226,-20386.0512818808,-8150.3613690922,-2448.8219917980,-4816.9843213567,638.1470275760,-21300.5145366090,10660.5693913619,12999.3345653964,18801.0140875434
561381200408,43247,5,0,7406.5622300026,9849.7019073843,13335.0048176509,1867.5711145661,-5874.0164797594,-2931.7578787006,-5745.6837813678,-20385.9174372157,-8149.7286488574,-2447.6052221157,-4822.2651017779,639.8383374344,-21300.6970520613,10661.7861610442,13003.1673898957,18804.6157258030
561381200408,43247,5,0,7398.0813453170,9840.1746007719,13322.6911084661,1859.7472855089,-5868.2124883748,-2937.5983731756,-5744.8685456807,-20377.7772480412,-8141.9413228907,-2440.8156472885,-4826.5116279691,649.8766873133,-21291.2305839331,10671.7271693486,13012.5486841462,18816.9294349878
561381200408,43247,5,0,7399.2372765151,9840.4301224052,13321.5838480552,1860.0393102327,-5858.8311941243,-2932.6947913559,-5737.6896045551,-20369.6735619571,-8134.0566553494,-2434.7926373612,-4818.9798236357,658.5765905417,-21284.5018475900,10677.1661298284,13018.3040047434,18821.9790291693
561381200408,43247,5,0,7412.9624385314,9853.0115209201,13337.3896862282,1869.4206044832,-5860.1696407749,-2924.0922297021,-5735.4385806429,-20374.2607836593,-8136.7457163473,-2437.0923320607,-4812.4579381386,651.2759724480,-21288.7362060844,10668.4540589032,13008.9592135834,18812.2083686205
561381200408,43247,5,0,7422.4410743565,9859.1683755125,13346.9413282342,1875.5896267724,-5869.1494010302,-2924.6641114528,-5740.8288703354,-20384.7371706239,-8147.4046187642,-2447.4835451475,-4816.2907626378,638.9500955663,-21299.7844747996,10660.7519068143,12998.7140128585,18801.9996709861
561381200408,43247,5,0,7423.8038564007,9858.2557982508,13343.1571745223,1872.9735719555,-5875.2210817448,-2935.8462248331,-5749.8573013781,-20390.9426960036,-8153.6466472344,-2454.5408093048,-4828.2394409180,633.7909921134,-21303.4104484528,10656.9312500119,12995.0880392052,18798.4710389074
561381213017,43248,5,0,7419.4964917253,9854.3743029643,13335.1751654065,1865.1984136856,-5873.9191381848,-2947.1621828784,-5754.5662000485,-20388.0711195534,-8150.6412261191,-2453.3240396225,-4836.5743132417,638.0618536983,-21298.3486865745,10662.2607012203,13002.0722971816,18804.1655210206
561381213017,43248,5,0,7419.1436285175,9852.1476144457,13330.9651423057,1863.4584330399,-5868.7113639446,-2944.7894819980,-5750.3440092510,-20382.1089481101,-8144.3626945585,-2448.2866131378,-4832.4372963219,645.4476456698,-21292.5568628868,10668.0768603017,13009.3120767913,18809.0204320529
561381213017,43248,5,0,7424.1323842149,9855.8100911894,13338.7281328788,1870.4791941068,-5865.2070672596,-2931.2955062213,-5743.1650681254,-20379.9552657725,-8142.0751675558,-2444.9769996020,-4820.3912764672,645.1921240365,-21293.7127940850,10668.3810527223,13008.6306857692,18808.0105132166
561381213017,43248,5,0,7421.8448572122,9857.0998670526,13347.2211852612,1873.9956584886,-5868.2854945558,-2923.3134971055,-5739.7946161055,-20385.3942262523,-8145.9688305391,-2446.1450984970,-4813.3096769162,639.4368034392,-21298.1296680317,10662.2972043108,13002.4251603895,18801.5981369909
561381213017,43248,5,0,7415.5176548642,9850.3832984063,13341.2346784243,1867.7779654121,-5874.6248646005,-2931.2225000404,-5746.1339861502,-20390.3708142529,-8152.5515545203,-2451.8882513974,-4824.5647964774,634.5088862260,-21300.8187290296,10659.9488388240,12999.5657516361,18798.0330018218
561381213017,43248,5,0,7411.1859547953,9842.6203078333,13326.2440759384,1857.3624169316,-5873.8704673975,-2943.0616690491,-5754.0551567820,-20390.7236774608,-8151.8944988919,-2453.1536918670,-4837.3408781415,635.8960036638,-21297.8011402175,10661.2142792936,13001.5490862182,18799.1402622327
561381213017,43248,5,0,7413.5829910694,9846.5018031198,13325.1854863148,1856.4741750636,-5869.1494010302,-2945.8724070152,-5753.0695733393,-20386.1607911522,-8147.1734325246,-2448.6638117393,-4837.1461949924,641.1402809945,-21294.1751665642,10666.1908672941,13004.7856935731,18803.6058069667
561381213017,43248,5,0,7415.9191888594,9850.7239939174,13331.0746515771,1862.3755080227,-5869.1980718175,-2936.9413175472,-5747.5697743754,-20386.2459650299,-8148.3902022069,-2448.5299670743,-4827.7162299546,639.8383374344,-21296.7912213812,10663.8911725946,13001.5369185214,18802.1335156511
561381246698,43249,5,0,7415.4446486833,9850.5171430714,13335.9052272158,1866.9505620281,-5873.9678089721,-2930.2855873850,-5745.3552535536,-20389.3730631134,-8153.6344795375,-2451.2798665562,-4820.8658166433,636.0298483288,-21304.1405102622,10657.7343180022,12998.1542988046,18796.5242074158
561381246698,43249,5,0,7409.4216387559,9847.6090635307,13334.9318114700,1864.2128302429,-5882.0228242689,-2937.0264914249,-5751.3904311778,-20393.6074216078,-8159.3411293475,-2455.2587034174,-4827.6432237736,631.4304589298,-21307.8029870059,10653.2931086618,12995.2097161735,18793.8838172052
561381246698,43249,5,0,7406.2337021883,9841.9267491144,13323.4576733660,1855.0627222321,-5882.4365259608,-2948.9873374019,-5757.9609874621,-20392.0499564145,-8158.5745644477,-2456.5728146742,-4839.7865852029,633.2434457564,-21306.1481802380,10656.6757283786,12999.5049131520,18798.9577467803
561381246698,43249,5,0,7408.0588567118,9843.4233758236,13316.4125769055,1853.8946233371,-5876.2918390653,-2949.3767037002,-5755.7221312467,-20387.0368653234,-8152.0283435569,-2451.2068603753,-4838.2656231001,641.9433489848,-21299.0544129902,10663.6964894454,13007.7424439011,18803.5206330889
561381246698,43249,5,0,7411.6604949714,9850.0426028953,13326.8402930827,1862.6797004433,-5871.3030833678,-2938.4987827405,-5746.6693648105,-20382.8511776163,-8147.4046187642,-2445.9990861351,-4825.3191936805,645.1069501587,-21298.8718975379,10663.4409678121,13004.8100289668,18804.3602041697
561381246698,43249,5,0,7411.5266503063,9851.8434220251,13335.4306870397,1868.5323626151,-5873.8461320038,-2928.0954019569,-5742.0821431082,-20384.3599720224,-8151.0427601143,-2445.6827260177,-4814.0032356351,642.0041874689,-21302.4857034943,10661.2994531713,13003.0578806243,18805.5404707615
561381246698,43249,5,0,7409.0809432449,9850.0547705921,13334.8709729859,1868.1916671040,-5876.0119820383,-2929.2269977614,-5743.8464591475,-20387.6695855582,-8153.5614733566,-2449.9414199057,-4817.7508862566,638.8284185981,-21305.2112675826,10658.0020073323,13000.9285336802,18799.2741068977
561381246698,43249,5,0,7408.6185707656,9843.8492452124,13326.7672869018,1859.8081239930,-5876.0484851288,-2941.2243468288,-5751.7554620824,-20387.8277656169,-8152.6610637917,-2450.0022583898,-4830.1010985319,639.3394618647,-21302.9237405799,10661.2021115967,13003.8366132209,18801.6833108687
561381275511,43250,5,0,7408.5820676752,9841.2331903955,13318.4324145781,1853.5904309165,-5872.1669898423,-2947.8557415973,-5753.2642564885,-20384.9926922572,-8147.0395878595,-2448.2622777442,-4834.7856618087,643.3791372099,-21296.6208736256,10667.2251215241,13009.9326293292,18805.2484460378
561381275511,43250,5,0,7412.0741966633,9845.2241949534,13322.9222947058,1858.2019880124,-5868.2246560716,-2938.5961243151,-5746.8032094755,-20382.8390099195,-8144.1680114093,-2445.1108442670,-4823.5670453380,647.5039864329,-21292.6663721582,10672.0070263755,13014.0088077649,18806.7450727470
561381275511,43250,5,0,7413.2301278615,9848.0105975259,13331.8047133865,1864.4318487858,-5868.8573763064,-2927.4626817221,-5741.9848015336,-20383.9706057241,-8145.1900979424,-2444.3321116703,-4810.9126406421,645.3381363984,-21294.2725081388,10670.3765550012,13012.1593178478,18805.3336199156
561381275511,43250,5,0,7407.1706148437,9843.5085497014,13330.7217883693,1861.2560799150,-5874.9655601116,-2929.8475502994,-5746.8032094755,-20388.3266411867,-8150.7507353905,-2447.7512344776,-4814.0154033319,639.9965174931,-21297.9836556698,10667.7361647906,13010.2489894466,18802.4377080717
561381275511,43250,5,0,7402.9484240461,9838.8604895150,13320.4400845539,1854.0771387894,-5875.9998143415,-2941.8448993668,-5752.9235609774,-20388.5334920327,-8152.7462376695,-2452.8251640528,-4828.2272732211,640.2520391264,-21297.2535938604,10668.3323819350,13012.5851872366,18804.2750302920
561381275511,43250,5,0,7403.7879951269,9837.9600799501,13312.5797524063,1850.0496311410,-5871.9358036026,-2948.2329401988,-5750.9888971826,-20382.7173329513,-8146.8814078008,-2447.7390667808,-4830.1132662287,648.8302653866,-21289.1377400795,10673.8078455053,13018.7420418290,18807.7793269770
561381275511,43250,5,0,7410.9547685556,9847.9740944354,13321.2066494537,1858.7495343694,-5865.0123841104,-2937.3306838455,-5742.8852110985,-20375.5383918258,-8139.0575787437,-2440.5236225648,-4818.1767556454,654.2205550791,-21284.6356922550,10680.4757433643,13023.8403067978,18814.7879203470
561381275511,43250,5,0,7415.6149964388,9854.1552844215,13332.8998061006,1869.2259213340,-5864.6716885993,-2923.8732111593,-5735.1708913128,-20375.7452426717,-8141.8318136193,-2441.2293489805,-4806.5566051795,651.3733140226,-21286.2053251452,10676.3752295349,13017.9024707482,18810.2737048257
561381304217,43251,5,0,7408.8740923989,9850.6509877364,13333.5446940322,1867.4372699010,-5872.7753746834,-2926.8177937905,-5739.0402189025,-20381.5735694499,-8149.6678103733,-2447.9824207172,-4810.4624358597,645.4719810634,-21293.0192353660,10670.6199089377,13013.3274167428,18805.0294274950
561381304217,43251,5,0,7405.3332926234,9842.9366679507,13324.5649337769,1859.9541363549,-5878.3603475252,-2940.4577819290,-5748.3850100625,-20385.7835925507,-8155.0459323690,-2453.7134059208,-4823.7738961839,642.5152307355,-21294.5645328626,10669.6099901014,13013.0475597159,18807.2439483168
561381304217,43251,5,0,7404.1530260316,9841.9754199017,13314.0763791155,1853.3105738896,-5875.7929634955,-2949.3645360034,-5753.2155857012,-20383.0458607655,-8151.4077910189,-2454.1879460969,-4832.8631657107,647.0172785599,-21289.9773111603,10674.7934289480,13018.9488926750,18813.5346475742
561381304217,43251,5,0,7407.9615151372,9845.4797165867,13315.5608381279,1856.1821503398,-5871.4247603361,-2943.7308923744,-5749.4435996861,-20380.8921784279,-8148.1711836640,-2450.7444878960,-4826.7914849960,650.1322089466,-21288.4563490574,10676.9106081951,13020.0926561764,18812.2570394078
561381304217,43251,5,0,7411.1372840080,9850.4563045873,13327.2418270779,1863.9086378224,-5872.9213870453,-2932.9746483829,-5743.3840866683,-20381.4032216944,-8148.6578915370,-2448.9923395535,-4815.5120300412,645.6544965158,-21292.2283350726,10671.9096848009,13015.4324282932,18810.6752388208
561381304217,43251,5,0,7410.1151974749,9848.3391253401,13330.8921361248,1865.8554693140,-5872.5198530501,-2927.3045016634,-5743.3840866683,-20384.8831829858,-8150.4830460604,-2450.9878418325,-4813.3705154003,641.8460074102,-21294.6983775276,10668.1376987858,13009.9326293292,18804.3723718665
561381304217,43251,5,0,7407.9006766531,9843.6545620633,13327.5946902858,1861.5237692451,-5870.7920401013,-2933.2423377130,-5745.9271353043,-20384.1044503891,-8148.4632083878,-2448.9801718567,-4820.9509905210,644.2552113811,-21291.1332423585,10671.5568215931,13010.0543062975,18806.1731909963
561381304217,43251,5,0,7408.6064030688,9844.4454623567,13320.7077738840,1858.4088388584,-5863.0655526187,-2938.2675965009,-5746.9005510501,-20378.3369620950,-8140.2621807291,-2442.5434602374,-4825.8059015534,651.4341525067,-21283.5771026314,10678.7357627186,13017.7442906896,18812.5490641316
561381339212,43252,5,0,7412.5974076267,9848.2904545528,13320.4035814634,1860.3313349564,-5857.1763873564,-2932.8164683242,-5739.6851068341,-20373.2143617326,-8134.7502140683,-2438.2360955621,-4818.7364696993,655.5833371233,-21279.9146258877,10682.9701212130,13020.5793640493,18814.8000880438
561381339212,43252,5,0,7415.4933194706,9853.9849366659,13326.9863054446,1867.5832822629,-5858.2106415864,-2921.3301625233,-5733.8811154495,-20373.6037280309,-8137.4514427630,-2438.7593065254,-4807.1284869302,652.9794500032,-21283.1755686363,10679.0521228360,13015.1039004790,18809.2394505957
561381339212,43252,5,0,7416.7465922434,9856.1872897909,13335.6010347953,1873.1804228015,-5862.0556337824,-2917.1566425131,-5733.7716061781,-20378.0936081586,-8142.5983785191,-2440.6452995330,-4804.5124321132,647.2119617091,-21289.9043049794,10670.5712381504,13008.6063503755,18804.3845395634
561381339212,43252,5,0,7415.7853441943,9853.1697009788,13331.4396824818,1869.3719336959,-5864.3918315724,-2925.5523533209,-5738.7603618755,-20380.1377812248,-8142.8052293651,-2444.8431549369,-4814.6846266572,646.2142105696,-21289.8191311016,10669.6221577982,13009.0808905516,18803.4354592112
561381339212,43252,5,0,7416.2720520673,9851.1498633062,13322.6181022852,1863.8599670351,-5860.3156531367,-2934.7024613317,-5742.4593417097,-20377.4000494397,-8139.0454110468,-2442.4096155723,-4823.2628529174,651.5923325654,-21284.4045060154,10674.1607087132,13014.6293603029,18808.9352581751
561381339212,43252,5,0,7419.8006841459,9855.5545695561,13323.4455056691,1864.9793951428,-5855.3512328330,-2932.5731143877,-5739.7702807118,-20374.2972867498,-8134.5311955255,-2438.8931511905,-4820.9388228242,653.7825179935,-21280.9975509050,10672.8222620626,13012.8772119604,18807.5724761310
561381339212,43252,5,0,7420.9079445568,9858.0124443143,13329.0669816013,1871.9149823319,-5859.3665727845,-2924.9683038734,-5735.9617916063,-20376.4631367843,-8138.2180076629,-2441.8255661248,-4811.8008825102,649.0857870198,-21289.4175971065,10668.7339159301,13007.6816054170,18804.0073409619
561381339212,43252,5,0,7420.1292119601,9857.1120347494,13334.1287434797,1873.7523045521,-5862.2381492348,-2920.9529639218,-5734.9397050731,-20381.6952464182,-8145.9079920550,-2445.8409060764,-4809.0266476345,643.8415096892,-21295.8786441194,10661.9200057093,13000.1984718709,18795.1614253716
561381384026,43253,5,0,7415.6271641356,9852.8290054678,13330.3202543741,1870.0168216275,-5865.0123841104,-2926.9759738492,-5739.9406284674,-20383.7637548781,-8148.0860097863,-2447.4470420570,-4817.5683708042,642.3935537672,-21297.4117739191,10660.4598820905,12998.5071620125,18794.0906680512
561381384026,43253,5,0,7412.0863643602,9849.3977149637,13318.0430482798,1861.8888001498,-5862.6153478363,-2936.3937711901,-5743.2745773969,-20380.0647750439,-8143.9124897760,-2446.0112538319,-4827.8379069228,647.0902847409,-21293.3234277866,10663.1854461789,13001.8654463356,18796.2808534793
561381384026,43253,5,0,7415.4081455928,9852.1597821425,13316.4369122991,1862.4241788100,-5857.9551199531,-2935.7853863490,-5740.6950256704,-20375.9399258209,-8137.7678028804,-2442.7503110834,-4825.3678644678,651.3003078416,-21290.2084974000,10666.0813580227,13006.0146309522,18799.5174608342
561381384026,43253,5,0,7418.8151007033,9857.5744072287,13325.7573680655,1869.8951446593,-5855.4607421044,-2923.2404909245,-5734.6355126526,-20374.5406406863,-8136.5997039854,-2438.8079773127,-4810.9978145199,651.4341525067,-21292.3013412535,10665.7649979053,13004.9317059350,18799.2619392009
561381384026,43253,5,0,7418.9246099747,9857.5744072287,13331.9628934452,1873.8739815204,-5858.6243432783,-2915.7330219848,-5731.1798867548,-20377.9475957967,-8140.2135099418,-2439.8057284522,-4803.2226562500,648.4530667850,-21297.1319168922,10661.8226641347,13002.9483713529,18797.0960891664
561381384026,43253,5,0,7416.5275737005,9854.8123400499,13328.6411122125,1870.4061879258,-5860.3278208336,-2920.0160512664,-5734.1609724765,-20378.3612974887,-8142.1238383430,-2441.1320074059,-4810.3650942851,648.2462159391,-21297.1440845890,10662.0538503743,13003.6906008591,18797.5462939489
561381384026,43253,5,0,7414.3860590597,9848.2539514623,13319.7708612286,1860.5746888929,-5858.1498031022,-2931.2468354340,-5740.0258023451,-20375.4288825543,-8139.5564543134,-2438.4429464080,-4819.1623390881,651.7505126241,-21291.4861055664,10667.8700094557,13011.4292560384,18804.8712474363
561381384026,43253,5,0,7415.7488411039,9848.8866716971,13315.8650305485,1858.6156897044,-5853.2705566762,-2931.9403941529,-5737.3732444377,-20371.1580209695,-8133.9349783812,-2434.2572587010,-4818.4687803691,658.7469382973,-21286.2053251452,10673.8930193831,13015.7001176233,18809.7139907718
561381395497,43254,5,0,7420.0075349919,9855.8100911894,13321.9975497472,1866.3665125806,-5852.3214763241,-2922.7416153548,-5730.3646510677,-20369.8560774094,-8135.1030772762,-2433.7583831312,-4807.2988346857,658.3697396957,-21287.2882501624,10672.3477218865,13014.9457204203,18806.9884266835
561381395497,43254,5,0,7419.9101934173,9854.7758369594,13326.9254669605,1870.0168216275,-5859.2448958163,-2916.1588913736,-5730.4376572486,-20375.9277581241,-8139.8971498244,-2438.0900832002,-4802.3222466851,651.1421277829,-21294.5523651657,10664.9740976118,13007.0123820917,18799.9798333135
561381395497,43254,5,0,7413.2301278615,9848.8745040003,13324.4919275959,1865.6851215585,-5865.2800734405,-2924.7249499369,-5736.7526918998,-20382.3644697434,-8146.0418367200,-2445.4150366876,-4811.5696962705,645.4719810634,-21297.2535938604,10661.0439315380,13002.8875328687,18795.5264562763
561381395497,43254,5,0,7410.4072221986,9844.8469963519,13313.5166650616,1858.7860374599,-5864.0268006677,-2936.5762866425,-5744.9658872552,-20383.1188669464,-8144.5208746172,-2448.5543024679,-4825.7815661597,645.5814903348,-21293.1044092438,10665.0349360960,13006.2214817982,18797.4732877679
561381395497,43254,5,0,7412.6582461109,9847.8767528608,13307.8586860390,1856.9608829365,-5858.4783309165,-2938.0972487453,-5744.7103656220,-20378.5681483347,-8138.0111568169,-2443.5290436800,-4826.3291125168,650.9231092401,-21286.3026667198,10671.0822814170,13011.7577838527,18800.7463982133
561381395497,43254,5,0,7417.2089647226,9855.0191908959,13318.5175884559,1865.5877799839,-5856.6653440898,-2929.4338486074,-5739.4539205944,-20378.7019929997,-8135.6749590269,-2441.1076720123,-4816.1325825791,648.8789361739,-21287.6897841576,10670.4617288790,13010.1516478720,18799.9189948293
561381395497,43254,5,0,7414.8727669326,9856.0777805195,13322.8736239185,1872.3043486302,-5862.9925464378,-2922.2549074819,-5736.9838781394,-20381.5614017531,-8142.5132046414,-2446.4614586144,-4808.9658091504,644.1335344129,-21293.9318126278,10663.1246076948,13005.3332399302,18792.8008921879
561381395497,43254,5,0,7410.6384084382,9851.2958756681,13320.9876309109,1868.3863502532,-5866.7401970592,-2923.3256648023,-5738.8333680565,-20384.9440214699,-8147.6966434880,-2447.2766943015,-4812.9446460115,642.1380321339,-21298.4946989364,10659.9731742176,13004.5788427271,18793.8716495083
561381427929,43255,5,0,7410.5654022573,9847.7794112862,13316.2057260595,1861.4872661546,-5864.5135085406,-2933.2666731066,-5743.1772358223,-20383.1553700369,-8145.0927563678,-2445.3907012939,-4821.8392323891,646.2507136601,-21294.6132036499,10664.8159175531,13009.7257784832,18799.4444546533
561381427929,43255,5,0,7411.8186750301,9846.9398402054,13308.0046984008,1857.6301062617,-5859.1597219386,-2937.9512363835,-5744.1506515681,-20378.5559806378,-8138.9724048659,-2442.7746464770,-4824.5404610838,652.9794500032,-21286.8015422895,10673.1264544832,13016.7708749437,18805.3579553092
561381427929,43255,5,0,7413.5221525853,9850.8456708856,13311.9226967778,1859.7229501153,-5857.7604368039,-2931.3198416150,-5741.5589321448,-20379.3712163250,-8138.8750632913,-2442.2392678168,-4815.7553839776,651.0691216020,-21287.1909085879,10672.5180696421,13016.3815086454,18804.3723718665
561381427929,43255,5,0,7411.5388180031,9851.5513973013,13318.7852777860,1865.1740782920,-5863.7226082472,-2925.4793471399,-5741.0235534846,-20385.0413630445,-8144.8859055219,-2445.8165706827,-4810.9126406421,643.0506093957,-21292.6055336741,10666.4463889274,13008.3629964391,18798.9455790835
561381427929,43255,5,0,7406.3675468534,9846.9155048118,13315.7068504898,1862.3633403259,-5871.8262943312,-2931.5388601578,-5746.9005510501,-20390.7845159449,-8151.6146418649,-2454.9423433000,-4818.2619295232,637.2587857079,-21297.6551278556,10659.2917831955,12999.4927454551,18789.0532415665
561381427929,43255,5,0,7404.2868706967,9841.4765443319,13307.4693197406,1856.8635413619,-5873.4202626150,-2943.1468429269,-5754.1890014470,-20391.1008760623,-8152.8070761536,-2456.5119761901,-4828.9208319401,639.1569464123,-21293.8344710532,10661.8226641347,13005.3089045365,18794.6382144082
561381427929,43255,5,0,7406.2458698852,9842.7419848015,13302.4927317400,1853.2619031023,-5868.2489914653,-2948.6709772845,-5753.9334798138,-20383.9706057241,-8146.6867246516,-2451.5718912800,-4832.6684825615,646.7252538362,-21288.2373305146,10670.2305426394,13013.4369260142,18802.9487513383
561381427929,43255,5,0,7410.8087561938,9848.1444421909,13304.4517309285,1859.5769377534,-5864.3066576947,-2939.1315029753,-5745.9758060915,-20380.0161042566,-8142.8539001524,-2450.0265937835,-4822.3624433525,649.4629856214,-21284.8182077074,10674.6230811924,13016.5518564009,18804.7008996808
561381479309,43256,5,0,7411.5266503063,9851.5148942109,13313.0542925824,1866.9140589376,-5866.7888678465,-2928.9471407345,-5742.2768262574,-20381.7317495086,-8146.7597308326,-2450.6106432310,-4811.4723546960,645.6909996062,-21289.6609510429,10671.3499707471,13012.4026717843,18800.0041687071
561381479309,43256,5,0,7409.7988373575,9849.8235843525,13317.6050111941,1868.2403378913,-5870.6825308299,-2929.7867118153,-5741.8874599590,-20382.7051652545,-8150.3613690922,-2453.8594182827,-4812.3240934736,643.0992801830,-21293.0679061533,10668.6852451428,13009.9326293292,18797.4976231616
561381479309,43256,5,0,7406.0633544328,9846.0881014278,13307.1772950169,1861.4020922768,-5872.1183190550,-2938.3284349850,-5746.0731476661,-20382.9241837973,-8150.7385676937,-2455.1370264491,-4823.6643869125,644.5107330144,-21292.5081920995,10671.1187845074,13013.8627954030,18798.9820821740
561381479309,43256,5,0,7407.2801241151,9845.0173441074,13299.7184968644,1857.3380815380,-5866.6185200910,-2944.6556373329,-5747.0830665024,-20378.4708067601,-8144.8007316441,-2452.0829345466,-4829.0425089083,649.2683024722,-21288.1764920305,10674.5014042242,13017.9998123228,18803.3381176366
561381479309,43256,5,0,7408.8497570053,9847.0493494769,13301.7748376275,1858.8468759440,-5865.4382534992,-2940.4212788385,-5743.1772358223,-20377.0958570191,-8143.8638189887,-2449.5155505169,-4823.9929147268,649.1587932008,-21289.8678018889,10672.2382126151,13015.6636145328,18802.2795280130
561381479309,43256,5,0,7409.1417817290,9849.9330936239,13308.4062323960,1863.5436069177,-5868.2976622526,-2930.5167736246,-5739.4417528976,-20381.5979048436,-8148.9742516544,-2451.4502143118,-4813.2975092194,644.9852731905,-21294.1751665642,10663.4774709026,13006.5986803997,18792.0221595913
561381479309,43256,5,0,7407.1341117532,9848.0471006163,13312.0443737460,1865.4417676221,-5872.7023685025,-2929.8232149057,-5740.7680318513,-20384.5668228684,-8153.8291626867,-2454.5773123953,-4814.2830926621,640.1790329454,-21300.2833503693,10657.3571194007,13003.2403960766,18790.7567191217
561381479309,43256,5,0,7404.7979139632,9844.5184685377,13307.4936551343,1859.4917638756,-5874.8925539306,-2938.4866150437,-5747.6062774658,-20386.8300144774,-8155.3744601832,-2455.5263927475,-4825.6233861010,638.6337354489,-21303.0454175482,10657.3327840070,13002.0357940911,18790.5498682757
561381499119,43257,5,0,7406.5987330930,9843.7519036378,13298.2097024584,1854.4300019973,-5871.2057417933,-2947.6002199641,-5750.4656862192,-20385.0170276508,-8151.1766047793,-2455.1248587523,-4833.7635752756,642.9654355179,-21298.0809972444,10661.9200057093,13005.1872275683,18793.7621402369
561381499119,43257,5,0,7412.0133581792,9850.7361616142,13302.2615455004,1859.1875714551,-5865.9371290689,-2942.2586010588,-5746.0609799693,-20380.3202966772,-8146.1391782946,-2451.0486803166,-4825.7328953724,647.3579740710,-21295.2337561878,10664.9740976118,13008.2656548645,18795.6968040318
561381499119,43257,5,0,7414.2887174851,9852.7073284995,13312.2025538047,1865.6972892553,-5866.7401970592,-2929.6772025439,-5740.3421624625,-20381.9507680514,-8148.9742516544,-2450.5376370500,-4813.5773662463,642.8437585497,-21299.7114686187,10660.0461803985,13003.2403960766,18791.9613211071
561381499119,43257,5,0,7410.9791039493,9851.0160186411,13314.5630869884,1866.2813387028,-5870.9502201600,-2927.2923339666,-5741.3277459052,-20385.6740832793,-8152.1986913124,-2453.9445921605,-4812.6526212878,638.2687045442,-21304.2500195336,10655.8239896010,13000.2836457486,18788.0433227302
561381499119,43257,5,0,7406.1971990979,9844.1899407235,13307.6274997993,1858.9807206091,-5873.3107533436,-2936.2477588282,-5748.0321468546,-20388.9715291183,-8153.2816163297,-2458.9576832515,-4823.7982315776,637.8915059427,-21303.0697529418,10656.4323744421,13002.0722971816,18787.0090685002
561381499119,43257,5,0,7406.9150932104,9841.9997552953,13300.7770864880,1851.2420654297,-5869.4414257539,-2946.5781334309,-5752.9965671584,-20387.1463745948,-8149.0229224417,-2456.2929576473,-4832.8144949234,642.6612430973,-21296.5843705352,10662.4918874600,13007.6572700233,18791.7788056548
561381499119,43257,5,0,7411.4293087317,9846.2827845770,13300.9352665467,1854.0041326085,-5864.0633037582,-2941.1026698606,-5748.2998361847,-20382.3644697434,-8143.6326327491,-2451.9125867910,-4827.7162299546,647.2606324964,-21290.6830375760,10666.2395380814,13010.2124863561,18793.4092770291
561381499119,43257,5,0,7413.2787986488,9851.4905588172,13308.7834309975,1861.9496386339,-5864.9028748390,-2931.9647295466,-5742.7270310398,-20382.6929975576,-8146.2000167787,-2451.9247544879,-4816.0960794887,644.0970313224,-21294.8200544958,10664.1223588342,13008.3264933486,18791.3894393565
561381557926,43258,5,0,7408.7889185212,9850.1764475604,13312.2877276825,1863.3610914653,-5871.5099342138,-2928.5699421330,-5743.4814282428,-20386.9273560520,-8150.9819216301,-2454.5651446984,-4812.4579381386,640.0573559772,-21301.0134121787,10659.8636649462,13001.6950985801,18787.9703165492
561381557926,43258,5,0,7408.3022106482,9848.6433177607,13310.8154363669,1861.5967754260,-5872.2278283264,-2934.7876352095,-5746.0001414852,-20384.6763321398,-8152.2473620997,-2455.6967405030,-4819.9289039879,641.5053118991,-21298.3121834840,10662.1511919489,13005.1020536905,18789.6129556203
561381557926,43258,5,0,7410.4193898954,9848.8014978194,13303.4661474859,1858.1533172251,-5865.9249613721,-2943.3050229856,-5746.2313277248,-20376.7551615080,-8145.7376442995,-2451.3893758277,-4825.8059015534,649.5968302864,-21289.2959201382,10667.4684754605,13010.7478650164,18796.2930211761
561381557926,43258,5,0,7414.3738913629,9852.4639745631,13304.1353708111,1859.7472855089,-5858.6000078847,-2939.8615647847,-5743.2745773969,-20372.7398215565,-8138.6438770517,-2445.2568566289,-4821.1578413670,653.8068533871,-21286.5338529594,10672.8587651531,13016.9047196088,18797.1447599537
561381557926,43258,5,0,7418.2432189526,9857.5135687446,13315.0011240740,1868.7635488547,-5860.1088022907,-2930.4924382310,-5738.8698711469,-20374.7839946227,-8140.9070686608,-2445.5123782622,-4811.9833979625,648.9032715675,-21290.4031805491,10667.0547737686,13011.0642251338,18794.6138790145
561381557926,43258,5,0,7416.7587599402,9857.5379041382,13318.9312901478,1870.7955542242,-5863.1872295869,-2924.0800620053,-5738.5170079391,-20382.9485191909,-8145.4821226662,-2449.7467367566,-4810.3772619819,642.9289324274,-21294.6375390435,10660.1800250636,13001.5612539150,18784.9040569498
561381557926,43258,5,0,7411.4293087317,9851.4540557268,13312.9691187046,1863.9573086097,-5866.7158616656,-2931.0399845880,-5744.8320425902,-20387.4383993186,-8149.3271148622,-2453.4822196812,-4819.5152022959,637.0762702556,-21296.0611595718,10658.2088581783,13001.0137075580,18787.0334038939
561381557926,43258,5,0,7410.1760359590,9848.6311500638,13304.8167618332,1857.9951371664,-5866.1196445213,-2942.1855948778,-5752.0353191094,-20386.3676419982,-8146.8570724072,-2452.1559407275,-4830.0280923509,640.7874177866,-21292.3135089503,10665.3269608197,13006.4648357347,18790.9514022708
561381564728,43259,5,0,7413.1814570742,9850.1399444699,13300.4607263706,1856.9852183301,-5861.5080874254,-2942.8669858999,-5750.0519845272,-20381.5979048436,-8142.2698507049,-2450.5376370500,-4828.9451673337,647.7230049757,-21287.2395793752,10670.7537536027,13013.3030813492,18798.6778897534
561381564728,43259,5,0,7416.2598843704,9854.2769613897,13308.2602200341,1864.2615010302,-5860.6563486478,-2932.0620711212,-5743.3110804873,-20381.9872711419,-8142.2090122208,-2449.0653457345,-4816.0960794887,644.9487701000,-21289.8191311016,10669.4031392554,13011.7212807622,18796.8649029268
561381564728,43259,5,0,7412.7312522918,9854.1796198151,13314.2832299615,1866.3786802774,-5864.1484776360,-2925.3089993844,-5742.2768262574,-20386.7813436902,-8146.5163768961,-2451.4380466149,-4811.2655038500,639.7166604662,-21296.6695444129,10662.9420922424,13005.0655506000,18788.3596828476
561381564728,43259,5,0,7408.8010862180,9848.7284916384,13310.8276040638,1861.6332785165,-5867.5432650496,-2933.4248531653,-5747.1804080770,-20390.6993420671,-8151.4686295031,-2457.2298703027,-4821.5472076654,635.4336311845,-21299.1395868680,10659.1579385305,13002.5590050545,18782.5921945535
561381564728,43259,5,0,7408.0223536213,9845.3580396185,13302.0790300481,1855.6832747701,-5865.7059428293,-2943.4753707411,-5751.6459528110,-20388.5091566390,-8148.3902022069,-2455.7454112903,-4832.5711409869,638.5363938744,-21293.7492971754,10663.6356509613,13007.0853882727,18787.1915839526
561381564728,43259,5,0,7411.5753210936,9848.7284916384,13301.0326081213,1855.9387964033,-5858.2471446768,-2942.6966381444,-5748.2024946101,-20383.9219349368,-8140.7488886021,-2450.5133016564,-4831.1110173682,644.9244347064,-21286.0958158738,10669.8411763410,13011.6361068844,18791.9734888040
561381564728,43259,5,0,7418.4257344049,9855.5910726466,13307.1894627137,1863.8843024287,-5855.1078788965,-2930.8818045293,-5740.5611810053,-20381.0990292738,-8136.7213809537,-2448.2866131378,-4818.7243020024,646.3480552347,-21286.0471450865,10670.2792134266,13012.1349824542,18790.1361665837
561381564728,43259,5,0,7419.6911748745,9859.3022201776,13316.9966263530,1872.1948393588,-5856.5558348184,-2921.6951934280,-5736.9108719585,-20383.3135500956,-8139.9579883086,-2447.9337499299,-4809.3186723583,640.8482562707,-21290.9750622998,10665.5946501498,13006.2458171919,18784.7580445880
561381584640,43260,5,0,7417.0264492703,9856.1751220941,13317.5685081037,1868.8000519452,-5860.7536902224,-2925.9782227097,-5742.5810186779,-20386.4284804823,-8144.3991976489,-2449.7710721502,-4814.5386142953,638.3660461188,-21292.4230182217,10661.1047700221,13001.1597199199,18778.8567116288
561381584640,43260,5,0,7415.2621332310,9852.7316638932,13307.2746365915,1861.3412537927,-5859.5004174496,-2935.8705602267,-5745.9514706979,-20385.6862509761,-8142.7322231842,-2450.1239353581,-4825.4287029519,641.8460074102,-21289.3202555319,10667.5658170351,13008.2534871677,18786.7900499574
561381584640,43260,5,0,7418.4257344049,9855.9804389449,13303.3323028208,1861.0005582817,-5853.6355875809,-2937.8903978993,-5744.2358254459,-20379.2617070536,-8135.0057357016,-2442.6773049024,-4824.8203181107,650.4729044577,-21282.0074697413,10674.7812612511,13015.2985836281,18794.9667422224
561381584640,43260,5,0,7420.8836091632,9859.6794187791,13310.6694240051,1865.7702954363,-5851.8956069353,-2929.8110472089,-5739.5877652595,-20377.2540370778,-8134.5676986160,-2439.0148281587,-4813.6990432146,650.1808797339,-21284.9642200693,10673.2116283610,13011.9159639114,18794.7720590732
561381584640,43260,5,0,7417.7565110797,9859.4725679331,13315.1106333454,1868.9338966102,-5857.4440766865,-2921.4640071884,-5737.9816292789,-20381.5492340563,-8141.7101366511,-2443.7237268292,-4808.5399397616,643.4156403003,-21291.8754718647,10666.4585566242,13005.1993952651,18788.1528320016
561381584640,43260,5,0,7411.4658118222,9853.6442411549,13312.7866032522,1865.5269414998,-5863.0898880124,-2925.1386516289,-5743.8586268444,-20387.5235731964,-8147.7574819721,-2448.1649361696,-4814.5994527795,637.6116489158,-21296.0611595718,10660.0705157922,12999.9551179344,18782.0568158933
561381584640,43260,5,0,7407.1462794501,9847.3778772911,13303.6121598477,1857.2042368729,-5864.3674961788,-2935.9435664077,-5749.9059721654,-20386.8543498711,-8148.4753760846,-2448.0189238077,-4825.0515043504,637.9280090332,-21291.7294595028,10662.0781857680,13001.3909061595,18782.1054866806
561381584640,43260,5,0,7409.1174463354,9847.9132559513,13296.5427279936,1854.0528033958,-5859.8046098702,-2940.2144279925,-5748.5310224244,-20381.2937124230,-8141.6979689542,-2445.4272043844,-4827.0348389325,645.3624717920,-21285.6212756977,10672.1652064342,13012.1836532415,18792.0099918944
561381616683,43261,5,0,7413.2787986488,9852.9385147392,13301.7139991434,1858.8103728536,-5857.1155488723,-2932.2080834830,-5742.3376647415,-20378.5924837283,-8139.5929574039,-2442.0202492740,-4817.0329921440,648.0028620026,-21284.8425431010,10673.1994606641,13012.1836532415,18793.0199107307
561381616683,43261,5,0,7411.8186750301,9852.1962852330,13311.0831256970,1863.2880852844,-5862.7491925013,-2925.3698378685,-5740.4395040371,-20383.1066992496,-8143.6082973554,-2444.0522546434,-4808.2844181283,640.9577655421,-21290.5735283046,10666.2760411719,13004.1286379447,18783.7846288421
561381616683,43261,5,0,7409.6528249956,9849.8235843525,13311.8375229001,1862.1443217830,-5866.1318122181,-2927.7912095363,-5744.6981979251,-20389.3365600230,-8148.8039038988,-2449.9900906930,-4813.1879999480,635.6161466368,-21295.2337561878,10663.1002723011,13002.1209679689,18780.3776737317
561381616683,43261,5,0,7407.5721488389,9845.1876918629,13303.1862904589,1854.0163003053,-5867.2634080226,-2939.3383538213,-5750.3196738573,-20389.0201999056,-8148.1711836640,-2451.0000095293,-4824.8324858075,638.0861890919,-21292.8245522169,10664.8280852500,13005.9659601649,18781.7769588663
561381616683,43261,5,0,7408.4482230101,9842.5107985619,13296.5305602968,1848.7841906715,-5863.6496020662,-2944.8381527852,-5750.2710030700,-20383.5082332448,-8142.2211799176,-2447.4592097538,-4828.1907701307,645.1069501587,-21287.0205608323,10672.2138772215,13014.0088077649,18788.0798258206
561381616683,43261,5,0,7413.2422955584,9849.6897396874,13301.9938561703,1855.3790823495,-5858.6000078847,-2937.4036900264,-5743.4814282428,-20379.0791916012,-8139.8971498244,-2446.7899864286,-4818.8581466675,648.7694269024,-21283.2850779077,10674.8420997352,13016.2598316772,18788.6517075713
561381616683,43261,5,0,7413.4248110107,9851.2593725776,13308.3940646992,1861.5237692451,-5862.9803787410,-2929.7623764216,-5740.1718147070,-20382.3157989561,-8144.1801791061,-2451.9004190942,-4810.3407588914,643.7198327209,-21286.9475546514,10667.7848355779,13008.3264933486,18779.6597796192
561381616683,43261,5,0,7409.0079370640,9846.7938278436,13312.2633922889,1859.4795961788,-5869.2589103016,-2931.7700463974,-5742.2281554701,-20386.4649835728,-8150.4830460604,-2458.2397891390,-4812.2510872926,638.8162509013,-21293.9439803246,10663.0516015138,13004.8343643604,18776.8368739562
561381647780,43262,5,0,7408.9105954894,9844.5428039313,13305.0357803760,1855.9266287065,-5870.4878476807,-2942.3437749365,-5747.1074018961,-20386.5501574505,-8152.4055421584,-2463.1312032618,-4823.2750206142,640.1668652486,-21294.0169865055,10663.6234832645,13005.7712770158,18778.0293082449
561381647780,43262,5,0,7410.3463837145,9842.7176494079,13296.5183926000,1852.0329657232,-5865.0732225945,-2947.9165800814,-5746.8032094755,-20381.0746938802,-8146.3095260501,-2460.6489931099,-4828.7869872750,647.8811850344,-21286.9597223482,10669.6464931918,13012.5000133589,18783.2127470914
561381647780,43262,5,0,7415.3229717151,9848.0471006163,13298.9640996614,1854.3934989068,-5859.9992930193,-2941.6258808240,-5742.4593417097,-20377.6434033761,-8140.5542054529,-2454.5408093048,-4820.5129534354,649.9131904038,-21284.8182077074,10671.6784985613,13013.5342675888,18783.7724611453
561381647780,43262,5,0,7415.6880026198,9850.8943416729,13308.0898722786,1862.9108866829,-5861.5932613031,-2932.0134003339,-5737.5679275869,-20382.1941219879,-8141.9656582843,-2454.3461261556,-4811.7035409356,644.8635962223,-21289.1620754732,10666.7140782575,13008.8740397056,18777.9197989735
561381647780,43262,5,0,7412.6947492013,9847.0371817800,13307.3719781660,1861.9983094212,-5866.5941846974,-2931.2955062213,-5740.7923672450,-20388.6064982136,-8148.2320221482,-2457.9477644152,-4813.3826830972,637.5264750380,-21294.6375390435,10660.6180621492,13003.8244455241,18772.9067078824
561381647780,43262,5,0,7408.1561982864,9841.5738859065,13302.9307688257,1855.2574053813,-5869.2832456952,-2939.7642232101,-5748.9690595100,-20391.2833915146,-8148.8769100798,-2457.0595225471,-4823.7008900030,636.7842455318,-21293.7249617818,10659.3161185892,13002.1818064530,18771.0572179653
561381647780,43262,5,0,7408.3508814355,9840.2841100433,13296.1046909080,1850.9865437964,-5863.4305835234,-2946.1765994358,-5749.4922704734,-20385.9661080030,-8141.9413228907,-2450.7931586833,-4829.0911796956,643.4886464813,-21286.6190268372,10668.6852451428,13012.9867212318,18781.9959774092
561381647780,43262,5,0,7414.7510899644,9844.7861578678,13296.6644049618,1855.5494301050,-5857.2007227501,-2938.3892734691,-5743.6152729079,-20379.4928932932,-8134.6407047969,-2443.4073667118,-4820.4156118608,651.2638047511,-21280.4743399416,10675.0854536717,13016.5883594914,18786.5953668082
561381684289,43263,5,0,7419.3504793635,9851.3688818490,13310.0245360734,1866.1718294314,-5856.2881454883,-2924.4694283036,-5737.1542258949,-20378.4464713664,-8134.6407047969,-2439.3190205793,-4806.5322697858,648.5017375723,-21281.8979604699,10673.8565162926,13013.3760875301,18783.0302316391
561381684289,43263,5,0,7417.0386169671,9850.0791059858,13316.0110429103,1868.5810334024,-5861.1065534302,-2919.4320018189,-5737.3124059536,-20381.8047556896,-8139.6051251007,-2440.9373242567,-4803.5755194579,643.6468265400,-21287.1909085879,10669.5004808300,13008.7401950406,18777.1897371641
561381684289,43263,5,0,7413.3153017393,9843.5815558823,13310.9979518193,1862.9108866829,-5863.4670866139,-2926.1242350716,-5740.7680318513,-20381.5857371468,-8140.7367209052,-2441.0711689218,-4811.1438268817,644.1822052002,-21285.8402942405,10670.4008903949,13011.7091130654,18777.9684697608
561381684289,43263,5,0,7413.5464879789,9841.7807367525,13305.4738174617,1857.6787770490,-5856.7140148771,-2931.1981646467,-5740.6828579736,-20375.0273485592,-8133.6307859606,-2435.4983637769,-4817.0086567504,651.9573634701,-21278.6370177213,10678.3463964203,13019.3869297606,18785.5489448815
561381684289,43263,5,0,7416.3328905514,9843.7884067283,13306.0700346060,1857.4962615967,-5852.8081841970,-2928.5212713457,-5736.5580087506,-20369.9534189840,-8129.6519490995,-2432.6267873267,-4813.4921923686,655.6320079106,-21276.4589999900,10679.3198121661,13022.1003261522,18787.4471055858
561381684289,43263,5,0,7418.2918897399,9846.4653000294,13312.3242307730,1864.0546501842,-5854.0857923634,-2918.3977475890,-5732.4331595276,-20371.4865487837,-8132.0246499800,-2435.0481589944,-4803.5390163674,653.6365056316,-21279.3914149244,10674.3675595592,13015.2134097504,18778.5646869051
561381684289,43263,5,0,7418.2310512558,9847.3413742006,13318.6757685146,1870.4913618036,-5857.9672876499,-2913.6645135249,-5731.2772283294,-20374.5528083831,-8136.2346730807,-2437.7372199923,-4800.2415705284,647.8081788534,-21286.0593127833,10670.3765550012,13011.9402993050,18776.8977124403
561381684289,43263,5,0,7413.7168357344,9841.5617182097,13314.7942732280,1866.9992328154,-5863.1750618901,-2923.2526586213,-5735.9496239094,-20376.9255092636,-8138.7533863231,-2441.3023551614,-4809.8418833217,646.7860923203,-21287.6532810671,10668.8069221111,13010.6140203513,18776.5205138388
561381708013,43264,5,0,7410.2247067463,9839.1403465419,13301.8721792021,1859.9906394454,-5860.0479638066,-2934.1305795811,-5739.5877652595,-20372.8249954342,-8136.3806854426,-2441.3266905551,-4818.9554882421,653.5391640570,-21282.7496992475,10674.7082550702,13016.5031856136,18783.2979209692
561381708013,43264,5,0,7411.1007809175,9841.1723519114,13298.1488639742,1860.0636456263,-5855.2903943489,-2933.2301700162,-5734.5990095621,-20367.4103703480,-8129.7249552805,-2437.5547045400,-4814.1857510875,659.5865093780,-21278.1016390611,10679.1372967137,13022.2585062109,18787.9216457619
561381708013,43264,5,0,7412.5730722331,9844.2142761171,13303.8433460874,1865.9406431918,-5854.9131957473,-2923.4230063769,-5728.4299872729,-20367.3982026512,-8130.2968370311,-2436.0459101339,-4803.1496500691,658.2358950307,-21280.3891660638,10676.9592789824,13019.3869297606,18786.7900499574
561381708013,43264,5,0,7410.5775699541,9843.2408603713,13309.3431450514,1867.5832822629,-5861.1552242175,-2919.8457035109,-5728.9897013267,-20374.1026036006,-8135.9669837506,-2443.3221928340,-4800.3875828903,652.4197359493,-21286.2053251452,10669.9506856124,13012.9623858381,18779.9274689493
561381708013,43264,5,0,7406.6474038803,9838.3737816421,13305.0844511633,1862.0104771180,-5865.3652473183,-2927.5113525094,-5737.2880705600,-20379.6632410487,-8141.7223043479,-2448.8706625853,-4810.1460757423,647.6621664916,-21289.5149386810,10666.0570226291,13007.5355930551,18775.5349303962
561381708013,43264,5,0,7406.5135592153,9832.4359455925,13296.5183926000,1854.1014741831,-5863.2237326774,-2939.2896830340,-5742.2524908637,-20377.4487202270,-8138.9602371691,-2449.0410103408,-4821.9244062669,650.0957058561,-21285.0737293407,10669.0867791380,13010.5045110799,18779.8057919810
561381708013,43264,5,0,7411.7456688491,9838.6171355786,13294.8635858321,1857.1190629952,-5858.0037907404,-2939.3626892149,-5740.2813239784,-20372.8980016152,-8133.7767983225,-2446.3762847366,-4822.1555925065,655.5468340328,-21283.4554256632,10673.2359637546,13016.2354962835,18786.1573297226
561381708013,43264,5,0,7417.6470018083,9847.7185728021,13306.1065376965,1866.7558788789,-5856.8843626327,-2928.2170789251,-5732.6643457672,-20371.2310271504,-8132.0976561609,-2442.8719880516,-4810.1460757423,654.0502073236,-21283.7961211743,10672.0678648596,13014.1548201268,18784.8067153753
561381739221,43265,5,0,7421.5406647916,9850.1886152572,13316.4977507832,1874.0808323663,-5858.1254677086,-2919.6510203618,-5729.8536078011,-20375.7574103686,-8137.0742441615,-2443.3343605309,-4802.9793023135,648.6112468437,-21290.5491929110,10666.2395380814,13007.9614624439,18778.8688793257
561381739221,43265,5,0,7418.8881068842,9846.6721508753,13314.7942732280,1872.9614042586,-5863.4305835234,-2923.8610434625,-5734.2704817479,-20379.5780671710,-8143.9489928665,-2448.7611533139,-4812.7621305592,643.7806712050,-21294.5767005594,10659.8271618557,13002.9483713529,18772.8702047920
561381739221,43265,5,0,7415.7001703166,9841.7077305716,13304.7072525618,1865.3444260475,-5865.1340610786,-2936.3329327060,-5740.8653734259,-20379.8579241979,-8143.4622849936,-2450.5741401405,-4825.4652060423,644.9852731905,-21292.8123845201,10662.3215397044,13006.2944879792,18775.9486320882
561381739221,43265,5,0,7415.1404562627,9840.3571162242,13299.0979443264,1860.0758133231,-5861.2647334889,-2937.0386591217,-5739.8797899833,-20375.9155904273,-8138.4370262057,-2444.9039934210,-4823.9077408490,650.3147243990,-21287.4951010084,10669.0381083507,13011.7577838527,18781.7526234727
561381739221,43265,5,0,7417.4401509623,9842.9001648602,13303.8555137842,1864.6021965413,-5858.3688216451,-2927.7182033554,-5735.1222205255,-20374.5406406863,-8136.4780270172,-2443.8454037974,-4813.8572232733,650.4850721545,-21287.8966350036,10667.6266555192,13007.1218913631,18775.9486320882
561381739221,43265,5,0,7414.9822762040,9842.7298171047,13306.4472332075,1866.6828726980,-5864.0633037582,-2918.3734121953,-5734.1244693860,-20380.3446320708,-8141.1139195067,-2445.5732167463,-4806.3740897271,644.9487701000,-21292.9948999724,10664.5603959199,13004.3598241843,18771.8602859556
561381739221,43265,5,0,7410.9912716461,9836.7676456615,13306.1065376965,1862.0104771180,-5869.7942889618,-2924.0192235212,-5739.7459453182,-20387.9859456756,-8145.9809982359,-2448.7854887075,-4811.6305347547,639.0596048377,-21296.3775196892,10660.6789006333,13001.2083907072,18767.9301198818
561381739221,43265,5,0,7406.0998575233,9830.3431017390,13293.5494745752,1852.1181396009,-5871.9966420868,-2937.2941807550,-5748.9447241163,-20389.4704046880,-8147.1369294341,-2451.5718912800,-4826.0735908835,639.6436542852,-21292.6907075518,10661.9200057093,13002.8023589910,18769.3050696228
