timestamp,sequence,battery,flags,EEG-ch1,EEG-ch2,EEG-ch3,EEG-ch4,EEG-ch5,EEG-ch6,EEG-ch7,EEG-ch8,EEG-ch9,EEG-ch10,EEG-ch11,EEG-ch12,EEG-ch13,EEG-ch14,EEG-ch15,EEG-ch16
560505557467,24757,-2,0,1400.1612088096,4530.2282103305,9290.1582012844,-2313.5780416110,-9750.4378367027,-7320.3297626184,-10138.7090423228,-22355.2104972216,-13095.6418857500,-5462.1399423028,-7274.4818809895,-3361.1924026727,-24899.3785613242,4307.0239798104,7258.6395397261,10011.5566105230
560505557467,24757,-2,0,1403.0449529566,4531.7126693429,9303.2141399755,-2308.1634165248,-9750.8758737883,-7302.1147204744,-10137.2732540977,-22357.1694964101,-13095.5323764786,-5455.5693860184,-7269.8216531063,-3365.6336120130,-24901.9094422634,4302.8504598002,7254.5998643808,10007.6994506302
560505557467,24757,-2,0,1402.8624375043,4531.7005016460,9307.8378647682,-2305.6568709793,-9749.7686133774,-7300.0948828018,-10138.0033159070,-22356.9869809577,-13096.5179599213,-5453.0263373824,-7272.4863787106,-3364.7697055386,-24902.0919577157,4301.8770440543,7254.9283921951,10008.8067110410
560505557467,24757,-2,0,1405.1621322038,4532.6739173919,9302.6909290121,-2308.6987951850,-9745.9357888782,-7313.0048091310,-10137.8816389388,-22352.1320699254,-13090.4341115098,-5450.9213258320,-7278.2295316110,-3359.5497636016,-24895.8499292455,4306.5494396343,7259.2722599608,10016.8495586410
560505557467,24757,-2,0,1406.7317650940,4534.1705441011,9296.6679190847,-2307.8713918011,-9738.2579721829,-7318.3342603394,-10133.7567897158,-22347.0094695629,-13082.7806302082,-5446.3219364330,-7272.3403663487,-3352.7115179871,-24890.3257948879,4312.4629402903,7264.5530403820,10025.3791141139
560505557467,24757,-2,0,1412.4262472071,4541.9457023710,9307.0834675652,-2300.2422458931,-9731.8212605636,-7302.6500991346,-10125.7747806000,-22343.4443343938,-13078.5949425011,-5437.2691699967,-7258.6273720292,-3350.1684693511,-24888.2694541248,4313.8257223344,7266.3051887245,10025.3061079330
560505557467,24757,-2,0,1413.4970045275,4543.8438630753,9316.3430848474,-2294.4260868117,-9730.8600125146,-7284.1795353574,-10125.3610789080,-22345.9995507266,-13080.9798110784,-5434.6774505734,-7254.3808458380,-3355.8386160706,-24891.7007446289,4309.3723452973,7261.1582529684,10018.3218499566
560505557467,24757,-2,0,1408.0093732604,4535.9105247468,9317.0001404759,-2301.2156616389,-9735.8852713025,-7284.7879201986,-10131.2137410798,-22351.1708218764,-13086.3335976805,-5436.4174312191,-7260.8662282446,-3360.9733841299,-24896.7138357200,4303.8968817269,7257.5566147088,10012.6882063276
560505604950,24758,-2,0,1403.8358532501,4533.1849606584,9309.3709945679,-2307.4820255027,-9735.2160479772,-7299.6933488067,-10134.9492240045,-22351.8278775048,-13084.3015923110,-5437.9505610188,-7269.2132682652,-3358.8197017922,-24895.8499292455,4304.3105834189,7259.5156138973,10017.7012974186
560505604950,24758,-2,0,1403.2274684090,4531.6518308588,9301.5836686012,-2311.5460362416,-9729.7284167100,-7308.9286306953,-10132.0654798574,-22346.4497555091,-13077.5485205743,-5436.9771452729,-7267.5097907100,-3351.8232761190,-24891.4452229956,4310.5526118891,7266.6580519324,10024.4908722458
560505604950,24758,-2,0,1409.5668384537,4536.2998910451,9308.6896035458,-2303.0773192528,-9721.9289230465,-7296.1403813344,-10123.3290735386,-22341.0229627260,-13069.9072069695,-5429.3358316681,-7254.3565104444,-3347.2968929009,-24885.1910268286,4316.6972987847,7271.8901615662,10026.5837160994
560505604950,24758,-2,0,1413.9837124004,4542.6270933931,9326.9168133866,-2293.0389693739,-9720.0185946453,-7275.5039675226,-10119.4232428584,-22341.5096705990,-13067.6926861477,-5422.1933936331,-7245.7904518810,-3350.7403511018,-24886.2252810586,4316.8068080561,7270.4422056443,10022.1181713653
560505604950,24758,-2,0,1416.3442455841,4543.5396706548,9331.7960598126,-2291.8952058725,-9722.4764694036,-7271.2452736346,-10121.9784591912,-22345.4155012791,-13070.7711134439,-5424.3349082739,-7252.4826851336,-3354.6583494788,-24888.9386774501,4314.9694858358,7266.6215488419,10017.8108066900
560505604950,24758,-2,0,1417.0499719998,4542.0065408551,9324.6292863838,-2296.5554337557,-9724.9221764650,-7288.8032601501,-10127.8554567567,-22349.1388165069,-13074.5309317622,-5431.3069985534,-7264.6503819566,-3356.6416840609,-24888.7318266041,4311.3191767889,7263.5796246362,10016.5088631300
560505604950,24758,-2,0,1415.8697054080,4539.4513245223,9315.0168058937,-2302.9069714973,-9727.1975357709,-7307.6631902257,-10130.5810208450,-22349.8810460131,-13072.9247957816,-5437.0988222412,-7269.9798331650,-3355.3154051072,-24884.3757911415,4313.7405484567,7266.4755364800,10021.6192957956
560505604950,24758,-2,0,1418.2910770758,4543.1381366596,9314.1528994193,-2301.4955186658,-9728.6941624801,-7307.3224947146,-10129.1939034072,-22348.6399409372,-13074.7986210923,-5442.5256150242,-7267.4854553163,-3356.6781871514,-24885.9210886380,4315.7117153420,7268.1911817321,10022.1668421526
560505612474,24759,-2,0,1421.2356597069,4545.7176883861,9324.6901248680,-2297.0056385382,-9729.4728950768,-7290.8596009132,-10128.5611831724,-22352.4727654364,-13077.6701975425,-5444.5454526968,-7261.8153085968,-3361.3749181250,-24887.2717029854,4313.3633498552,7263.2632645188,10017.0320740934
560505612474,24759,-2,0,1418.1085616234,4540.3882371776,9329.7032159590,-2296.4215890907,-9732.4539807984,-7285.4814789175,-10130.8487101752,-22356.9991486546,-13081.1136557434,-5445.6648808045,-7264.1880094773,-3363.5772712500,-24888.5006403645,4311.4530214540,7261.5719546604,10013.5764481956
560505612474,24759,-2,0,1414.8232834812,4537.5653315147,9321.4291821194,-2301.7875433896,-9731.9916083191,-7297.0772939897,-10134.3165037697,-22356.4272669039,-13080.9068048974,-5451.7730646096,-7274.5183840800,-3361.9346321789,-24887.0161813521,4312.5846172585,7263.0929167632,10016.1803353158
560505612474,24759,-2,0,1413.1806444101,4534.8519351232,9308.5070880934,-2307.8105533169,-9731.2737142066,-7314.6961189893,-10134.5963607966,-22352.0955668349,-13079.4223458850,-5454.2917778520,-7277.8523330095,-3356.8363672101,-24882.0274256547,4315.9185661880,7267.5706291941,10022.3371899082
560505612474,24759,-2,0,1412.3775764198,4535.9835309277,9306.0613810320,-2307.0318207203,-9732.4174777079,-7315.6086962511,-10133.1727402683,-22351.2559957541,-13080.1524076944,-5453.9145792505,-7273.8248253611,-3357.3109073862,-24883.1833568528,4315.3588521341,7268.2641879130,10024.0650028570
560505612474,24759,-2,0,1412.7791104150,4537.8695239353,9312.9482974338,-2303.0286484655,-9737.1020409848,-7302.4310805918,-10132.6982000922,-22354.7359570455,-13085.7130451425,-5453.3305298030,-7268.1546786416,-3362.3726692645,-24887.9287586138,4310.7107919478,7264.8085620153,10018.1028314138
560505612474,24759,-2,0,1409.8831985711,4532.8442651474,9314.7491165636,-2302.7001206513,-9742.4923306773,-7294.8506054711,-10134.8153793394,-22358.0942413686,-13090.2880991479,-5453.8537407664,-7270.2961932824,-3366.8382139985,-24893.6719115142,4305.8558809154,7260.2213403130,10012.0068153055
560505612474,24759,-2,0,1406.4275726734,4528.4760619880,9311.5246769055,-2307.1291622949,-9744.7920253769,-7306.7262775703,-10137.9668128166,-22357.4615211338,-13090.2272606638,-5453.1845174411,-7276.6112279335,-3365.5119350448,-24893.5745699396,4306.8171289644,7260.3795203717,10015.4746089000
560505646438,24760,-2,0,1404.0792071866,4526.6022366772,9300.9022775791,-2313.3590230682,-9741.5797534156,-7321.4735261197,-10136.9325585866,-22352.7526224634,-13087.4530257882,-5452.7586480523,-7278.3998793665,-3358.4181677970,-24889.5713976849,4309.5913638401,7267.1325921085,10023.8703197078
560505646438,24760,-2,0,1406.8777774558,4529.9726886972,9299.8436879555,-2311.7893901780,-9737.8199350973,-7320.6704581294,-10133.1605725715,-22348.5425993626,-13083.0604872351,-5449.4246991228,-7271.5251306615,-3354.2568154836,-24888.1477771566,4314.2637594201,7270.5638826125,10027.3989517865
560505646438,24760,-2,0,1410.2725648694,4535.8375185658,9312.6076019228,-2303.5153563384,-9735.2647187645,-7299.9732058336,-10129.4615927373,-22347.2528234994,-13082.2087484575,-5440.9559821340,-7259.4426077164,-3356.5321747895,-24888.9021743596,4313.5215299139,7270.0893424364,10025.9753312582
560505646438,24760,-2,0,1410.8201112265,4534.8032643359,9321.2344989702,-2298.4779298537,-9735.5689111851,-7286.1020314554,-10129.5224312215,-22348.8832948737,-13083.1578288097,-5436.5634435810,-7258.1041610658,-3358.6493540367,-24889.4253853230,4314.1785855423,7270.7098949744,10024.3326921871
560505646438,24760,-2,0,1410.2238940822,4533.3674761108,9319.2876674786,-2300.4855998295,-9735.2038802804,-7290.5189054022,-10133.2822495397,-22350.0878968591,-13084.1434122523,-5438.4251011949,-7265.9036547293,-3358.2234846479,-24888.6588204232,4313.9717346963,7269.4444545048,10022.1425067590
560505646438,24760,-2,0,1407.5226653875,4530.5202350542,9309.4561684456,-2308.9908199088,-9736.8951901388,-7309.2206554190,-10136.2146644741,-22350.8422940622,-13081.9775622179,-5439.1551630042,-7271.8658261726,-3355.8386160706,-24887.7705785551,4314.6896288089,7272.2186893805,10030.4530436891
560505646438,24760,-2,0,1408.8976151285,4530.9461044430,9304.5282512323,-2308.4676089454,-9734.0844521727,-7311.5690209058,-10133.4160942048,-22348.6642763309,-13078.0352284472,-5436.9528098793,-7267.1569275021,-3353.5024182806,-24883.7917416940,4315.0059889263,7274.4453778991,10033.8113280122
560505646438,24760,-2,0,1414.0932216719,4536.2998910451,9318.5697733660,-2298.8551284553,-9729.9961060402,-7292.4414015002,-10127.1375626442,-22347.9828853088,-13074.4335901876,-5430.8446260742,-7256.4980250852,-3353.3564059187,-24885.6168962174,4318.2669316748,7275.4187936449,10031.5968071904
560505685042,24761,-2,0,1415.6993576525,4536.2755556515,9329.9709052891,-2294.1097266943,-9730.0204414338,-7278.0956869459,-10126.6386870744,-22349.5768535926,-13075.4556767208,-5427.3890001765,-7252.2880019845,-3356.4226655181,-24888.0139324916,4314.7382995962,7272.6080556788,10026.6932253708
560505685042,24761,-2,0,1410.8444466201,4531.7491724333,9324.7509633521,-2300.2300781962,-9733.5977442997,-7286.0776960618,-10131.5422688941,-22354.0180629329,-13080.6756186578,-5432.9009668372,-7264.2610156582,-3358.8562048827,-24891.6520738416,4312.9131450727,7270.5517149157,10024.1745121284
560505685042,24761,-2,0,1405.6123369863,4526.9794352787,9308.7626097267,-2307.6645409551,-9736.7248423832,-7307.8578733748,-10134.5598577062,-22354.0545660234,-13081.4908543449,-5440.9316467404,-7273.4111236691,-3356.5443424863,-24888.6831558168,4315.4440260119,7271.5129629647,10026.7905669454
560505685042,24761,-2,0,1406.4275726734,4529.4129746433,9303.2019722786,-2308.0782426470,-9732.9285209745,-7314.6474482021,-10131.7126166496,-22349.4186735339,-13078.5949425011,-5440.7247958944,-7269.8459885000,-3353.2468966473,-24885.6899023984,4317.9140684670,7273.7153160897,10031.4751302222
560505685042,24761,-2,0,1410.7957758328,4534.2800533725,9313.9338808765,-2299.5365194773,-9731.9672729255,-7299.1701378433,-10127.0645564632,-22350.7814555780,-13078.3150854742,-5439.2038337915,-7262.5453704062,-3355.2302312294,-24887.4663861345,4315.7360507357,7272.0605093218,10027.3381133024
560505685042,24761,-2,0,1410.2238940822,4535.3021399056,9320.4314309799,-2296.7622846017,-9733.3787257569,-7285.8343421253,-10128.6341893534,-22354.4804354122,-13082.2452515480,-5441.9050624862,-7261.7544701127,-3361.1558995822,-24891.8710923844,4308.2529171895,7265.0762513454,10017.5796204504
560505685042,24761,-2,0,1408.5812550111,4532.8929359347,9319.5918598991,-2298.5387683379,-9739.0610401732,-7293.0497863413,-10134.4138453443,-22357.8630551290,-13085.5426973870,-5446.2245948584,-7269.7729823190,-3364.1491530007,-24891.9927693527,4305.4908500107,7262.4480288316,10015.9126459856
560505685042,24761,-2,0,1406.0138709814,4528.6829128340,9309.1154729346,-2306.6789575124,-9739.1948848383,-7310.8754621869,-10138.0276513007,-22356.8774716863,-13084.6057847316,-5448.2809356214,-7278.1808608237,-3359.3915835429,-24891.0801920909,4310.5404441923,7267.4124491354,10025.5372941726
560505710249,24762,-2,0,1407.4983299938,4530.9339367462,9298.8702722097,-2307.1291622949,-9737.8564381878,-7320.1959179533,-10134.6085284934,-22351.2803311478,-13080.6999540515,-5450.1425932354,-7275.9663400019,-3353.6849337329,-24886.2374487554,4316.2470940022,7273.4354590627,10033.4341294107
560505710249,24762,-2,0,1409.6763477251,4534.8762705168,9305.3921577068,-2300.7046183723,-9737.8686058846,-7307.7605318003,-10131.9559705860,-22350.1487353433,-13081.6612021005,-5447.4535322375,-7268.0451693702,-3356.2888208530,-24886.7971628093,4315.3466844373,7270.6733918839,10031.0249254397
560505710249,24762,-2,0,1408.6420934952,4534.7789289423,9315.1019797715,-2297.4801787143,-9742.4679952837,-7294.2178852363,-10133.5986096571,-22356.4637699944,-13086.5647839201,-5446.3097687361,-7265.5507915215,-3360.8638748585,-24891.7250800226,4311.9153939332,7266.2200148467,10025.1357601774
560505710249,24762,-2,0,1408.8246089475,4534.0732025265,9316.2822463633,-2297.5653525920,-9744.8893669514,-7294.4004006887,-10136.3120060487,-22357.1938318037,-13089.7892235782,-5448.9866620372,-7272.2673601677,-3362.2509922963,-24892.3091294701,4310.9419781874,7264.4922018979,10024.1866798252
560505710249,24762,-2,0,1406.8777774558,4531.8951847952,9308.3002372475,-2301.5806925436,-9743.4779141200,-7308.7339475461,-10138.3926822054,-22355.5998635199,-13087.5260319691,-5450.9821643161,-7278.4242147602,-3359.9512975967,-24889.3280437484,4313.5215299139,7266.6458842355,10030.0393419971
560505710249,24762,-2,0,1407.0846283018,4531.2624645604,9300.2817250411,-2305.2675046809,-9740.1683005841,-7320.0985763787,-10136.2633352614,-22350.3920892797,-13083.0239841446,-5448.2687679246,-7275.9906753956,-3354.1716416058,-24886.1644425745,4316.8798142370,7269.6999761381,10035.2349485405
560505710249,24762,-2,0,1410.3212356567,4533.6716685314,9305.0636298926,-2300.9358046120,-9737.9902828528,-7307.4685070765,-10133.5499388698,-22351.0491449081,-13081.8802206433,-5444.7766389364,-7268.0816724607,-3353.9891261535,-24886.5051380855,4316.3201001832,7268.6778896050,10031.6941487650
560505710249,24762,-2,0,1409.4938322728,4532.9051036315,9311.8167016293,-2298.3684205823,-9740.7036792443,-7290.9447747910,-10132.8685478478,-22354.2127460821,-13083.3038411716,-5442.6716273861,-7263.3484383965,-3358.8197017922,-24890.8490058513,4311.7450461777,7264.0663325091,10025.0384186029
560505741359,24763,-2,0,1404.3712319103,4528.4882296848,9314.4084210526,-2300.7776245533,-9744.3418205944,-7291.2367995147,-10137.5166080341,-22358.5687815447,-13086.7107962820,-5442.2457579973,-7268.8969081478,-3362.6160232010,-24894.8156750156,4307.6688677420,7262.1560041079,10021.1934264068
560505741359,24763,-2,0,1400.7452582571,4523.4994739874,9302.6057551343,-2308.4432735517,-9745.9844596655,-7307.6631902257,-10140.5828676335,-22357.4736888307,-13086.5647839201,-5446.6991350345,-7277.3534574397,-3360.3284961982,-24893.6110730301,4309.5426930528,7265.1127544359,10025.9023250773
560505741359,24763,-2,0,1399.6866686335,4523.5359770779,9294.5385721407,-2313.8578986379,-9742.4923306773,-7321.5830353911,-10141.2155878683,-22354.7237893487,-13082.6589532399,-5446.9546566677,-7277.2074450779,-3355.9724607356,-24889.2672052643,4312.8644742854,7268.9455789351,10031.0979316207
560505741359,24763,-2,0,1405.2351383847,4527.2957953961,9301.7540163567,-2307.2630069599,-9740.0587913127,-7312.9439706468,-10137.6382850024,-22354.3465907472,-13080.9554756847,-5443.8883970684,-7268.8360696637,-3358.5641801589,-24889.8390870150,4313.4485237329,7268.2033494289,10029.9298327257
560505741359,24763,-2,0,1407.8268578080,4530.2647134209,9313.3254960353,-2301.6902018150,-9741.3729025696,-7295.1182948012,-10137.0785709485,-22357.6197011925,-13083.9000583159,-5442.5864535083,-7264.3218541424,-3363.2244080421,-24894.1829547808,4309.3480099036,7263.8594816631,10021.5827927051
560505741359,24763,-2,0,1406.9507836368,4529.5103162179,9317.9248854344,-2301.3373386071,-9742.1151320758,-7290.9326070941,-10141.6171218635,-22363.0829970660,-13087.5138642723,-5443.7423847065,-7269.4687898985,-3367.6777850793,-24897.2613820770,4306.0748994582,7259.5642846846,10018.0784960201
560505741359,24763,-2,0,1403.9575302183,4525.1299453617,9311.6706892674,-2306.2287527300,-9742.3098152250,-7307.2859916242,-10145.9609896292,-22363.8008911786,-13086.1510822281,-5444.5576203936,-7277.4751344080,-3366.1324875828,-24895.3145505853,4307.7540416198,7260.6107066114,10022.6170469351
560505741359,24763,-2,0,1404.2495549421,4524.4120512491,9301.7540163567,-2310.7916390386,-9739.2800587161,-7321.6438738752,-10144.1236674090,-22360.5399484300,-13081.0893203498,-5446.1029178901,-7278.0956869459,-3360.2433223205,-24886.3226226332,4312.9496481632,7266.1835117563,10030.5625529605
560505773101,24764,-2,0,1408.3622364682,4531.0921168049,9306.6819335700,-2302.5054375021,-9733.8167628426,-7313.3211692484,-10137.7964650611,-22355.6850373977,-13076.5751048285,-5442.6472919924,-7269.5052929889,-3357.9071245305,-24884.8503313176,4316.7946403592,7267.9721631892,10033.4219617139
560505773101,24764,-2,0,1410.2360617790,4533.7325070155,9318.9956427548,-2297.4801787143,-9735.2525510677,-7295.6050026741,-10135.3994287869,-22358.2280860337,-13078.8261287407,-5439.8852248136,-7262.2898487729,-3362.4700108391,-24889.1090252056,4312.2682571411,7263.2632645188,10029.4187894591
560505773101,24764,-2,0,1408.5569196174,4531.9316878857,9324.4711063251,-2296.7257815112,-9737.9781151560,-7289.6549989277,-10136.7257077406,-22360.4061037650,-13082.8779717828,-5441.5156961879,-7265.9644932135,-3365.3902580766,-24894.0734455094,4308.3502587641,7261.8396439905,10026.5837160994
560505773101,24764,-2,0,1405.9165294068,4529.2547945846,9316.8297927203,-2302.5541082894,-9739.1340463542,-7301.5185033301,-10137.8694712420,-22357.8508874322,-13082.7076240272,-5444.5211173032,-7273.5206329405,-3362.2023215090,-24892.4308064383,4309.4940222655,7265.6237977024,10031.2682793762
560505773101,24764,-2,0,1403.8845240374,4524.6432374887,9304.9784560148,-2311.4121915765,-9737.9659474592,-7317.7258754983,-10138.9280608656,-22354.4074292313,-13080.7729602324,-5445.8960670442,-7276.8059110827,-3357.6637705940,-24888.7804973914,4313.6675422758,7269.6634730476,10036.9140907020
560505773101,24764,-2,0,1404.2008841548,4526.7360813423,9304.6864312910,-2310.2805957720,-9735.9704451802,-7314.1607403291,-10135.7279566012,-22352.5822747078,-13078.9599734058,-5446.9546566677,-7271.2696090283,-3356.5930132736,-24889.5713976849,4314.0204054836,7268.9212435414,10035.7824948975
560505773101,24764,-2,0,1405.3203122625,4529.5711547020,9312.4129187736,-2303.5518594289,-9736.5179915373,-7296.3593998772,-10133.2335787525,-22353.8355474806,-13080.7364571419,-5446.5287872789,-7265.8549839421,-3359.8904591126,-24890.9706828195,4309.3723452973,7263.4701153648,10027.0460885786
560505773101,24764,-2,0,1403.7385116755,4528.4395588975,9318.9104688771,-2302.7366237418,-9740.6428407602,-7289.7158374118,-10138.3440114181,-22359.7247127429,-13086.1267468345,-5447.4535322375,-7269.0185851160,-3366.1446552796,-24896.3001340280,4303.8482109396,7260.4525265527,10022.7022208128
560505800395,24765,-2,0,1400.0638672350,4521.6256486767,9310.9527951549,-2309.1368322706,-9744.1471374452,-7304.1223904502,-10144.6103752819,-22361.0023209093,-13089.4850311576,-5454.0970947028,-7280.2250338899,-3367.0328971477,-24898.5876610307,4302.6801120446,7259.7954709242,10023.3836118349
560505800395,24765,-2,0,1398.9079360368,4521.2849531656,9297.6900056178,-2314.4784511759,-9742.3098152250,-7321.5100292102,-10144.3061828613,-22357.6440365862,-13088.4507769277,-5456.5914725515,-7284.6662432303,-3360.8760425553,-24894.7061657442,4307.2308306564,7264.8085620153,10031.0249254397
560505800395,24765,-2,0,1402.6312512646,4525.3124608140,9298.8337691192,-2311.9110671463,-9740.5211637920,-7320.7799674008,-10140.4246875748,-22355.6850373977,-13086.1997530154,-5454.3404486393,-7279.7139906234,-3360.8030363743,-24891.9075954749,4310.0050655320,7264.4678665042,10032.4242105744
560505800395,24765,-2,0,1405.2838091720,4527.6729939977,9308.8964543918,-2305.9975664903,-9741.8839458362,-7303.3679932472,-10138.8550546847,-22357.9725644004,-13088.9861555879,-5450.9456612257,-7272.3281986519,-3365.0982333528,-24897.2248789865,4305.3083345584,7258.7977197847,10027.1799332437
560505800395,24765,-2,0,1405.1621322038,4528.9871052545,9315.0776443778,-2303.0043130719,-9743.0885478216,-7290.9569424878,-10139.8528058241,-22362.4016060440,-13092.0037444000,-5450.0209162671,-7271.4886275711,-3369.1379086981,-24902.2258023808,4299.5043431738,7253.3100885176,10021.1569233163
560505800395,24765,-2,0,1399.0539483987,4523.0249338113,9308.4949203966,-2309.3558508135,-9746.6658506876,-7300.4964167970,-10143.3449348123,-22362.7544692518,-13092.8798185712,-5449.9114069957,-7279.0204319045,-3370.1234921407,-24902.3474793490,4295.6958540683,7251.7282879306,10021.8626497321
560505800395,24765,-2,0,1396.3892227945,4517.9510042361,9295.7675095198,-2317.3135245357,-9748.4910052110,-7319.1494960265,-10144.4400275264,-22358.1794152464,-13090.8478132018,-5450.8118165606,-7282.9871010688,-3365.4510965607,-24900.6561694906,4300.6237712816,7257.6782916770,10031.8036580364
560505800395,24765,-2,0,1398.6402467067,4522.8667537526,9295.6458325516,-2314.2837680267,-9744.6703484086,-7319.6118685058,-10140.6437061176,-22355.2956710994,-13088.2560937785,-5448.6094634357,-7276.8180787795,-3359.4402543302,-24895.1563705266,4304.2984157221,7261.0244083033,10036.8045814306
560505846404,24766,-2,0,1403.9331948247,4527.6973293913,9306.8644490223,-2305.8393864316,-9743.3197340613,-7302.4432482886,-10136.6405338629,-22356.1595775738,-13087.1975041549,-5443.4016891954,-7266.6093811451,-3360.7178624966,-24896.3123017248,4305.6003592821,7259.7346324401,10032.6675645108
560505846404,24766,-2,0,1406.0868771624,4530.2525457241,9320.2732509212,-2300.9358046120,-9743.5874233914,-7289.1196202675,-10136.3850122296,-22358.6661231193,-13087.9153982675,-5441.1141621927,-7263.7256369980,-3364.8427117196,-24897.8089284340,4304.1524033602,7257.5931177993,10028.3601998355
560505846404,24766,-2,0,1408.3135656810,4531.7491724333,9321.2466666671,-2301.8605495705,-9741.6770949902,-7292.4779045907,-10137.4801049437,-22356.1474098770,-13086.4674423455,-5442.6107889020,-7269.4931252921,-3364.3925069371,-24895.5579045218,4305.6855331599,7261.0852467875,10030.8302422906
560505846404,24766,-2,0,1409.6641800283,4531.3476384382,9313.9338808765,-2304.1967473605,-9737.3332272244,-7307.8700410717,-10137.0420678580,-22353.5435227569,-13081.4421835577,-5442.7324658702,-7273.5328006373,-3358.6006832494,-24890.6543227021,4312.3290956252,7266.9622443529,10038.7149098318
560505846404,24766,-2,0,1412.3289056325,4533.6595008345,9312.3520802895,-2304.0507349987,-9734.1209552631,-7314.5501066275,-10134.1461560142,-22349.3213319593,-13077.3660051220,-5443.6572108287,-7270.7707334585,-3354.8652003247,-24887.0283490489,4312.4264371998,7267.9721631892,10039.1894500079
560505846404,24766,-2,0,1414.1418924591,4536.1295432896,9317.8640469503,-2299.4878486900,-9732.7460055221,-7299.7055165035,-10130.4715115736,-22351.2438280573,-13078.5706071074,-5443.3773538018,-7264.6868850471,-3356.3253239435,-24890.8368381545,4311.9518970237,7269.3836160207,10035.5391409610
560505846404,24766,-2,0,1414.7989480876,4537.0786236418,9328.2430923403,-2295.9592166114,-9735.6540850628,-7286.8077578712,-10130.6661947228,-22355.2591680089,-13082.4034316067,-5443.0488259876,-7263.3119353061,-3360.5475147411,-24894.9373519838,4304.8459620791,7261.4746130858,10029.4187894591
560505846404,24766,-2,0,1410.6132603805,4533.0754513870,9325.8947268534,-2299.8163765043,-9740.5941699729,-7292.9524447667,-10135.3872610901,-22358.3740983956,-13086.9054794312,-5447.1128367264,-7272.4377079233,-3364.0396437292,-24899.1838781750,4303.0086398589,7260.0996633448,10027.1677655469
560505867704,24767,-2,0,1405.9773678909,4526.7725844328,9310.5999319470,-2308.4676089454,-9742.3828214059,-7312.2139088375,-10137.6261173055,-22356.7314593245,-13086.6012870106,-5452.9168281110,-7281.7581636896,-3359.2090680905,-24896.5434879644,4305.6125269790,7262.8982336141,10030.6963976255
560505867704,24767,-2,0,1409.3964906982,4530.1187010591,9304.1875557213,-2308.4189381581,-9738.6108353908,-7319.4293530535,-10134.8762178235,-22352.7891255538,-13083.1091580224,-5451.6635553382,-7277.9375068872,-3355.8021129801,-24892.2239555923,4309.8103823829,7268.2155171257,10037.5711463305
560505867704,24767,-2,0,1410.0900494171,4533.1971283553,9310.9892982453,-2303.7830456685,-9738.7811831463,-7306.8357868417,-10134.0001436523,-22355.0888202534,-13085.0073187268,-5450.3007732941,-7270.2110194047,-3358.9170433668,-24894.7548365315,4307.9973955563,7266.8405673847,10035.4296316896
560505867704,24767,-2,0,1410.0413786298,4532.9051036315,9317.0974820504,-2303.4788532480,-9743.6117587850,-7293.8285189380,-10137.9303097261,-22361.0753270903,-13091.0059932605,-5452.6978095682,-7270.3935348570,-3366.6922016366,-24900.8143495493,4300.9522990958,7259.3696015354,10028.0438397181
560505867704,24767,-2,0,1407.0237898177,4529.4738131275,9315.8320415809,-2305.1093246222,-9746.3981613575,-7297.7465173150,-10143.6734626265,-22365.6747164893,-13094.7293084883,-5454.4986286980,-7278.9595934204,-3369.9774797788,-24904.1969692661,4298.0685549487,7254.7093736522,10022.5805438446
560505867704,24767,-2,0,1405.7583493481,4526.6630751614,9307.8622001618,-2310.2805957720,-9748.0042973381,-7314.8056282608,-10147.6888025781,-22364.9324869831,-13093.7193896520,-5456.7009818229,-7286.8807640521,-3369.2717533631,-24902.8828580092,4297.2168161711,7257.4592731342,10030.5503852636
560505867704,24767,-2,0,1407.8146901112,4529.1087822228,9300.5737497649,-2311.8988994494,-9746.6780183844,-7326.5839587854,-10147.0195792528,-22362.8639785232,-13090.5436207812,-5458.0759315639,-7285.8951806094,-3365.4632642575,-24898.6241641212,4298.9081260295,7256.8265528994,10032.1565212443
560505867704,24767,-2,0,1411.6353469136,4533.7446747123,9306.3534057558,-2306.3625973950,-9745.1083854942,-7313.8687156054,-10141.3250971397,-22359.8950604984,-13089.7040497004,-5453.2696913189,-7275.1754397084,-3362.8107063501,-24899.1595427814,4302.0838949003,7258.9680675403,10034.3467066724
560505907545,24768,-2,0,1412.3289056325,4537.2489713973,9320.4801017672,-2298.4535944601,-9745.2057270688,-7293.6581711825,-10138.6482038387,-22359.7247127429,-13089.4485280671,-5445.6648808045,-7267.1082567148,-3364.7332024482,-24898.2469655197,4302.4975965923,7258.6152043324,10030.9397515620
560505907545,24768,-2,0,1410.6375957741,4534.9492766978,9323.8870568776,-2297.6991972571,-9743.4292433327,-7289.0709494802,-10138.2710052371,-22359.2015017795,-13089.1686710402,-5443.6085400414,-7269.2862744461,-3365.0617302624,-24897.0180281405,4303.3858384604,7258.3110119118,10029.5161310337
560505907545,24768,-2,0,1407.4253238129,4531.6274954651,9313.5931853654,-2304.5617782652,-9742.4193244964,-7303.6478502741,-10139.1592471052,-22356.6097823562,-13086.7107962820,-5443.3773538018,-7276.8302464763,-3361.2410734600,-24893.4772283651,4305.3448376489,7260.7202158828,10031.3777886476
560505907545,24768,-2,0,1409.7250185124,4532.7590912696,9309.1398083282,-2304.5617782652,-9737.4914072831,-7312.3234181089,-10137.2367510072,-22352.8134609475,-13080.8946372006,-5440.5666158357,-7275.8811661242,-3357.0918888433,-24892.1752848050,4307.2551660501,7263.5187861520,10036.0380165308
560505907545,24768,-2,0,1413.4483337402,4537.0299528545,9313.5810176686,-2300.3274197708,-9733.5004027252,-7302.7474407092,-10132.3331691876,-22352.0955668349,-13077.9865576599,-5438.2182503489,-7268.0695047638,-3357.0067149656,-24892.7228311620,4306.8657997517,7263.4701153648,10033.3976263202
560505907545,24768,-2,0,1415.8575377112,4540.5099141459,9323.6315352444,-2294.9736331687,-9735.2403833708,-7286.2602115141,-10132.9537217255,-22356.7557947181,-13080.7242894451,-5437.8288840505,-7264.0176617218,-3361.3140796409,-24897.0058604437,4304.4565957808,7260.1970049194,10025.9631635614
560505907545,24768,-2,0,1412.6696011436,4536.6284188593,9328.4499431862,-2296.9326323572,-9738.6108353908,-7286.1263668491,-10137.4557695500,-22360.8928116379,-13084.3137600079,-5440.3597649897,-7268.8482373605,-3366.5705246684,-24900.1207908304,4302.3272488368,7258.5056950610,10022.5197053605
560505907545,24768,-2,0,1406.8656097590,4528.4638942911,9315.9415508523,-2306.7397959965,-9742.1759705599,-7304.9254584405,-10142.8095561521,-22363.1316678533,-13086.6256224042,-5446.7843089122,-7279.4219658996,-3364.9887240814,-24899.1717104782,4303.6656954873,7260.5985389145,10027.3867840897
560505951585,24769,-2,0,1409.0557951872,4529.5954900957,9306.7306043573,-2308.4554412486,-9739.0853755669,-7318.2734218553,-10139.1835824989,-22359.4448557160,-13081.7707113719,-5447.8794016263,-7277.8766684031,-3356.5565101831,-24891.7129123257,4311.8545554491,7267.9843308861,10037.5833140273
560505951585,24769,-2,0,1413.9350416132,4532.6009112109,9315.3696691016,-2302.7122883481,-9730.7140001527,-7305.7528618245,-10127.9041275440,-22349.2118226879,-13073.0221373562,-5437.8532194442,-7261.8883147778,-3347.9174454388,-24885.2275299191,4318.1452547066,7273.6666453024,10046.7577574318
560505951585,24769,-2,0,1416.5145933396,4534.3165564630,9330.1169176510,-2292.9902985866,-9723.2673696971,-7277.6333144667,-10117.3547343985,-22342.1545585306,-13066.4029102845,-5426.6346029734,-7247.1532339252,-3343.6222484603,-24881.7110655373,4322.4526193819,7278.7284071807,10049.1061229186
560505951585,24769,-2,0,1408.3379010746,4529.9605210004,9329.4598620225,-2290.3134052855,-9721.6247306260,-7268.8239019669,-10114.5318287356,-22341.6070121735,-13066.6462642210,-5425.4543363816,-7247.5547679204,-3344.4496518443,-24883.3780400020,4320.1650923792,7277.3899605302,10046.0520310161
560505951585,24769,-2,0,1403.1179591376,4529.8023409417,9319.7500399578,-2295.3995025575,-9727.7450821279,-7285.7735036412,-10120.4940001788,-22345.0504703744,-13070.0410516346,-5431.2461600693,-7261.1704206652,-3347.3577313850,-24885.6047285206,4316.4417771514,7274.9564211656,10047.4148130602
560505951585,24769,-2,0,1410.0413786298,4540.5220818427,9313.8852100892,-2295.5333472226,-9727.8545913993,-7304.8889553501,-10124.8135325510,-22345.5493459442,-13071.2821567105,-5437.9748964124,-7269.0550882065,-3347.3942344755,-24885.6899023984,4315.6143737674,7273.8369930579,10050.3472279946
560505951585,24769,-2,0,1422.2455785432,4552.3977539419,9316.6472772680,-2289.3156541461,-9730.8478448178,-7305.4486694039,-10125.8234513873,-22347.6665251914,-13075.4556767208,-5442.6716273861,-7267.8748216147,-3350.6795126177,-24889.8999254991,4312.2804248379,7269.6026345635,10046.2588818621
560505951585,24769,-2,0,1432.5394500554,4562.8741409064,9330.7618055826,-2279.2529688735,-9735.5567434882,-7292.1980475637,-10128.6828601407,-22353.5678581505,-13080.9311402911,-5442.7568012638,-7265.1370898295,-3358.0044661051,-24897.6629160721,4301.5606839369,7259.9049801956,10035.8311656848
560506006598,24770,-2,0,1438.8179816161,4572.4379506093,9342.2602790803,-2273.4611451858,-9741.2998963887,-7286.4427269665,-10132.7955416668,-22357.0843225323,-13086.6621254947,-5444.2290925794,-7266.1835117563,-3361.6182720615,-24906.8495271735,4296.4502512713,7256.0113172123,10031.2561116794
560506006598,24770,-2,0,1443.1253462914,4577.9377495732,9339.6077211729,-2272.0861954448,-9740.7401823348,-7296.0308720630,-10134.1339883173,-22355.1739941311,-13086.0902437440,-5445.2025083252,-7272.9609188867,-3358.3938324034,-24906.0099560927,4297.3871639267,7256.5101927820,10033.0569308092
560506006598,24770,-2,0,1454.4291366399,4589.8620924597,9337.1133433242,-2267.3651290775,-9735.1308740994,-7306.5315944211,-10130.6418593292,-22346.2794077536,-13079.3006689168,-5441.4426900070,-7270.6247210966,-3349.3654013608,-24898.6119964243,4303.2519937953,7262.3628549539,10039.9438472110
560506006598,24770,-2,0,1470.4539933557,4606.8968680118,9346.6649853302,-2255.2339353450,-9727.9519329739,-7300.3747398287,-10122.7693594847,-22339.6480129851,-13072.9491311752,-5435.5656924415,-7259.9901540734,-3344.0724532428,-24894.7548365315,4306.0992348519,7263.9568232377,10041.6716601598
560506006598,24770,-2,0,1485.8582975336,4625.7933011779,9364.9165305646,-2238.2721659738,-9726.0416045727,-7279.1907796600,-10117.1965543398,-22337.6403430093,-13072.2677401532,-5431.1366507979,-7250.6210275197,-3346.1652970963,-24898.5146548498,4303.3858384604,7260.2943464940,10032.9352538409
560506006598,24770,-2,0,1496.2616783172,4637.5229609152,9382.5353555642,-2226.3843261778,-9726.5526478393,-7266.6702196292,-10116.2109708972,-22338.8327772979,-13076.1370677428,-5428.4962605873,-7249.8787980135,-3350.1441339574,-24902.4569886204,4294.9414568652,7252.3853435591,10025.0505862997
560506006598,24770,-2,0,1504.8277368805,4641.7694871064,9386.3316769730,-2221.9431168374,-9727.5869020692,-7273.3867882755,-10117.5615852445,-22337.1536351364,-13076.9644711268,-5428.6301052524,-7256.2668388456,-3348.9516996688,-24907.5552535892,4293.8463641512,7253.9428087524,10027.4232871801
560506006598,24770,-2,0,1516.3262103782,4655.2756305798,9385.6624536477,-2219.4974097760,-9724.6058163476,-7290.3120545562,-10117.5129144572,-22333.6250030577,-13074.9933042415,-5431.5138493994,-7262.7157181617,-3343.8169316095,-24905.3894035547,4296.8274498728,7255.9869818186,10032.2903659093
560506014073,24771,-2,0,1531.4141544387,4671.7020212908,9392.5615377463,-2207.7190792514,-9720.6513148801,-7291.5774950258,-10111.3925629553,-22327.6384962208,-13071.2334859232,-5429.6643594823,-7255.6827893981,-3339.3270514818,-24902.9071934028,4298.5917659121,7257.9946517944,10036.5855628878
560506014073,24771,-2,0,1544.8959625185,4687.8363872780,9410.6792383157,-2193.3733646972,-9718.8018249630,-7273.4111236691,-10105.9536024754,-22326.4947327195,-13070.5155918107,-5426.9266276972,-7244.7318622574,-3340.0084425039,-24904.7566833199,4297.3628285330,7256.7778821121,10033.8356634058
560506014073,24771,-2,0,1552.5251084265,4698.4466189076,9423.1146244687,-2183.0794931850,-9720.1402716136,-7260.2700111003,-10104.8341743677,-22327.5533223430,-13074.9324657574,-5426.8779569099,-7242.6390184039,-3343.4762360985,-24909.4655819904,4294.6372644447,7253.9306410556,10029.7594849702
560506014073,24771,-2,0,1556.3335975320,4698.4952896949,9423.0051151973,-2183.5053625738,-9724.4719716825,-7269.0794236001,-10108.7156696542,-22330.5222403678,-13078.2420792932,-5431.3069985534,-7251.1564061799,-3345.8976077662,-24913.3105741865,4289.9283657742,7250.8400460625,10028.6765599529
560506014073,24771,-2,0,1560.5557883296,4704.8224920429,9416.5075650939,-2182.7387976739,-9725.4940582157,-7287.0876148981,-10108.1924586908,-22327.3586391939,-13076.4655955571,-5432.6697805976,-7256.4980250852,-3341.1400383085,-24909.3439050222,4293.3109854910,7253.0302314907,10033.6288125598
560506014073,24771,-2,0,1568.8784929565,4718.5963248464,9417.2132915096,-2175.8640489690,-9718.8018249630,-7289.4968188690,-10099.7845801862,-22320.1675303715,-13070.6007656884,-5430.7472844996,-7249.1974069914,-3333.4135508259,-24902.7003425568,4297.3506608362,7255.3299261902,10037.4129662718
560506014073,24771,-2,0,1579.5860661607,4730.4963323393,9432.6662664747,-2162.5160855542,-9711.9635793486,-7267.4124491354,-10090.8899938086,-22314.9840915249,-13066.0257116830,-5423.0086293202,-7235.9346174544,-3330.2256142583,-24905.1095465278,4297.7521948313,7257.7026270707,10039.2746238857
560506014073,24771,-2,0,1583.8204246551,4735.3269079780,9448.3504276795,-2154.1082070495,-9712.1339271041,-7250.9252199403,-10088.2617712949,-22315.4586317010,-13067.8995369937,-5417.7765196863,-7231.3473957522,-3333.1945322831,-24910.5606747045,4293.0311284640,7254.7093736522,10032.6918999045
560506026339,24772,-2,0,1582.9686858775,4734.9862124669,9447.5108565987,-2154.9842812208,-9713.3993675737,-7255.2690877061,-10092.1067634909,-22316.4320474469,-13070.1018901187,-5423.6535172518,-7239.1590571125,-3334.7641651732,-24913.4200834579,4291.3641539993,7254.3200073539,10029.0172554640
560506026339,24772,-2,0,1581.8492577698,4733.6721012101,9438.2999101038,-2160.1190492801,-9710.7833127567,-7271.6589753266,-10092.7394837257,-22312.1611858620,-13067.3519906367,-5424.5174237262,-7244.7440299543,-3328.5829751872,-24907.4457443178,4295.6228478873,7259.4182723227,10033.9816757677
560506026339,24772,-2,0,1582.0926117062,4733.1002194594,9430.7437703767,-2164.2804015935,-9710.0045801601,-7281.2836235135,-10091.5470494371,-22310.4942113973,-13064.4560787928,-5423.6413495550,-7243.1135585800,-3327.0620130843,-24904.4403232025,4299.8693740785,7261.6327931445,10036.2326996800
560506026339,24772,-2,0,1581.3868852905,4733.4044118800,9432.2160616923,-2163.0636319112,-9712.0244178327,-7271.2087705441,-10093.5668871097,-22313.9255019014,-13069.0189651014,-5425.3204917166,-7240.1324728584,-3332.6226505324,-24907.5917566797,4296.7787790855,7257.3010930755,10028.2750259578
560506026339,24772,-2,0,1576.7509928009,4731.2385618455,9437.4116682357,-2161.2019742973,-9716.2831117207,-7256.5710312661,-10094.5889736428,-22318.0381834275,-13071.6350199184,-5425.1501439610,-7238.0274613080,-3337.2220399315,-24911.9964629296,4292.1550542928,7252.0203126544,10021.9113205194
560506026339,24772,-2,0,1567.5765493964,4724.0839561136,9434.9294580838,-2166.0812207233,-9718.0960985473,-7257.0334037454,-10097.4605500930,-22320.2648719461,-13072.4989263928,-5422.0960520585,-7240.6191807313,-3336.7840028459,-24912.3371584406,4292.4105759261,7253.0423991875,10021.3759418591
560506026339,24772,-2,0,1565.2403516064,4720.1294546461,9423.0659536814,-2172.9194663378,-9715.7964038478,-7271.3791182997,-10096.5236374376,-22315.7628241216,-13068.1185555365,-5420.6602638334,-7244.6101852892,-3330.0552665028,-24905.5597513102,4299.4556723866,7260.6228743082,10028.8104046180
560506026339,24772,-2,0,1561.4561978945,4719.3142189590,9411.4579709124,-2176.7522908370,-9713.6062184197,-7283.1452811275,-10094.8079921856,-22311.9543350160,-13064.9062835753,-5419.9788728113,-7243.1865647609,-3326.3806220622,-24902.0067838379,4302.9234659811,7264.6017111693,10033.9086695868
560506056543,24773,-2,0,1558.5359506570,4718.3043001227,9412.6625728978,-2175.8518812721,-9717.8892477013,-7274.3237009308,-10094.1996073445,-22313.6578125712,-13067.0234628225,-5419.6381773002,-7237.5529211319,-3329.8970864441,-24906.1072976673,4296.8396175696,7258.5665335451,10027.2164363342
560506056543,24773,-2,0,1550.5174384507,4713.2060351539,9418.3327196173,-2174.3309191693,-9723.1456927288,-7260.5255327336,-10096.6939851932,-22319.2062823225,-13074.7986210923,-5421.6093441856,-7236.9688716844,-3336.1391149142,-24915.5737657955,4291.1938062438,7252.5556913146,10020.5242030815
560506056543,24773,-2,0,1540.1018899702,4703.6908962383,9412.0298526630,-2180.5729476394,-9727.7207467343,-7262.0464948365,-10101.7922501620,-22324.7547520738,-13081.5030220418,-5425.8071995895,-7245.4984271573,-3341.2008767926,-24922.2294959577,4286.9959508399,7249.0270592359,10017.1294156679
560506056543,24773,-2,0,1532.2658932163,4694.4677820465,9399.6309696005,-2189.2850185647,-9728.1709515167,-7277.3534574397,-10104.6273235217,-22322.5280635552,-13079.1911596454,-5427.2916586019,-7252.3488404686,-3337.5018969584,-24918.3236652775,4290.0987135297,7252.6165297987,10024.1380090380
560506056543,24773,-2,0,1526.3888956508,4688.3352628478,9386.4046831539,-2196.1232641792,-9724.0704376874,-7289.3508065072,-10101.0256852621,-22317.1621092563,-13074.0077207988,-5426.9266276972,-7249.9274688008,-3331.6614024834,-24911.6557674185,4296.3042389094,7256.6805405376,10028.6035537720
560506056543,24773,-2,0,1521.4853138311,4687.7390457035,9382.8030448943,-2197.4130400424,-9725.8834245140,-7283.9240137241,-10100.5754804797,-22319.2306177162,-13076.7576202808,-5429.8225395410,-7247.0072215633,-3333.4135508259,-24911.2785688170,4292.9337868895,7255.4759385521,10026.5837160994
560506056543,24773,-2,0,1515.0242668182,4683.9183889011,9390.1158306849,-2197.3400338614,-9732.6851670380,-7275.1024335275,-10106.9148505244,-22326.5190681131,-13083.9122260127,-5432.6089421135,-7247.6521094949,-3343.9264408809,-24921.0005585786,4288.1032112508,7250.4263443706,10021.2786002846
560506056543,24773,-2,0,1502.2116820636,4669.9133698578,9382.7300387134,-2206.9646820484,-9741.8352750489,-7278.9717611172,-10117.2208897335,-22337.3969890728,-13093.6950542584,-5441.1263298896,-7259.0289060244,-3352.3708224760,-24927.6562887407,4281.4231456950,7243.7827819052,10014.2213361273
560506082775,24774,-2,0,1489.0218987075,4658.8651011426,9364.3689842076,-2218.8646895412,-9748.3449928492,-7302.3580744109,-10128.2448230550,-22341.7530245354,-13098.9393315890,-5452.9289958078,-7273.9951731166,-3355.6195975278,-24930.0046542275,4279.1112832986,7240.6800192154,10014.4281869732
560506082775,24774,-2,0,1481.2832435281,4652.6717434597,9351.2400393356,-2226.8953694444,-9748.4423344237,-7317.9570617379,-10127.7702828789,-22342.5195894353,-13096.9559970069,-5453.3670328934,-7275.8933338210,-3352.3586547792,-24924.7847122905,4282.7859277391,7244.6953591670,10019.5751227293
560506082775,24774,-2,0,1479.6041013666,4651.5888184425,9351.1792008515,-2225.5082520066,-9747.2620678319,-7311.8975487201,-10126.3831654411,-22343.5295082716,-13095.7027242341,-5451.2863567367,-7269.2741067493,-3353.2590643441,-24923.3367563686,4283.9540266341,7243.9166265703,10017.3119311203
560506082775,24774,-2,0,1478.3994993811,4651.9051785599,9358.4798189453,-2221.1522165439,-9749.2940732013,-7294.8019346838,-10124.3633277685,-22345.0383026776,-13098.5621329875,-5449.5707114847,-7261.9491532619,-3357.3960812639,-24925.1132401047,4282.5669091963,7241.7751119295,10011.3619273739
560506082775,24774,-2,0,1472.9362035076,4646.6974043197,9359.0760360896,-2222.6366755563,-9750.9975507566,-7285.6761620666,-10122.7206886974,-22344.7462779539,-13097.0411708847,-5444.4724465159,-7259.9049801956,-3356.9945472688,-24925.0889047111,4283.1022878565,7241.4830872057,10008.8067110410
560506082775,24774,-2,0,1465.8181008662,4638.8127367784,9350.5708160104,-2230.6430200658,-9750.5595136709,-7298.5374176085,-10124.7526940669,-22341.1689750879,-13094.9361593343,-5443.9614032493,-7266.7918965974,-3352.5898410189,-24922.7892100115,4287.0567893240,7248.9053822677,10017.9081482646
560506082775,24774,-2,0,1459.9046002102,4633.1304223621,9335.4098657690,-2238.1991597929,-9746.4224967511,-7311.5203501186,-10122.3434900959,-22337.7011814934,-13089.6188758227,-5444.5332850000,-7268.1060078543,-3344.8633535363,-24916.2186537271,4294.9657922589,7255.7801309727,10025.4764556885
560506082775,24774,-2,0,1458.7973397993,4631.8284788020,9331.5040350888,-2239.1725755387,-9744.2809821103,-7307.0791407782,-10118.9365349855,-22337.1901382268,-13086.6864608883,-5441.8442240021,-7261.0244083033,-3345.7029246171,-24915.3304118591,4295.7931956429,7254.9162244982,10024.3935306712
560506112933,24775,-2,0,1455.4998939603,4630.4900321515,9340.9583355202,-2236.4348437536,-9745.9601242719,-7290.9447747910,-10120.0316276996,-22341.7043537481,-13090.8964839891,-5441.3940192197,-7258.1528318531,-3352.5290025347,-24919.5891057471,4290.3542351630,7247.2384078030,10015.7788013206
560506112933,24775,-2,0,1446.7756553383,4622.6175323071,9338.6464731239,-2241.3019224827,-9753.4675932116,-7289.2047941453,-10126.0424699301,-22348.3479162135,-13100.3629521173,-5447.5265384184,-7266.0983378785,-3361.2167380663,-24927.1939162614,4283.1266232502,7240.1081374647,10007.5899413588
560506112933,24775,-2,0,1434.1090829456,4611.3867481395,9326.5031116946,-2253.6034639707,-9760.4883542784,-7305.0958061960,-10133.9149697745,-22351.2073249668,-13107.5297255460,-5455.4842121406,-7278.1686931269,-3363.9423021547,-24932.2678458366,4278.3325507019,7237.7841073715,10007.7359537206
560506112933,24775,-2,0,1425.4213474140,4602.6990126079,9311.1839813945,-2261.2447775755,-9761.3522607529,-7323.9435685748,-10134.6693669776,-22347.3258296803,-13103.9889257706,-5456.4941309769,-7280.6265678851,-3357.0432180561,-24928.6418721834,4283.1144555533,7243.6367695434,10015.3042611445
560506112933,24775,-2,0,1425.5916951695,4603.5142482951,9306.6941012668,-2261.2569452724,-9757.1300699553,-7321.5465323007,-10129.2669095882,-22340.5605902468,-13098.8541577113,-5453.0263373824,-7270.1866840110,-3351.7502699381,-24923.8112965447,4288.8089376665,7249.6719471675,10019.5264519421
560506112933,24775,-2,0,1427.0153156978,4607.3227374006,9318.8374626961,-2253.8711533008,-9753.5040963021,-7299.8515288654,-10123.8279491083,-22341.0351304229,-13096.8221523419,-5446.4801164917,-7260.4038557654,-3352.0544623586,-24922.8865515861,4287.4096525318,7249.0148915391,10015.7788013206
560506112933,24775,-2,0,1424.1559069444,4601.6647583780,9324.7144602616,-2254.4552027483,-9755.4387600969,-7290.2025452848,-10125.9816314460,-22346.8269541106,-13099.5598841270,-5445.7865577727,-7261.3042653303,-3356.6781871514,-24928.7270460611,4284.7570946244,7244.2208189909,10011.0820703469
560506112933,24775,-2,0,1416.9039596380,4595.9337731744,9314.4692595367,-2261.9018332040,-9759.0890691438,-7301.2021432127,-10130.6540270260,-22348.0315560961,-13102.8086591787,-5451.9555800620,-7272.2308570773,-3357.5299259290,-24928.2890089755,4282.7494246487,7242.6390184039,10011.3862627675
560506142186,24776,-2,0,1411.7935269723,4590.9328497801,9300.0505388015,-2269.2632897819,-9758.7118705423,-7319.9403963200,-10131.0433933243,-22345.6223521251,-13100.5454675697,-5454.2552747615,-7275.3822905544,-3352.7115179871,-24925.7094572490,4286.9229446589,7247.5912710108,10017.2389249393
560506142186,24776,-2,0,1410.3334033536,4590.0689433057,9297.1181238672,-2270.6260718260,-9756.6433620824,-7321.5708676943,-10126.3344946538,-22341.2663166625,-13098.4647914129,-5452.8194865364,-7269.7121438349,-3350.5578356494,-24923.0203962512,4290.2203904979,7250.3046674023,10020.9257370767
560506142186,24776,-2,0,1413.4361660434,4593.3420537511,9306.2560641812,-2264.2988694781,-9757.6167778282,-7305.5703463721,-10124.5458432209,-22341.8990368973,-13099.6815610952,-5452.7099772650,-7261.8153085968,-3353.5510890679,-24924.6995384127,4287.9206957984,7248.6741960281,10015.0852426017
560506142186,24776,-2,0,1413.2171475006,4590.9206820833,9313.5445145781,-2262.7779073752,-9760.4153480975,-7294.5099099601,-10125.9451283555,-22346.2794077536,-13102.4922990613,-5452.9289958078,-7262.1803395015,-3358.4425031907,-24927.8631395867,4284.6354176562,7244.3424959591,10008.7458725569
560506142186,24776,-2,0,1409.9805401457,4587.5623977602,9312.2669064117,-2267.8153338599,-9761.7659624449,-7302.7596084060,-10131.9681382829,-22351.0369772113,-13104.2931181911,-5453.2940267125,-7270.5517149157,-3359.6714405698,-24928.4715244278,4283.2848033089,7241.3857456311,10004.7913710895
560506142186,24776,-2,0,1407.8633608985,4583.5592255054,9301.3403146647,-2274.8847657141,-9760.3058388261,-7320.7677997040,-10133.7932928063,-22348.2749100325,-13101.2025231981,-5455.1435166296,-7277.0736004128,-3356.4835040022,-24922.3998437132,4286.0347027909,7245.9729673334,10012.5421939657
560506142186,24776,-2,0,1405.2108029911,4581.6123940138,9290.8274246097,-2278.2065469467,-9757.1300699553,-7326.2919340616,-10131.5057658036,-22348.2870777293,-13098.8663254081,-5455.5450506247,-7275.3092843735,-3355.4249143786,-24918.3358329743,4289.4781609917,7246.6543583555,10015.8153044111
560506142186,24776,-2,0,1402.9111082916,4580.4442951188,9298.5904151827,-2277.7806775579,-9759.4541000485,-7314.0877341482,-10132.6616970018,-22353.6165289378,-13102.0299265821,-5453.8172376759,-7270.3813671602,-3361.7399490297,-24925.1862462856,4286.0712058813,7243.6611049370,10009.5854436377
560506175505,24777,-2,0,1396.7055829119,4573.9954158026,9300.7197621268,-2279.5936643845,-9764.9295636188,-7303.1489747044,-10137.0907386453,-22361.7202150219,-13108.9776814680,-5456.9443357594,-7272.3281986519,-3369.5151072996,-24932.8883983746,4278.6367431225,7236.8228593225,10002.3091609376
560506175505,24777,-2,0,1393.2256216205,4569.4812002813,9296.7409252657,-2284.4607431137,-9768.2756802451,-7309.0259722699,-10141.0087370223,-22362.5841214963,-13110.0606064852,-5459.4752166986,-7278.1808608237,-3368.9067224584,-24933.9713233918,4279.0261094208,7237.6989334938,10003.1487320184
560506175505,24777,-2,0,1392.0575227255,4567.9724058752,9289.4038040814,-2287.2958164735,-9765.6352900346,-7324.9656551079,-10140.9357308414,-22357.5101919211,-13106.0696019273,-5458.5261363464,-7281.3444619977,-3361.8129552106,-24927.5102763788,4286.7404292066,7246.6056875682,10014.4768577605
560506175505,24777,-2,0,1397.0584461197,4572.7299753330,9286.9459293232,-2284.5824200819,-9759.0647337502,-7329.3946967515,-10135.5819442393,-22351.1343187859,-13099.7667349730,-5455.6058891089,-7277.5603082857,-3354.7921941438,-24918.3114975807,4295.3794939509,7253.3222562144,10019.2587626120
560506175505,24777,-2,0,1401.8646863648,4578.9233330159,9295.7553418230,-2275.6026598266,-9757.3612561950,-7313.8443802117,-10131.0798964148,-22349.5281828053,-13098.7446484399,-5453.0871758665,-7269.7364792286,-3357.3595781734,-24918.8590439377,4294.9049537748,7252.3123373781,10009.5124374568
560506175505,24777,-2,0,1399.6988363303,4576.3316135926,9304.4187419609,-2273.2542943398,-9762.0458194718,-7301.0074600635,-10135.0587332759,-22356.4516022975,-13105.8992541718,-5454.6689764535,-7270.1501809206,-3366.0594814019,-24925.9528111855,4287.3488140477,7246.9585507760,10000.0094662381
560506175505,24777,-2,0,1393.6393233125,4570.1990943938,9300.8414390950,-2280.1533784384,-9767.1319167438,-7306.6654390862,-10142.9068977267,-22362.5719537995,-13111.7397486468,-5460.0592661461,-7281.1132757580,-3369.3447595440,-24929.7856356847,4282.3478906535,7244.5736821987,9999.0117150986
560506175505,24777,-2,0,1387.0322639376,4562.4969423049,9286.3862152693,-2290.1673929237,-9770.2468471304,-7326.9489896900,-10148.2606843288,-22362.7179661614,-13113.0416922068,-5465.6320712910,-7290.6040792799,-3366.1811583701,-24929.7491325942,4282.5060707122,7248.0414757933,10007.2492458477
560506211314,24778,-2,0,1383.4792964653,4558.3964284756,9274.7904001971,-2296.6406076335,-9766.9250658978,-7336.7074825420,-10145.5229525436,-22358.3132599114,-13107.9312595412,-5462.0182653345,-7285.8951806094,-3359.0508880318,-24925.4904387062,4287.5800002874,7254.0279826302,10019.0275763723
560506211314,24778,-2,0,1386.0101774045,4563.4095195666,9283.5389742128,-2289.4981695984,-9762.6055335256,-7321.9115632053,-10137.9789805134,-22352.7891255538,-13102.9546715406,-5456.0195908008,-7273.3867882755,-3355.3275728040,-24923.4462656400,4291.6561787230,7258.1406641563,10021.1934264068
560506211314,24778,-2,0,1387.9326735025,4566.1959221391,9294.0153611773,-2284.6432585661,-9762.6542043129,-7303.4166640345,-10135.9591428408,-22352.6552808888,-13103.7942426214,-5454.1579331869,-7266.9257412625,-3357.1405596306,-24926.0744881537,4290.5854214026,7255.4881062489,10015.3894350223
560506211314,24778,-2,0,1385.8033265585,4563.2391718111,9294.2100443265,-2287.5756735004,-9766.0489917265,-7305.6676879467,-10139.3660979512,-22354.9428078915,-13105.9600926559,-5454.6324733630,-7271.9875031408,-3358.7466956113,-24927.7171272248,4288.7237637887,7253.2249146398,10013.4547712274
560506211314,24778,-2,0,1381.5324649737,4558.4816023533,9284.9382593474,-2294.3774160244,-9767.4847799516,-7323.2743452495,-10142.5905376093,-22354.2614168694,-13105.9844280495,-5458.9033349479,-7281.3687973913,-3357.3717458703,-24924.6265322318,4290.6949306740,7252.4705174368,10015.6936274428
560506211314,24778,-2,0,1379.9993351740,4555.7073674777,9271.2252650279,-2298.5631037315,-9767.7403015849,-7337.5835567133,-10141.1304139905,-22351.3046665414,-13104.4756336435,-5460.5094709285,-7282.4517224085,-3353.2347289505,-24920.4408445247,4294.8806183811,7258.2988442150,10023.3836118349
560506211314,24778,-2,0,1383.5157995558,4562.4847746081,9278.8787463296,-2291.2989887282,-9765.6961285187,-7327.7033868931,-10137.2367510072,-22351.5966912652,-13104.9258384259,-5458.9520057352,-7274.4088748086,-3354.0986354249,-24920.9762231849,4291.0234584883,7253.7359579064,10019.1735887342
560506211314,24778,-2,0,1385.4747987443,4565.4780280265,9291.6913310841,-2285.6410097055,-9766.0246563329,-7311.5690209058,-10138.2710052371,-22354.6264477741,-13108.7221598347,-5456.3481186151,-7270.8924104268,-3360.6083532252,-24928.3498474596,4288.3952359745,7250.1708227373,10016.5575339173
560506241304,24779,-2,0,1383.4427933749,4563.4216872635,9294.0031934805,-2286.1155498816,-9770.2103440400,-7308.4784259128,-10140.7045446017,-22357.9725644004,-13112.0804441578,-5459.4022105176,-7276.4408801780,-3363.3339173135,-24931.9028149319,4283.3943125803,7245.5470979446,10013.3939327433
560506241304,24779,-2,0,1381.6054711546,4560.4892723291,9286.7634138708,-2291.1043055790,-9769.6262945925,-7322.7389665893,-10144.2331766804,-22357.8873905226,-13111.6545747690,-5461.6167313394,-7283.5103120321,-3361.0950610981,-24931.4404424526,4282.4939030154,7245.6687749128,10016.3020122840
560506241304,24779,-2,0,1378.5635469489,4557.7272051503,9275.9463313952,-2297.6870295603,-9768.8475619958,-7339.0558480289,-10145.2187601230,-22355.4051803708,-13108.9655137711,-5463.9894322199,-7284.6297401399,-3359.0265526382,-24928.6297044865,4282.5547414995,7246.5083459936,10019.8428120595
560506241304,24779,-2,0,1384.0268428224,4563.3000102952,9279.4506280803,-2292.6496030756,-9765.9759855456,-7331.2076835781,-10140.1813336384,-22354.5534415932,-13107.7365763920,-5461.7627437013,-7277.3899605302,-3358.9900495477,-24928.3255120660,4282.6520830741,7245.3402470986,10017.1659187584
560506241304,24779,-2,0,1386.2413636441,4565.6970465693,9291.8495111428,-2286.1520529721,-9765.7934700932,-7311.9827225978,-10138.5386945673,-22356.6827885372,-13109.7320786710,-5459.1223534907,-7271.4886275711,-3363.9423021547,-24932.6450444381,4278.8679293621,7240.6435161249,10011.4227658580
560506241304,24779,-2,0,1387.3486240550,4564.2247552538,9298.7120921510,-2286.2980653340,-9768.1905063674,-7308.2959104605,-10141.3859356238,-22360.8806439411,-13112.1899534292,-5458.0272607766,-7276.1975262416,-3368.5660269474,-24935.7843102184,4277.5538181053,7240.3149883107,10008.6241955887
560506241304,24779,-2,0,1384.4648799080,4561.4626880750,9290.0243566194,-2289.1209709969,-9768.1175001864,-7319.3076760852,-10142.9677362108,-22360.0167374667,-13111.3990531357,-5460.7771602586,-7285.2502926778,-3366.1081521891,-24931.6229579050,4283.2604679152,7244.1356451131,10012.8707217799
560506241304,24779,-2,0,1385.4139602602,4564.7357985203,9280.7282362467,-2291.7126904202,-9764.1873341126,-7333.0328381015,-10139.9136443082,-22353.6651997251,-13105.6437325385,-5458.7086517987,-7284.4958954748,-3358.4911739780,-24921.8279619625,4292.5809236816,7252.2514988940,10022.2885191209
560506282799,24780,-2,0,1389.8795049942,4568.1549213276,9285.5223087949,-2288.1718906447,-9761.5347762052,-7329.0296658468,-10137.4679372468,-22353.9450567520,-13104.7554906704,-5456.5793048547,-7278.1930285205,-3358.6736894303,-24920.0636459232,4295.2213138922,7253.0545668843,10023.3836118349
560506282799,24780,-2,0,1387.6163133851,4566.5974561342,9290.8152569129,-2285.4463265564,-9766.6330411740,-7314.3189203878,-10140.6680415113,-22360.5642838237,-13111.2773761675,-5458.6478133146,-7276.1366877574,-3366.3636738224,-24925.1740785888,4290.4637444344,7248.3821713043,10015.8274721079
560506282799,24780,-2,0,1382.9195824115,4561.8398866765,9293.9301872996,-2287.9528721019,-9772.7047218887,-7309.6951955951,-10145.1700893358,-22366.2344305432,-13116.4121442268,-5459.5603905763,-7280.8942572152,-3371.9973174514,-24930.6738775528,4286.3997336955,7243.8436203894,10011.1672442247
560506282799,24780,-2,0,1378.7825654917,4556.7902924950,9288.0775251277,-2293.3918325818,-9774.7123918645,-7321.9724016895,-10149.7573110380,-22366.6359645383,-13117.5072369409,-5461.1056880728,-7288.3530553677,-3371.3037587325,-24929.8099710784,4286.2658890305,7245.8391226683,10015.4624412032
560506282799,24780,-2,0,1378.5270438584,4554.1985730717,9275.4352881287,-2299.1593208758,-9770.9890766366,-7337.9120845275,-10147.0560823433,-22361.4038549045,-13112.6644936053,-5461.6288990362,-7289.3994772944,-3364.1734883943,-24925.0158985301,4292.2645635642,7252.1054865321,10024.1866798252
560506282799,24780,-2,0,1381.0214217071,4557.9827267836,9275.6543066715,-2297.1638185969,-9765.8908116678,-7334.4929617203,-10141.2642586556,-22357.3033410751,-13107.5783963333,-5459.4752166986,-7281.0646049707,-3359.0265526382,-24920.3921737374,4295.5255063127,7255.4151000680,10028.4818768037
560506282799,24780,-2,0,1383.6253088272,4560.8056324465,9288.8075869371,-2291.7370258138,-9764.1021602349,-7314.2945849942,-10139.3782656480,-22358.3254276083,-13106.2521173796,-5453.9389146441,-7272.0848447154,-3361.6182720615,-24920.8788816103,4292.8364453149,7253.9184733587,10025.4764556885
560506282799,24780,-2,0,1382.6762284750,4558.0557329645,9292.6890822236,-2291.2381502441,-9767.3509352866,-7306.5072590275,-10142.7365499712,-22363.3385186993,-13110.6446559327,-5456.3481186151,-7275.3457874639,-3367.8603005316,-24923.9451412097,4288.7237637887,7250.3290027960,10018.9667378882
560506346721,24781,-2,0,1376.3003553398,4552.5194309101,9284.7557438951,-2299.7312026265,-9772.3031878935,-7319.2468376011,-10149.4531186174,-22365.0298285577,-13114.6721635811,-5462.2251161805,-7285.8951806094,-3369.6246165710,-24926.2691713029,4287.1784662922,7248.5768544535,10018.0541606265
560506346721,24781,-2,0,1372.4918662342,4547.8105322396,9271.3347742994,-2306.5572805442,-9772.1815109253,-7339.7250713541,-10152.0205026471,-22364.3362698388,-13113.6865801384,-5465.6685743814,-7290.1660421943,-3365.9378044336,-24924.2249982366,4289.5389994759,7252.0446480480,10024.1745121284
560506346721,24781,-2,0,1374.8645671147,4549.4653390075,9269.2054273553,-2303.6126979130,-9768.0323263087,-7340.5646424349,-10147.0195792528,-22358.7878000875,-13109.2332031013,-5463.0403518677,-7284.0213552987,-3361.3992535187,-24918.4818453362,4297.3506608362,7256.8873913835,10027.1434301532
560506346721,24781,-2,0,1377.4684542348,4553.7848713797,9278.4042061535,-2296.8961292668,-9766.2193394821,-7320.8651412786,-10142.9555685140,-22357.0234840482,-13108.2476196586,-5458.1976085321,-7275.0294273466,-3362.2266569026,-24919.0658947837,4298.4335858534,7256.3276773297,10023.9311581920
560506346721,24781,-2,0,1379.1232610027,4554.1012314971,9289.6349903211,-2293.2579879167,-9766.3775195408,-7308.3567489446,-10141.7631342253,-22359.3110110509,-13109.1845323140,-5454.0119208251,-7272.0605093218,-3365.4024257734,-24921.4872664515,4295.7810279460,7254.2956719603,10020.3295199324
560506346721,24781,-2,0,1376.3976969144,4550.6942763867,9287.4448048929,-2297.2733278683,-9768.1053324896,-7317.1904968380,-10145.6324618150,-22359.9558989825,-13112.2872950038,-5457.6257267815,-7281.5999836309,-3366.4853507907,-24922.6918684369,4293.4448301560,7252.7503744637,10019.6967996976
560506346721,24781,-2,0,1373.6599651292,4547.8348676333,9273.6466366957,-2304.2089150573,-9769.1882575069,-7337.0846811436,-10147.6766348813,-22357.9603967036,-13111.8249225245,-5462.4197993297,-7288.5234031232,-3362.1414830249,-24919.9541366518,4295.3308231636,7253.7116225128,10023.7851458301
560506346721,24781,-2,0,1376.6045477604,4552.4950955165,9271.6146313263,-2301.2643324262,-9766.4140226312,-7341.3555427284,-10143.7586365043,-22354.4195969281,-13108.3692966268,-5459.0250119161,-7283.0722749465,-3359.7444467507,-24917.8004543141,4295.8662018238,7254.6728705618,10026.7175607644
560506352628,24782,-2,0,1380.6442231056,4559.7713782166,9283.4294649414,-2293.0633047675,-9765.7204639123,-7324.6979657778,-10139.6581226750,-22355.5998635199,-13109.1358615267,-5457.0051742435,-7275.1876074053,-3362.4578431423,-24922.9838931607,4293.5908425179,7251.7039525370,10021.8261466416
560506352628,24782,-2,0,1383.8443273700,4562.8741409064,9293.1636223997,-2286.4075746054,-9766.8398920200,-7310.1819034680,-10141.1182462937,-22361.1483332712,-13112.9321829354,-5458.5139686495,-7276.3557063003,-3368.5660269474,-24929.9559834402,4286.6917584193,7243.6976080275,10012.3718462102
560506352628,24782,-2,0,1381.3742849150,4559.2359995564,9292.8959330696,-2289.1453063905,-9771.2202628763,-7317.5068569554,-10147.7009702749,-22367.0983370176,-13117.6289139091,-5463.4175504692,-7286.8199255680,-3373.5304472511,-24934.5432051425,4280.4862330396,7239.2807340807,10009.6341144250
560506352628,24782,-2,0,1378.1376775601,4555.8290444459,9282.1518567749,-2298.8429607584,-9770.5267041574,-7337.0968488404,-10151.3634470186,-22368.6436345141,-13117.0083613711,-5468.3819707729,-7296.7852692660,-3372.7760500481,-24932.6693798318,4279.3911403255,7241.3005717534,10014.0388206749
560506352628,24782,-2,0,1380.4373722596,4557.3865096393,9275.8611575175,-2298.9281346362,-9767.8741462500,-7342.8765048313,-10149.3922801333,-22364.8351454085,-13111.9709348864,-5468.2724615015,-7293.5608296079,-3368.8093808838,-24928.9338969071,4283.6863373040,7244.7440299543,10019.3317687929
560506352628,24782,-2,0,1383.8199919764,4562.9836501778,9285.0356009220,-2292.1993982931,-9765.5379484600,-7326.7664742377,-10145.3039340008,-22364.3362698388,-13110.3282958153,-5461.7140729140,-7282.9262625846,-3369.0405671235,-24928.6418721834,4284.5989145657,7244.6223529860,10016.9955710029
560506352628,24782,-2,0,1386.3387052187,4564.6871277330,9297.8725210702,-2286.3224007276,-9763.8588062984,-7308.9773014826,-10142.5662022156,-22365.8085611544,-13112.1047795515,-5458.7451548892,-7279.6044813520,-3372.1554975101,-24930.4061882227,4282.7250892550,7241.0085470296,10012.1284922737
560506352628,24782,-2,0,1386.0953512823,4563.6285381094,9297.8846887670,-2285.2273080136,-9764.8687251347,-7311.5325178154,-10144.3305182550,-22365.7963934576,-13113.0660276005,-5460.3147877793,-7285.6031558857,-3373.1532486496,-24932.0366595970,4280.6930838856,7240.0107958901,10009.2690835203
560506376248,24783,-2,0,1382.4450422354,4560.0999060308,9286.9702647168,-2290.9582932172,-9764.6983773792,-7329.2121812991,-10145.2795986072,-22362.8518108264,-13111.4477239230,-5462.5414762979,-7291.3949795734,-3369.2352502726,-24929.5301140514,4282.6885861645,7242.3713290738,10015.4989442937
560506376248,24783,-2,0,1383.1020978638,4561.6087004368,9280.3023668579,-2291.8343673884,-9761.4130992370,-7337.8269106498,-10140.7410476922,-22354.2979199599,-13107.7974148761,-5461.4342158870,-7286.6374101156,-3361.3019119441,-24925.1497431952,4287.5313295001,7247.1775693188,10022.6413823287
560506376248,24783,-2,0,1386.8375807885,4567.7047165451,9286.4105506630,-2285.3124818913,-9758.0061441266,-7323.2621775527,-10135.8009627821,-22353.4461811823,-13105.0718507878,-5458.2097762290,-7276.6233956304,-3360.0729745650,-24924.3953459922,4288.9306146347,7247.5669356172,10021.9113205194
560506376248,24783,-2,0,1387.6893195661,4568.5564553227,9296.5584098133,-2282.4044023506,-9760.8777205768,-7305.8867064895,-10136.7865462248,-22358.7147939066,-13109.4157185536,-5455.1921874169,-7273.0217573708,-3365.2077426242,-24930.0654927116,4284.4042314166,7242.5660122229,10015.5719504746
560506376248,24783,-2,0,1385.3409540792,4565.1738356060,9298.5660797891,-2284.3877369328,-9764.7957189538,-7308.1012273113,-10142.2741774919,-22363.7522203913,-13113.6257416543,-5457.1633543022,-7280.0668538313,-3369.9896474757,-24934.7135528980,4280.1698729222,7239.1468894157,10011.5809459167
560506376248,24783,-2,0,1381.2526079467,4558.3234222946,9286.7512461740,-2292.7712800438,-9766.3045133598,-7325.5375368586,-10145.6811326023,-22362.0122397456,-13114.5991574002,-5462.1642776964,-7289.3751419008,-3367.5196050206,-24933.8739818172,4281.4961518759,7242.2861551960,10015.0852426017
560506376248,24783,-2,0,1383.8564950668,4560.0147321530,9278.3920384567,-2295.2656578925,-9762.6298689193,-7336.1599361850,-10141.7996373158,-22355.6363666104,-13109.9145941233,-5460.6433155936,-7285.4814789175,-3360.5718501347,-24929.8951449561,4286.9716154462,7247.9928050060,10023.4322826222
560506376248,24783,-2,0,1388.0300150771,4565.1495002123,9287.5664818612,-2288.0502136765,-9760.2450003420,-7323.0553267067,-10135.7036212075,-22351.2316603605,-13107.1038561572,-5455.3990382629,-7273.8613284516,-3357.9679630146,-24928.3011766723,4290.0257073488,7251.1077353926,10025.6346357472
560506397443,24784,-2,0,1391.2057839479,4568.7024676846,9298.5539120923,-2280.7739309764,-9760.4518511880,-7305.8258680054,-10132.9658894223,-22350.9396356367,-13109.1967000108,-5453.0628404729,-7268.7508957859,-3359.8661237190,-24931.5256163304,4286.8499384780,7249.1365685073,10019.5994581230
560506397443,24784,-2,0,1390.0255173561,4567.5708718801,9304.0293756626,-2280.5549124336,-9763.4329369096,-7303.1368070075,-10135.2290810314,-22353.5435227569,-13112.1777857324,-5455.0826781455,-7271.5859691457,-3363.5772712500,-24933.8496464236,4283.2848033089,7245.6687749128,10015.9004782888
560506397443,24784,-2,0,1384.4892153016,4563.2148364175,9294.2465474170,-2287.4661642290,-9764.5036942300,-7320.4636072834,-10138.6603715355,-22354.4195969281,-13111.3260469548,-5458.1489377449,-7281.7216605992,-3362.1901538122,-24932.8518952841,4283.9418589373,7246.7030291427,10018.9910732818
560506397443,24784,-2,0,1386.2170282505,4563.9448982268,9285.9725135774,-2289.4494988111,-9759.2229138089,-7331.5362113923,-10135.8983043567,-22350.0270583750,-13105.7410741131,-5459.1953596716,-7282.9749333719,-3357.1648950243,-24922.8378807988,4289.9161980774,7252.0324803512,10024.9045739378
560506397443,24784,-2,0,1392.5320629016,4570.6127960858,9290.1947043749,-2283.0492902823,-9753.4675932116,-7320.9381474595,-10130.5688531482,-22348.9684687514,-13101.8595788265,-5453.8172376759,-7274.7374026228,-3355.8629514642,-24920.2583290724,4293.2379793100,7251.1199030895,10022.8360654779
560506397443,24784,-2,0,1395.4766455327,4572.9489938758,9302.9342829485,-2276.1867092741,-9753.5284316957,-7303.5870117900,-10129.2304064977,-22351.7548713239,-13102.8451622692,-5450.3494440813,-7269.2862744461,-3360.5231793474,-24924.2371659335,4289.4051548108,7248.6620283312,10019.6967996976
560506397443,24784,-2,0,1396.3770550976,4573.8250680471,9308.5314234871,-2273.2542943398,-9755.8037910016,-7298.7077653640,-10132.4670138526,-22356.2690868452,-13107.4567193651,-5454.8514919058,-7274.5305517768,-3364.5141839053,-24925.8798050046,4283.2848033089,7243.4907571815,10013.9779821908
560506397443,24784,-2,0,1393.6393233125,4569.4933679781,9298.3348935495,-2280.7130924922,-9759.9773110119,-7314.9394729258,-10137.2489187040,-22358.5079430606,-13109.5373955218,-5459.4387136081,-7284.8122555922,-3365.0860656560,-24929.1042446626,4280.9121024284,7244.3789990496,10017.6282912377
560506436447,24785,-2,0,1393.1161123491,4567.7168842420,9288.6007360911,-2286.3345684244,-9757.9574733393,-7331.5240436955,-10138.0763220880,-22357.4371857402,-13108.0894395999,-5459.6333967573,-7286.0655283650,-3362.0806445407,-24928.6540398802,4283.5768280326,7247.7616187663,10023.9798289793
560506436447,24785,-2,0,1394.8560929948,4570.3329390589,9291.5818218127,-2282.8911102236,-9754.4166735638,-7325.2941829221,-10133.0023925128,-22353.6773674219,-13105.2543662401,-5455.7032306834,-7276.9032526573,-3357.7246090781,-24925.4417679189,4286.4240690892,7250.7670398816,10026.4742068280
560506436447,24785,-2,0,1398.0196941687,4574.0562542867,9305.3799900099,-2275.4201443743,-9753.0903946101,-7303.0151300393,-10127.6364382139,-22352.9229702189,-13104.5364721276,-5449.1570097927,-7267.3029398640,-3358.1991492542,-24927.0722392932,4286.8012676907,7249.6476117739,10024.5882138204
560506436447,24785,-2,0,1397.6059924768,4573.7885649566,9312.9726328275,-2273.0961142811,-9755.2197415541,-7294.3517299014,-10130.2889961213,-22355.2956710994,-13105.6924033258,-5446.1759240711,-7268.6048834240,-3362.0928122376,-24927.7414626185,4284.5015729912,7246.5691844777,10020.9865755608
560506436447,24785,-2,0,1392.3373797524,4566.4149406819,9303.3479846405,-2281.3701481207,-9758.8943859946,-7309.3058292968,-10135.3994287869,-22356.9018070800,-13109.6104017028,-5451.5175429764,-7278.6554009998,-3363.2365757389,-24929.1164123595,4283.2969710057,7246.5448490840,10022.4710345732
560506436447,24785,-2,0,1388.3098721040,4564.2369229506,9287.6516557389,-2289.2183125715,-9761.2062483910,-7328.4821194897,-10138.6117007482,-22355.0888202534,-13109.5252278250,-5454.5351317884,-7283.4616412449,-3359.5132605111,-24924.4440167794,4284.5989145657,7247.0680600474,10028.1776843832
560506436447,24785,-2,0,1387.2026116931,4564.7479662172,9285.0477686188,-2290.1430575300,-9762.1796641368,-7329.7353922625,-10137.9546451198,-22353.3245042140,-13109.7929171551,-5453.6225545267,-7278.0591838555,-3358.7953663986,-24926.8532207504,4286.1928828495,7249.5624378961,10033.1907754742
560506436447,24785,-2,0,1387.8718350184,4566.5001145597,9294.7575906835,-2282.8667748299,-9762.8123843716,-7313.0413122214,-10137.2854217945,-22356.3299253293,-13112.5428166371,-5452.2354370889,-7271.1479320600,-3363.1879049516,-24929.8708095625,4284.4285668102,7247.8102895536,10029.1632678258
560506463640,24786,-2,0,1388.7235737960,4568.1427536308,9303.4574939119,-2278.3890623991,-9766.6938796581,-7304.4509182644,-10137.9668128166,-22358.7269616034,-13116.5216534982,-5450.9699966193,-7271.2331059378,-3366.6313631525,-24933.3629385507,4281.0216116998,7245.5714333382,10024.9045739378
560506463640,24786,-2,0,1384.7204015413,4562.5577807890,9299.3083092953,-2283.4264888838,-9769.0422451450,-7315.2923361337,-10143.9654873503,-22360.5521161269,-13117.9331063297,-5454.2309393679,-7280.8090833374,-3367.7994620475,-24934.0443295727,4280.7539223697,7244.4398375337,10027.2894425151
560506463640,24786,-2,0,1384.7934077222,4559.9295582753,9289.6471580179,-2288.5612569430,-9767.5821215262,-7333.6533906395,-10143.2354255409,-22356.4394346007,-13115.5725731460,-5457.4553790259,-7285.5179820079,-3362.6403585946,-24929.1285800563,4285.5114918275,7249.2825808692,10032.8257445695
560506463640,24786,-2,0,1388.7600768865,4565.7457173566,9287.6759911326,-2288.3179030066,-9762.5446950415,-7332.9233288301,-10138.2953406308,-22352.1807407127,-13111.7884194341,-5456.6279756420,-7280.4318847359,-3358.1383107701,-24925.7946311268,4288.9184469379,7251.2294123609,10034.1276881296
560506463640,24786,-2,0,1391.5708148526,4569.3108525258,9300.2817250411,-2280.7739309764,-9759.1134045375,-7313.1994922801,-10133.3430880239,-22350.3069154020,-13109.6347370964,-5450.8239842574,-7270.4422056443,-3359.4524220270,-24925.1619108920,4289.3686517203,7249.5624378961,10030.9032484715
560506463640,24786,-2,0,1395.6956640756,4573.5452110201,9313.7391977273,-2273.1447850684,-9756.8380452316,-7298.4765791244,-10130.5566854514,-22351.7427036271,-13108.4544705046,-5449.0109974308,-7267.4489522259,-3359.3550804524,-24923.4097625495,4287.6651741651,7247.1045631379,10024.6612200013
560506463640,24786,-2,0,1395.3671362613,4572.0607520077,9309.5291746266,-2276.0406969122,-9757.8357963710,-7307.2859916242,-10132.4183430653,-22349.5160151085,-13108.7586629252,-5453.8537407664,-7276.1488554543,-3357.8584537432,-24924.0668181779,4289.2956455394,7250.4993505515,10027.7761503880
560506463640,24786,-2,0,1394.0530250045,4568.6537968973,9297.9698626448,-2280.8591048541,-9757.6289455251,-7327.8128961645,-10134.4503484347,-22348.9441333578,-13108.1502780840,-5460.0105953588,-7283.1452811275,-3354.5001694201,-24920.3556706469,4290.2082228011,7252.0324803512,10032.2416951220
560506493803,24787,-2,0,1393.0674415618,4569.4812002813,9292.0563619888,-2281.8446882968,-9758.2008272757,-7335.2473589233,-10134.6450315839,-22348.0315560961,-13107.6148994238,-5464.0867737944,-7282.6220701641,-3353.5024182806,-24921.4264279674,4291.6075079358,7253.9793118429,10034.0790173423
560506493803,24787,-2,0,1391.6438210335,4571.3306901984,9294.1857089328,-2278.1822115531,-9761.1697453005,-7323.4690283987,-10133.0753986938,-22350.7571201844,-13110.6689913264,-5466.4229715845,-7278.2538670046,-3358.6736894303,-24925.4174325253,4288.7237637887,7250.9252199403,10027.5206287547
560506493803,24787,-2,0,1389.8186665101,4570.2964359684,9301.1943023029,-2276.2840508487,-9763.9074770857,-7311.3013315757,-10136.3606768359,-22358.4106014860,-13113.8204248035,-5467.8222567191,-7278.3755439729,-3365.8404628590,-24931.2092562130,4284.7692623213,7246.0824766048,10020.2078429641
560506493803,24787,-2,0,1385.3166186856,4564.2247552538,9297.0937884735,-2285.2151403167,-9767.7159661913,-7318.7236266377,-10142.2255067046,-22363.2046740343,-13116.9596905838,-5470.7060008661,-7287.1849564727,-3368.9675609425,-24932.3286843207,4282.3113875630,7244.2329866877,10019.2830980056
560506493803,24787,-2,0,1382.6518930814,4558.2260807201,9282.3952107114,-2292.6130999851,-9767.8863139468,-7336.9995072658,-10145.0362446707,-22362.8883139169,-13115.8402624761,-5473.8330989496,-7295.0817917108,-3366.5948600621,-24929.9681511371,4284.5015729912,7246.4231721158,10024.3083567935
560506493803,24787,-2,0,1381.5081295800,4558.2625838105,9274.9242448621,-2294.8762915942,-9764.7957189538,-7342.2437845965,-10141.3616002302,-22359.0311540240,-13112.0196056737,-5469.9394359663,-7290.1052037102,-3361.7886198170,-24927.3764317138,4286.2293859400,7247.1897370157,10028.0195043245
560506493803,24787,-2,0,1384.8542462063,4563.0323209651,9283.6728188778,-2288.3909091875,-9764.0169863571,-7325.8173938855,-10138.1979990562,-22360.9536501220,-13111.3868854389,-5463.1985319264,-7281.4418035722,-3365.0495625655,-24928.7635491516,4280.9364378220,7243.0405523990,10022.7508916001
560506493803,24787,-2,0,1384.8177431159,4564.7114631267,9294.3073859011,-2281.5039927857,-9764.3211787777,-7307.6631902257,-10137.9546451198,-22362.7666369486,-13114.1732880114,-5459.3292043367,-7278.9960965108,-3369.3934303313,-24934.6040436266,4278.6245754257,7240.9112054550,10018.2853468661
560506520169,24788,5,0,1381.0700924944,4560.0147321530,9293.8815165123,-2284.6310908692,-9768.0809970960,-7310.8754621869,-10141.2885940492,-22362.2434259853,-13116.7285043442,-5457.9907576862,-7284.8730940763,-3370.7683800723,-24934.9447391376,4277.6146565894,7239.8161127410,10018.6868808613
560506520169,24788,5,0,1379.4274534233,4556.8511309791,9286.9094262327,-2291.1043055790,-9767.6672954040,-7327.4356975630,-10142.7852207585,-22361.5985380536,-13113.9542694686,-5457.9907576862,-7289.1317879643,-3364.4655131180,-24929.9559834402,4281.3866426045,7245.8877934556,10026.8392377326
560506520169,24788,5,0,1381.9461666656,4556.9606402505,9279.1221002660,-2291.7856966011,-9764.8808928315,-7335.9530853390,-10139.1349117116,-22356.5002730848,-13110.4986435708,-5457.1511866054,-7284.8730940763,-3358.7466956113,-24922.7892100115,4287.2879755636,7251.9959772607,10033.7139864376
560506520169,24788,5,0,1381.8001543038,4557.8488821186,9283.4051295477,-2290.3499083760,-9765.5987869441,-7323.7488854256,-10137.3584279754,-22356.6341177499,-13110.8880098692,-5455.2408582042,-7276.5260540558,-3360.4745085601,-24924.7360415032,4286.1442120623,7251.0833999990,10030.0758450875
560506520169,24788,5,0,1379.4031180296,4557.1066526124,9295.1591246787,-2286.2007237594,-9769.1274190227,-7307.5658486511,-10137.8573035452,-22360.2479237063,-13115.1588714540,-5453.2818590157,-7272.2551924709,-3366.2419968542,-24930.2480081640,4281.3744749077,7247.2262401061,10024.8559031505
560506520169,24788,5,0,1376.0083306160,4553.0183064798,9293.8936842091,-2289.5590080825,-9772.3153555903,-7309.3545000841,-10140.8870600541,-22360.2844267968,-13117.8114293614,-5454.8149888154,-7278.3268731856,-3366.4001769129,-24931.8419764478,4278.5880723352,7246.5935198713,10023.0429163239
560506520169,24788,5,0,1372.5162016279,4549.4653390075,9283.5876450001,-2295.8740427336,-9772.4248648618,-7325.9025677633,-10142.2620097951,-22360.6737930951,-13117.0813675520,-5457.0781804244,-7285.2624603746,-3361.6426074551,-24927.8023011026,4285.4993241306,7251.2415800577,10027.8369888721
560506520169,24788,5,0,1372.4553631437,4549.5505128853,9277.5037965886,-2298.1250666459,-9769.2125929005,-7337.3158673832,-10139.2930917703,-22355.7702112755,-13110.7541652041,-5455.4842121406,-7283.5711505163,-3356.2523177626,-24917.7274481332,4291.7900233881,7257.2524222882,10033.9695080709
560506552075,24789,5,0,1376.5315415794,4554.4419270081,9282.5168876796,-2290.7027715839,-9765.5014453695,-7325.1846736507,-10134.7667085521,-22352.6796162824,-13107.9190918444,-5452.1502632111,-7276.2461970288,-3355.9846284325,-24915.3425795559,4297.3384931394,7257.4349377406,10031.3412855571
560506552075,24789,5,0,1380.5833846215,4558.5911116248,9295.9378572753,-2283.7915197885,-9764.6740419855,-7307.1521469591,-10134.9370563077,-22356.6097823562,-13109.0141845584,-5451.2133505558,-7271.0384227886,-3360.8395394648,-24918.9685532091,4294.0532149972,7252.6530328892,10024.4665368522
560506552075,24789,5,0,1379.2571056678,4555.5370197222,9299.3448123858,-2284.8257740184,-9766.2436748757,-7305.7406941277,-10138.6725392323,-22359.7612158334,-13109.6347370964,-5451.9799154556,-7276.4043770875,-3364.1126499102,-24922.3511729259,4292.3984082292,7249.8666303167,10021.9721590035
560506552075,24789,5,0,1377.7239758681,4552.9209649053,9290.9856046684,-2289.5833434762,-9763.7858001175,-7321.4613584229,-10139.3174271639,-22357.5223596180,-13107.9677626317,-5456.7253172166,-7285.5179820079,-3359.4280866333,-24918.6765284854,4295.5985124937,7252.9207222193,10028.2141874736
560506552075,24789,5,0,1380.8997447389,4555.7073674777,9283.1861110049,-2291.3233241219,-9758.6266966645,-7334.7606510504,-10135.3142549092,-22349.1144811133,-13102.7964914819,-5455.5207152311,-7283.8996783305,-3351.1540527937,-24912.2276491692,4301.8405409639,7258.1406641563,10037.0966061544
560506552075,24789,5,0,1384.0025074287,4559.4306827055,9287.6273203453,-2287.4053257449,-9755.8159586984,-7325.0264935920,-10129.2182388009,-22347.7882021596,-13098.6229714716,-5450.4346179591,-7275.1876074053,-3350.7160157081,-24911.2298980297,4302.2907457463,7258.1284964595,10038.7635806191
560506552075,24789,5,0,1386.0101774045,4562.2049175812,9297.1059561703,-2280.9929495192,-9757.0813991680,-7308.6852767588,-10128.8775432898,-22351.7062005366,-13103.2588639612,-5452.0894247270,-7273.0095896739,-3355.9481253420,-24917.4110880158,4295.6228478873,7251.5457724783,10031.3412855571
560506552075,24789,5,0,1382.2016882989,4558.3842607788,9295.9256895785,-2283.0614579791,-9763.6154523619,-7307.6875256193,-10135.0222301854,-22357.6075334957,-13110.1579480598,-5456.0317584977,-7280.0911892249,-3362.9323833184,-24924.8820538651,4287.6895095588,7246.0459735143,10026.5715484025
560506601729,24790,5,0,1372.1390030263,4551.4608412865,9284.6827377141,-2293.3066587040,-9770.8430642748,-7326.5596233917,-10143.0772454822,-22362.7301338582,-13114.9520206080,-5462.6388178725,-7292.8064324049,-3364.3925069371,-24926.7315437822,4285.7548457639,7244.5371791083,10027.2894425151
560506601729,24790,5,0,1368.1114953780,4547.5671783032,9270.5925447932,-2299.4026748123,-9771.6461322651,-7343.9837652422,-10145.0849154580,-22360.8806439411,-13113.7595863194,-5466.2647915258,-7295.9700335788,-3360.8638748585,-24923.8964704224,4289.1983039648,7248.4430097884,10032.0956827602
560506601729,24790,5,0,1369.4012712412,4550.1102269392,9269.6921352283,-2295.6550241908,-9769.1882575069,-7337.7417367720,-10140.3273460002,-22357.6927073735,-13111.3747177421,-5462.1156069091,-7287.6351612551,-3358.5885155526,-24922.3633406227,4292.5930913784,7251.5336047815,10034.1155204328
560506601729,24790,5,0,1376.2638522493,4556.6199447394,9286.4835568439,-2286.4927484831,-9765.5014453695,-7312.8952998595,-10135.1195717600,-22357.5466950116,-13109.6834078837,-5454.2796101552,-7276.5625571462,-3359.5375959048,-24923.7139549701,4291.7170172072,7249.4042578374,10030.2705282367
560506601729,24790,5,0,1376.6167154572,4557.0093110378,9293.0297777347,-2283.6455074266,-9767.9349847341,-7304.0372165724,-10136.7500431343,-22359.9072281953,-13112.2994627006,-5453.9997531282,-7279.6774875329,-3363.2609111326,-24929.7369648974,4285.2924732847,7245.3645824922,10023.9189904951
560506601729,24790,5,0,1375.9839952224,4554.9164671842,9286.2888736947,-2285.7018481897,-9769.6993007734,-7317.3608445936,-10139.5729487972,-22360.2722590999,-13114.9520206080,-5458.5261363464,-7289.4481480817,-3363.0662279834,-24931.2700946971,4280.9729409125,7243.9044588735,10024.5517107299
560506601729,24790,5,0,1377.4806219316,4557.0093110378,9280.4605469166,-2288.7316046986,-9768.5068664848,-7332.6556395000,-10137.1637448263,-22353.4340134854,-13111.6789101627,-5457.6987329624,-7289.4481480817,-3356.7633610291,-24927.0965746868,4283.1509586438,7247.4574263458,10031.7428195523
560506601729,24790,5,0,1381.9218312720,4561.4018495909,9283.1982787017,-2283.7185136075,-9763.3842661223,-7325.3185183158,-10130.2646607277,-22349.1144811133,-13106.9456760985,-5451.3228598272,-7278.5945625157,-3350.9228665541,-24925.0158985301,4286.7769322970,7252.0811511385,10034.6508990930
560506614047,24791,5,0,1388.6992384024,4569.6515480368,9298.0672042194,-2272.7919218605,-9759.9164725278,-7302.3215713204,-10124.3876631622,-22346.5470970837,-13104.8406645482,-5444.4602788190,-7266.0131640008,-3349.7669353559,-24925.5999479776,4288.4804098523,7251.0590646054,10032.0713473665
560506614047,24791,5,0,1388.6383999183,4569.0674985893,9307.5458400444,-2270.0785254690,-9761.6321177798,-7292.1858798669,-10124.0469676511,-22348.0923945802,-13105.9965957463,-5440.6396220166,-7263.9324878440,-3351.8719469063,-24926.5855314203,4287.5191618032,7250.4993505515,10030.4652113859
560506614047,24791,5,0,1386.0466804950,4566.2689283200,9305.0149591053,-2273.5463190635,-9761.6686208703,-7301.0682985476,-10126.1763145951,-22346.5349293868,-13104.9866769100,-5442.3552672687,-7270.8680750331,-3350.4483263780,-24924.4561844763,4290.7801045518,7253.9428087524,10034.8455822421
560506614047,24791,5,0,1382.1165144212,4562.5577807890,9290.2433751622,-2282.1245453237,-9762.5811981320,-7320.9624828532,-10129.1939034072,-22345.9752153330,-13103.7090687436,-5446.7234704281,-7278.3877116697,-3348.0877931944,-24920.0271428327,4295.8296987333,7255.6219509140,10041.9880202772
560506614047,24791,5,0,1380.5347138342,4560.2945891800,9284.6705700173,-2286.9551209624,-9762.8853905526,-7328.0319147073,-10131.4692627131,-22349.2848288688,-13103.9889257706,-5448.6703019198,-7276.5990602367,-3350.8985311605,-24918.8955470282,4296.2434004253,7255.2082492220,10041.5134801011
560506614047,24791,5,0,1379.1597640932,4561.5235265591,9294.0518642678,-2283.0979610695,-9766.0976625138,-7315.0611498940,-10133.5864419603,-22355.0279817692,-13107.6514025143,-5451.2620213431,-7273.4841298500,-3358.7953663986,-24922.5945268624,4293.1649731291,7249.8666303167,10035.1619423595
560506614047,24791,5,0,1375.4364488654,4557.9462236931,9298.7850983319,-2281.6743405413,-9770.0278285876,-7306.1300604260,-10137.4436018532,-22360.4669422491,-13113.0781952973,-5454.2187716710,-7275.4309613417,-3364.2343268784,-24924.5778614445,4289.8553595933,7243.8314526925,10028.3845352292
560506614047,24791,5,0,1372.6743816866,4553.2129896290,9295.4876524929,-2285.5315004341,-9772.5100387395,-7316.7159566620,-10142.4931960347,-22363.2898479120,-13115.3535546032,-5458.8424964638,-7284.4715600812,-3365.4389288639,-24923.4706010336,4289.3321486299,7244.0383035385,10029.1511001290
560506645271,24792,5,0,1373.4652819800,4554.1377345876,9286.4957245407,-2291.2624856377,-9770.0764993749,-7334.6024709917,-10143.0529100886,-22357.0599871387,-13110.7419975073,-5458.9885088256,-7288.4625646391,-3360.4136700760,-24915.1965671940,4295.5376740096,7248.9905561455,10035.8676687753
560506645271,24792,5,0,1375.7649766796,4556.7051186172,9283.0400986430,-2289.6928527476,-9764.1995018094,-7336.6466440579,-10136.3120060487,-22352.9351379157,-13104.8041614577,-5456.4819632801,-7282.4760578022,-3353.5875921583,-24909.2708988412,4302.9843044652,7255.5367770362,10040.4913935680
560506645271,24792,5,0,1381.4351233991,4562.9471470874,9294.4655659598,-2282.9154456172,-9759.9408079214,-7315.9737271558,-10131.2867472608,-22351.7670390207,-13101.8230757361,-5449.8018977243,-7271.0992612727,-3354.3541570582,-24910.4389977362,4303.6900308809,7256.6318697503,10037.7414940860
560506645271,24792,5,0,1381.5933034578,4563.3365133857,9305.5625054623,-2279.1069565116,-9761.0237329387,-7300.4112429192,-10131.5544365909,-22355.2104972216,-13101.7744049488,-5444.3507695476,-7269.3471129302,-3357.9071245305,-24915.9266290034,4300.3925850419,7253.4195977890,10032.4728813617
560506645271,24792,5,0,1381.0822601912,4561.4018495909,9304.4430773546,-2280.7130924922,-9760.5126896721,-7303.8060303328,-10132.6860323954,-22356.5489438721,-13102.3219513058,-5446.3827749171,-7276.8302464763,-3358.1748138606,-24915.7684489447,4299.9667156531,7251.7039525370,10028.9685846767
560506645271,24792,5,0,1380.4982107437,4558.5546085343,9293.7963426345,-2285.8965313388,-9759.1255722343,-7320.7191289167,-10133.9149697745,-22353.8598828743,-13099.0488408604,-5447.7942277485,-7282.4395547117,-3352.2978162951,-24913.8702882403,4301.0739760640,7257.8851425230,10037.8996741447
560506645271,24792,5,0,1383.0899301670,4560.2824214831,9289.5498164433,-2285.9452021261,-9753.0782269133,-7324.3329348731,-10130.6783624196,-22351.2073249668,-13094.5224576423,-5444.8009743301,-7276.4530478748,-3348.7205134292,-24910.0617991347,4304.0793971793,7259.8198063179,10041.4404739202
560506645271,24792,5,0,1388.8574184611,4566.6339592247,9300.7806006109,-2277.4764851373,-9749.7929487711,-7305.9110418832,-10125.0082157001,-22348.8224563895,-13095.3741964199,-5443.0001552003,-7267.9234924020,-3350.5213325590,-24912.7386924358,4299.1758153596,7256.3398450265,10036.0501842276
560506711685,24793,5,0,1392.0940258160,4569.1770078607,9312.9726328275,-2270.9545996402,-9752.0561403801,-7290.1660421943,-10124.5093401304,-22351.0856479986,-13098.9028284986,-5441.3575161292,-7265.1370898295,-3355.1815604421,-24918.0194728569,4294.5399228701,7251.6309463560,10030.0758450875
560506711685,24793,5,0,1391.3639640066,4568.5686230196,9312.6562727101,-2272.7675864669,-9755.8767971826,-7293.3296433683,-10128.2691584487,-22352.8742994316,-13101.1538524108,-5444.5941234841,-7273.2407759136,-3356.9580441783,-24920.8910493071,4290.5245829185,7249.2825808692,10027.8126534785
560506711685,24793,5,0,1386.7402392139,4565.4658603297,9299.3934831731,-2279.9830306829,-9757.8844671583,-7313.6375293657,-10132.0776475543,-22352.9716410062,-13103.1615223866,-5450.1182578417,-7283.6684920908,-3354.6340140851,-24919.3214164170,4292.7391037403,7253.1884115494,10032.3755397871
560506711685,24793,5,0,1385.3774571697,4563.8962274396,9289.0022700863,-2283.0371225854,-9758.4320135154,-7325.5497045554,-10131.9681382829,-22352.0955668349,-13101.6283925869,-5450.7874811670,-7282.0380207166,-3351.6650960603,-24916.5593492382,4296.7422759950,7256.0721556964,10037.6198171178
560506711685,24793,5,0,1388.3950459818,4568.3131013863,9296.4975713292,-2277.9996961007,-9758.2373303662,-7312.5181012580,-10127.7824505758,-22349.9905552846,-13099.8032380635,-5445.5553715331,-7271.5616337520,-3351.9449530872,-24916.4011691795,4296.4989220586,7255.7801309727,10036.9019230052
560506711685,24793,5,0,1388.2003628326,4570.0774174256,9305.7328532178,-2272.7797541637,-9759.1255722343,-7297.2354740484,-10126.6630224681,-22350.1852384337,-13101.6283925869,-5443.7788877970,-7267.7653123433,-3355.4249143786,-24918.6643607885,4294.6494321415,7254.1618272952,10032.8744153568
560506711685,24793,5,0,1384.3188675461,4565.8430589312,9302.6179228311,-2277.2331312009,-9763.1652475795,-7299.9610381368,-10131.0068902339,-22354.0667337202,-13107.1646946414,-5447.8794016263,-7275.4309613417,-3358.1261430733,-24922.8257131020,4290.8531107327,7250.0613134659,10030.9640869556
560506711685,24793,5,0,1377.5292927189,4557.0214787346,9290.6084060669,-2287.4053257449,-9769.1517544164,-7321.1815013960,-10137.6261173055,-22356.8409685959,-13110.7176621137,-5453.3792005903,-7284.7149140176,-3358.3816647066,-24924.3588429017,4289.4538255981,7247.1897370157,10036.0866873181
560506722754,24794,5,0,1372.6987170802,4552.4342570323,9275.1675987986,-2294.8884592910,-9771.5974614778,-7337.5592213197,-10140.2665075161,-22356.7436270213,-13110.2431219376,-5457.2850312704,-7287.3188011377,-3356.6660194545,-24923.1299055226,4292.5565882879,7248.7106991185,10039.5788163063
560506722754,24794,5,0,1375.8988213446,4558.0192298741,9281.0080932736,-2290.5202561315,-9769.9061516194,-7328.1900947660,-10136.3728445328,-22355.6728697009,-13108.9411783775,-5453.7442314949,-7276.5503894494,-3355.4370820754,-24922.7040361338,4294.9779599557,7249.5137671088,10039.0921084333
560506722754,24794,5,0,1378.7460624012,4561.8033835860,9295.3903109183,-2283.4264888838,-9769.7844746512,-7308.8677922112,-10134.8032116426,-22357.9603967036,-13108.3084581427,-5446.7234704281,-7270.2718578888,-3359.7201113571,-24923.6044456987,4293.4204947624,7248.4430097884,10033.6409802567
560506722754,24794,5,0,1379.0259194281,4560.0634029403,9298.1158750066,-2283.6333397298,-9770.7943934875,-7307.2738239273,-10137.8086327579,-22360.8563085474,-13110.3769666026,-5447.1736752106,-7275.5283029163,-3360.4380054697,-24924.4683521731,4290.7801045518,7248.7106991185,10030.2340251462
560506722754,24794,5,0,1374.2561822735,4554.2715792526,9288.3330467610,-2292.0898890217,-9773.2887713362,-7327.1315051424,-10142.4445252474,-22360.9901532125,-13112.6279905149,-5454.2674424583,-7285.8830129126,-3360.1459807459,-24924.0546504811,4290.2447258916,7249.3069162629,10032.6067260267
560506722754,24794,5,0,1369.7784698427,4549.8425376091,9274.8269032875,-2299.5000163869,-9773.6781376345,-7342.5723124107,-10142.7000468807,-22359.9437312857,-13112.4941458498,-5457.8934161116,-7287.0511118076,-3358.0288014987,-24921.6211111165,4293.1649731291,7252.0689834417,10037.5346432400
560506722754,24794,5,0,1372.3458538723,4553.8943806511,9277.2361072585,-2295.5211795258,-9773.3982806076,-7335.7218990994,-10140.0839920638,-22358.4106014860,-13112.2751273070,-5457.7109006592,-7280.6630709756,-3357.7367767750,-24921.3047509991,4293.8463641512,7252.6043621019,10034.5778929120
560506722754,24794,5,0,1371.3602704297,4556.7659571013,9285.1937809807,-2289.7171881412,-9774.1891809011,-7318.8818066964,-10138.9645639561,-22362.0244074424,-13115.7550885983,-5458.8303287669,-7277.8036622222,-3363.4434265849,-24924.2249982366,4292.4105759261,7247.7859541600,10026.7540638549
560506740365,24795,5,0,1371.2750965519,4556.0602306856,9289.6958288052,-2288.0015428892,-9776.2455216642,-7314.2459142069,-10141.3494325334,-22365.9424058194,-13118.4319818994,-5460.0592661461,-7282.9749333719,-3367.4587665365,-24925.2105816793,4291.0356261851,7244.3424959591,10024.8924062410
560506740365,24795,5,0,1370.7153824981,4554.1985730717,9285.5344764917,-2291.6153488456,-9776.5375463879,-7330.0152492894,-10145.7176356928,-22366.0762504845,-13117.8479324519,-5464.3666308214,-7293.3053079746,-3366.2176614606,-24922.8500484956,4292.2767312610,7245.0482223748,10028.2750259578
560506740365,24795,5,0,1371.8956490899,4553.9430514384,9272.5272085880,-2296.8231230858,-9773.0089143093,-7344.7138270515,-10145.0362446707,-22362.6327922836,-13115.0006913953,-5466.3743007972,-7295.9213627915,-3361.6912782424,-24918.6400253949,4296.2190650317,7249.9031334072,10035.7094887166
560506740365,24795,5,0,1374.0493314275,4557.1188203092,9274.8269032875,-2293.8785404547,-9772.7168895855,-7340.1509407429,-10143.1502516631,-22363.1560032470,-13114.6113250970,-5464.8533386943,-7289.4724834754,-3362.3605015677,-24920.9153847008,4294.6250967478,7248.2604943361,10036.2692027704
560506740365,24795,5,0,1375.3512749876,4559.4793534928,9286.5808984185,-2288.6220954272,-9775.4667890675,-7322.9336497385,-10142.1403328268,-22365.5408718243,-13117.8479324519,-5463.2958735010,-7284.1917030542,-3366.8625493922,-24927.2425870487,4288.5290806396,7243.5150925751,10030.9032484715
560506740365,24795,5,0,1374.6942193592,4558.5667762311,9290.2190397686,-2287.1376364148,-9779.1049304175,-7314.6839512925,-10144.2331766804,-22369.1303423870,-13122.9948682080,-5463.6000659215,-7286.9537702330,-3370.0504859598,-24931.6107902082,4283.9783620278,7239.9377897092,10026.5593807057
560506740365,24795,5,0,1369.9123145077,4553.3224989004,9282.8940862812,-2292.7104415597,-9780.4190416744,-7328.3482748247,-10149.0759200159,-22369.7995657123,-13123.2990606286,-5465.0115187530,-7295.5563318869,-3370.0991567471,-24932.7180506190,4282.3478906535,7239.1103863252,10029.6864787892
560506740365,24795,5,0,1366.5783655783,4548.6866064109,9269.7894768028,-2300.1692397121,-9780.7475694886,-7345.1640318340,-10149.0029138350,-22367.1226724113,-13121.6320861638,-5465.5712328068,-7299.0362931782,-3365.8282951622,-24929.7978033815,4286.4970752701,7242.5781799198,10035.8433333816
560506796674,24796,5,0,1370.5937055298,4554.1864053748,9269.6799675314,-2295.6063534035,-9775.7344783976,-7341.1121887920,-10144.6225429787,-22361.4646933886,-13118.0182802074,-5463.5027243469,-7290.6040792799,-3361.9833029662,-24924.4805198699,4286.8377707812,7243.4542540910,10035.7946625943
560506796674,24796,5,0,1373.3801081023,4558.0922360550,9281.2757826037,-2288.1110521606,-9775.8074845785,-7320.4027687993,-10142.7973884553,-22364.7621392276,-13118.0791186915,-5458.4652978622,-7281.8555052642,-3365.5727735289,-24929.3475985991,4286.2172182432,7242.4443352547,10028.8955784957
560506796674,24796,5,0,1372.9542387135,4555.0746472429,9289.4889779592,-2287.9650397987,-9778.4478747891,-7313.1143184024,-10145.8514803578,-22370.4322859471,-13121.8632724035,-5459.7307383318,-7284.4107215970,-3371.6322865468,-24932.0731626874,4283.5646603358,7237.8327781588,10022.8847362652
560506796674,24796,5,0,1371.8713136962,4553.7727036829,9286.4470537534,-2291.6761873297,-9779.2144396890,-7323.1770036749,-10149.2341000746,-22370.0307519519,-13122.1674648240,-5462.9430102931,-7292.7942647080,-3370.8778893437,-24930.0046542275,4285.9130258226,7239.9621251028,10023.4931211063
560506796674,24796,5,0,1372.9177356230,4554.6731132478,9277.3212811362,-2295.3021609830,-9775.9413292436,-7339.1896926939,-10146.9709084656,-22365.4800333402,-13117.0205290679,-5461.9939299409,-7294.1813821459,-3363.9301344578,-24923.8721350288,4291.7900233881,7247.1045631379,10030.9154161683
560506796674,24796,5,0,1379.9019935994,4561.0368186862,9282.1761921686,-2289.8875358967,-9771.9624923825,-7337.1576873245,-10141.4467741079,-22360.0410728603,-13112.1534503388,-5459.5482228795,-7286.9172671426,-3358.9292110636,-24921.3047509991,4294.7346060193,7250.3411704928,10032.5458875426
560506796674,24796,5,0,1385.4382956538,4567.2545117627,9292.4457282872,-2282.0515391428,-9770.9404058494,-7320.7191289167,-10138.5143591736,-22361.4281902981,-13112.5549843339,-5457.4432113291,-7280.3710462518,-3362.0319737535,-24923.4949364273,4291.1451354565,7245.0847254653,10023.4444503190
560506796674,24796,5,0,1383.1629363479,4563.5676996253,9299.8315202587,-2281.3579804239,-9775.4059505834,-7312.3234181089,-10143.0164069981,-22366.1370889686,-13117.8357647551,-5458.6478133146,-7282.8775917974,-3368.1279898618,-24929.4814432641,4286.8621061748,7241.5439256898,10019.6846320008
560506801308,24797,5,0,1378.4418699806,4559.0413164072,9294.9279384390,-2287.5026673195,-9779.1657689017,-7323.7610531224,-10149.0150815318,-22370.7486460645,-13121.5469122861,-5462.0060976377,-7293.4999911238,-3371.0604047961,-24931.1240823352,4285.9860320036,7239.0008770538,10019.0640794628
560506801308,24797,5,0,1372.4188600533,4554.2594115558,9278.6110569995,-2296.2877444256,-9778.7885703002,-7344.7503301420,-10151.0592545981,-22367.5485418001,-13120.4274841784,-5467.3720519366,-7300.8249446112,-3366.8260463017,-24927.1939162614,4290.3055643757,7242.6998568880,10026.2551882851
560506801308,24797,5,0,1374.7185547528,4556.1940753506,9275.2406049795,-2295.6185211004,-9775.2599382215,-7346.9283478733,-10145.7784741769,-22363.5332018485,-13117.5559077281,-5466.7393317019,-7293.6338357888,-3361.9589675725,-24922.6066945592,4294.4304135987,7246.4231721158,10033.3124524425
560506801308,24797,5,0,1378.4540376775,4559.5766950674,9286.2645383011,-2290.0457159554,-9773.1305912775,-7327.2166790202,-10142.5053637315,-22363.8130588754,-13116.3269703490,-5461.4342158870,-7284.6297401399,-3363.1027310739,-24924.0789858748,4295.3308231636,7246.2771597539,10030.1975220558
560506801308,24797,5,0,1378.5757146457,4560.6109492974,9295.1956277691,-2284.6189231724,-9774.9070750136,-7313.0778153119,-10142.9068977267,-22366.7333061129,-13118.2616341439,-5461.6654021267,-7282.2327038657,-3366.1324875828,-24926.9383946281,4292.9216191926,7243.3204094260,10025.0262509060
560506801308,24797,5,0,1375.8501505573,4558.1165714487,9294.0396965710,-2287.6121765909,-9776.1238446959,-7318.0665710093,-10147.1899270084,-22369.4832055949,-13118.4928203835,-5462.6388178725,-7289.6549989277,-3368.6268654315,-24927.6197856502,4290.8409430359,7242.6511861007,10023.4931211063
560506801308,24797,5,0,1373.2827665277,4552.4099216387,9280.1441867992,-2295.9105458241,-9776.4158694197,-7336.8534949039,-10149.1245908032,-22368.5827960300,-13116.3999765300,-5464.5248108801,-7296.8582754469,-3365.3050841988,-24924.6873707159,4293.3839916719,7244.0626389322,10027.7639826912
560506801308,24797,5,0,1373.6599651292,4556.0967337760,9274.3645308083,-2297.3828371397,-9771.9138215952,-7341.8422506013,-10145.8879834483,-22364.7621392276,-13113.1998722655,-5462.3467931488,-7292.1980475637,-3360.8030363743,-24921.4264279674,4296.4989220586,7246.5083459936,10031.9253350046
560506834091,24798,5,0,1378.4053668902,4560.8543032338,9282.8332477970,-2289.4738342048,-9770.0034931940,-7324.8439781397,-10141.3859356238,-22362.2799290757,-13109.9632649106,-5457.1998573927,-7281.7824990833,-3360.6448563156,-24921.3047509991,4296.2799035158,7246.3136628444,10030.4408759922
560506834091,24798,5,0,1377.3711126602,4559.5523596738,9292.1780389571,-2286.0182083071,-9772.9480758251,-7309.6830278983,-10142.3228482792,-22365.7842257607,-13113.6135739575,-5454.7541503313,-7278.1565254300,-3365.6092766194,-24926.1596620315,4292.3862405324,7243.0648877927,10025.8293188963
560506834091,24798,5,0,1372.5040339310,4555.3180011794,9290.9734369716,-2290.6175977061,-9778.0950115812,-7316.5334412096,-10147.2994362798,-22369.5318763822,-13120.0624532737,-5460.5824771094,-7289.0952848739,-3368.6025300378,-24930.5278651909,4288.2857267031,7240.4123298853,10023.4809534095
560506834091,24798,5,0,1369.1457496079,4551.2053196532,9277.7228151314,-2298.8672961521,-9779.5916382905,-7336.4397932119,-10149.8059818253,-22368.8991561474,-13120.5248257529,-5465.1331957212,-7295.8726920043,-3366.5218538811,-24930.1506665894,4287.1784662922,7241.6047641739,10027.7031442071
560506834091,24798,5,0,1374.0371637307,4555.4031750571,9275.3379465541,-2298.5752714283,-9776.4767079038,-7343.9959329390,-10147.2507654925,-22364.0199097214,-13116.6189950728,-5463.1741965327,-7291.2002964242,-3361.2532411568,-24927.6806241343,4290.1595520138,7243.6976080275,10028.8347400116
560506834091,24798,5,0,1378.8069008853,4561.1098248671,9284.7435761982,-2289.7780266253,-9772.1085047444,-7329.0053304531,-10141.2764263524,-22362.5111153154,-13114.4774804319,-5458.2827824099,-7281.3079589072,-3361.3262473377,-24927.4494378947,4289.8675272901,7245.6444395191,10026.2551882851
560506834091,24798,5,0,1384.6108922699,4565.2711771805,9297.2032977449,-2282.0758745364,-9774.3108578693,-7313.3090015515,-10141.1547493842,-22366.9523246557,-13118.0182802074,-5457.7717391433,-7279.0447672981,-3366.0351460082,-24931.3552685749,4289.1739685712,7242.0671366532,10020.7188862307
560506834091,24798,5,0,1387.2147793900,4568.1914244181,9304.1997234181,-2279.5693289909,-9775.2234351310,-7313.7227032435,-10143.2232578441,-22368.6314668173,-13118.4806526867,-5456.5671371579,-7283.9240137241,-3368.1036544681,-24932.9614045555,4287.5434971969,7239.6457649854,10018.7720547390
560506868855,24799,5,0,1385.5599726221,4567.2180086722,9295.6214971579,-2284.3512338423,-9774.0553362360,-7330.6966403115,-10144.7320522501,-22365.5895426116,-13116.1566225935,-5458.1246023512,-7291.4314826639,-3364.0031406388,-24929.6396233228,4290.5975890995,7242.0671366532,10022.9699101430
560506868855,24799,5,0,1386.6794007298,4565.7578850535,9287.2257863501,-2287.2228102925,-9770.2103440400,-7341.0026795205,-10141.5684510762,-22361.2943456331,-13112.6523259085,-5460.0836015397,-7290.0687006197,-3360.2311546237,-24926.2691713029,4294.0532149972,7245.6566072160,10027.5327964516
560506868855,24799,5,0,1388.2246982263,4570.0165789415,9294.0518642678,-2283.1466318568,-9766.5356995994,-7326.6691326631,-10137.8086327579,-22360.5764515205,-13109.7929171551,-5454.5229640916,-7280.7604125502,-3362.0319737535,-24924.2249982366,4295.2091461953,7245.0117192844,10026.0118343487
560506868855,24799,5,0,1390.3053743830,4571.0630008683,9304.6255928069,-2278.1822115531,-9767.0710782597,-7308.7582829397,-10136.8108816184,-22364.2145928706,-13112.4941458498,-5452.0650893334,-7276.7329049018,-3365.8404628590,-24927.5467794693,4292.1428865960,7240.8016961836,10018.6868808613
560506868855,24799,5,0,1389.4171325149,4570.2964359684,9307.2659830175,-2277.0506157485,-9769.1760898100,-7308.6609413652,-10139.2809240735,-22365.8328965480,-13116.1444548967,-5455.5328829279,-7282.2083684721,-3367.5926112015,-24930.1384988926,4288.7846022728,7240.3636590980,10015.5597827778
560506868855,24799,5,0,1385.7424880744,4565.3928541488,9296.2055466054,-2285.5680035246,-9772.7777280696,-7329.0296658468,-10142.2133390078,-22364.1902574769,-13117.5680754250,-5459.6212290604,-7290.7500916418,-3364.9887240814,-24930.0654927116,4286.8621061748,7239.5970941981,10020.6823831402
560506868855,24799,5,0,1383.2724456193,4563.1905010238,9284.0013466920,-2291.5423426647,-9775.6371368230,-7345.9062613402,-10143.5882887488,-22363.4601956676,-13118.8821866818,-5465.9605991052,-7293.4634880333,-3361.4114212155,-24928.4228536405,4290.1108812265,7243.9166265703,10026.4133683438
560506868855,24799,5,0,1384.5743891794,4564.6627923394,9284.6218992300,-2288.3787414907,-9777.1337635322,-7338.9585064543,-10141.6292895603,-22363.6670465135,-13119.5514100071,-5467.9561013841,-7287.0997825949,-3362.0076383598,-24928.8730584230,4291.5101663612,7243.4664217878,10027.8491565690
560506893989,24800,5,0,1386.1683574632,4567.9480704816,9298.4930736082,-2282.2705576856,-9777.9611669162,-7320.0742409851,-10142.5053637315,-22366.5994614479,-13120.7560119926,-5464.0624384008,-7281.9163437483,-3367.2519156905,-24932.4868643794,4288.2978943999,7240.4610006726,10023.2984379572
560506893989,24800,5,0,1386.5820591552,4568.5077845354,9304.2483942054,-2281.6378374508,-9780.2243585253,-7317.3365091999,-10146.3625236244,-22370.4687890376,-13124.6618426727,-5465.4617235354,-7288.0610306439,-3371.5349449722,-24936.0398318517,4285.9130258226,7237.5042503446,10018.6260423772
560506893989,24800,5,0,1382.5910545973,4562.1075760066,9293.1392870061,-2288.1110521606,-9782.6213947994,-7333.6047198522,-10150.3778635760,-22372.1966019864,-13125.1728859393,-5470.4869823233,-7299.5108333543,-3370.9143924342,-24934.6405467171,4286.0833735781,7239.0617155379,10019.5386196389
560506893989,24800,5,0,1379.8776582057,4560.1972476054,9280.9229193958,-2294.9249623814,-9782.1833577138,-7350.1162844409,-10152.0326703439,-22370.0307519519,-13122.3256448827,-5471.3387211009,-7301.6523479952,-3367.4831019301,-24931.4161070590,4289.0522916029,7242.8215338562,10023.7121396492
560506893989,24800,5,0,1379.0380871250,4561.2315018353,9280.9229193958,-2294.7181115355,-9781.7696560218,-7346.3321307290,-10150.9862484171,-22371.0528384851,-13122.5811665160,-5469.9881067536,-7296.1403813344,-3368.7972131870,-24931.6229579050,4289.0887946934,7241.0937209074,10021.5827927051
560506893989,24800,5,0,1378.7460624012,4561.4626880750,9288.2235374896,-2290.9217901267,-9782.8282456454,-7328.3482748247,-10150.9010745394,-22374.6423090478,-13125.7325999932,-5468.1629522301,-7291.6991719940,-3372.9585655005,-24935.5409562820,4284.6232499594,7237.2487287113,10014.4281869732
560506893989,24800,5,0,1380.5103784405,4563.5676996253,9297.1424592608,-2288.2570645225,-9783.5826428484,-7321.6195384816,-10152.6288874882,-22377.1975253807,-13126.7668542231,-5467.0800272129,-7292.9767801604,-3375.7693034666,-24939.3129422971,4281.5691580568,7236.6890146575,10009.5732759409
560506893989,24800,5,0,1379.0989256091,4561.1949987449,9291.9711881111,-2291.9803797503,-9783.1324380659,-7332.9598319206,-10154.8190729164,-22375.7130663683,-13125.8907800519,-5466.1674499512,-7299.7663549876,-3373.5304472511,-24936.1128380326,4284.2095482674,7239.9012866187,10013.1019080195
560506925280,24801,5,0,1380.6198877119,4559.1629933754,9281.2636149069,-2297.1638185969,-9780.7962402759,-7349.4227257220,-10153.4927939627,-22372.0140865341,-13123.4329052936,-5468.3819707729,-7303.0638008266,-3369.6246165710,-24933.2655969761,4286.4362367860,7242.7241922816,10018.0419929297
560506925280,24801,5,0,1383.1264332575,4563.3730164762,9282.1640244718,-2294.5842668704,-9778.9832534493,-7346.8553416924,-10150.2561866077,-22371.5760494485,-13122.1674648240,-5466.9948533351,-7297.0042878088,-3369.0770702139,-24933.9956587855,4285.3411440719,7239.8891189219,10017.1902541521
560506925280,24801,5,0,1386.9105869694,4567.2910148532,9295.0739508009,-2287.2836487766,-9779.1779365985,-7328.3847779152,-10148.8203983826,-22373.5472163338,-13123.7614331078,-5464.4396370023,-7290.4702346149,-3374.2848444542,-24937.8649863751,4281.0581147903,7233.8904443882,10011.7026228849
560506925280,24801,5,0,1386.7645746075,4567.8750643007,9301.6080039948,-2284.0227060281,-9781.8913329900,-7320.2932595279,-10150.7307267838,-22375.9320849111,-13127.9471208149,-5466.1431145575,-7292.8186001017,-3377.6796318678,-24939.6901408986,4278.9531032399,7231.4569050236,10006.9328857303
560506925280,24801,5,0,1383.9295012478,4564.0787428919,9293.3339701552,-2290.7757777648,-9784.4830524133,-7332.6921425905,-10155.7073147844,-22377.8545810091,-13129.5532567956,-5470.4383115360,-7302.9056207679,-3375.8666450411,-24939.2277684193,4280.1090344381,7231.2013833903,10007.8089599016
560506925280,24801,5,0,1380.6928938929,4561.6573712241,9282.3343722273,-2297.3828371397,-9783.8503321785,-7353.3772271895,-10156.6685628334,-22373.6445579084,-13127.1197174310,-5472.4459815118,-7306.2882404847,-3371.9364789673,-24933.9469879982,4285.1707963164,7238.4533306968,10019.7576381817
560506925280,24801,5,0,1382.6153899909,4564.5411153712,9279.5844727453,-2294.5112606895,-9781.6479790535,-7352.5498238055,-10152.8114029406,-22372.5251298006,-13124.2968117681,-5472.7015031451,-7299.3283179020,-3369.0283994266,-24928.2160027946,4285.8765227322,7237.9909582175,10022.2763514240
560506925280,24801,5,0,1385.9980097077,4569.0918339830,9291.9225173238,-2285.7383512801,-9781.3316189361,-7333.6655583363,-10148.6013798398,-22373.1456823386,-13124.8443581251,-5469.8177589981,-7290.8839363068,-3371.2672556421,-24932.6815475286,4286.4970752701,7237.3095671954,10017.4579434822
560506956221,24802,5,0,1388.2733690136,4570.5762929953,9302.8734444644,-2281.2849742429,-9783.7043198166,-7321.0354890341,-10149.9884972776,-22376.1389357571,-13128.6041764434,-5466.7271640050,-7290.8596009132,-3376.0613281903,-24938.8384021210,4280.7295869760,7232.6980100995,10011.0212318628
560506956221,24802,5,0,1382.8952470178,4564.1030782855,9294.6480814121,-2287.0281271434,-9785.3956296750,-7332.3514470794,-10154.5513835862,-22377.7815748282,-13131.3662436222,-5472.2147952722,-7301.1048016381,-3377.5214518091,-24942.0506740822,4277.7363335576,7231.8584390188,10011.0455672565
560506956221,24802,5,0,1380.6563908024,4561.3653465004,9280.5092177039,-2295.0588070465,-9786.2595361494,-7352.3186375659,-10156.3278673224,-22375.6887309746,-13130.1981447272,-5476.3031414047,-7306.8114514481,-3372.9950685909,-24941.1502645173,4280.2793821936,7236.8350270193,10017.8594774773
560506956221,24802,5,0,1381.3256141277,4560.7812970529,9278.2338583980,-2297.3585017460,-9784.7507417434,-7355.8959404318,-10155.5126316353,-22374.4597935955,-13127.8497792404,-5474.7091731209,-7301.4941679365,-3370.5371938327,-24939.7023085954,4281.5204872695,7239.7552742568,10021.7166373702
560506956221,24802,5,0,1382.4937130227,4563.3000102952,9285.9116750932,-2293.4040002786,-9785.4077973718,-7339.4695497209,-10153.2129369357,-22376.8081590823,-13130.4780017541,-5472.9570247784,-7295.5806672805,-3373.9563166399,-24941.9655002045,4280.1942083158,7235.0220401927,10013.4791066211
560506956221,24802,5,0,1383.2116071352,4564.5897861585,9295.2564662533,-2289.6806850508,-9787.3302934699,-7326.2675986680,-10155.0380914592,-22380.5314743101,-13133.8971245614,-5473.2368818053,-7294.4855745664,-3378.1541720439,-24943.5351330946,4277.4808119243,7232.4546561631,10011.3984304643
560506956221,24802,5,0,1378.6000500393,4559.2968380405,9292.2875482285,-2293.4405033690,-9789.4961435043,-7332.4974594413,-10158.4328788728,-22382.1862810781,-13135.3207450896,-5472.9083539911,-7302.0173788998,-3378.9085692469,-24942.5252142583,4274.5240615963,7231.4325696300,10013.5399451052
560506956221,24802,5,0,1376.0326660097,4557.9218882995,9280.4483792197,-2298.1372343427,-9785.7606605797,-7349.5809057807,-10157.5689723983,-22376.7838236887,-13131.1837281698,-5474.0034467051,-7305.4365017071,-3371.0482370993,-24938.4247004290,4282.5669091963,7237.4190764668,10024.2475183094
560506988012,24803,5,0,1379.1232610027,4560.8056324465,9276.1410145444,-2296.1052289733,-9779.3239489604,-7351.4547310915,-10150.5968821188,-22369.4953732917,-13125.0633766679,-5469.7934236044,-7299.0119577846,-3365.3050841988,-24934.1173357537,4287.9571988889,7243.0648877927,10030.4043729018
560506988012,24803,5,0,1382.2016882989,4566.3784375914,9289.2942948100,-2287.3444872608,-9777.1094281386,-7333.3126951284,-10143.7099657170,-22368.4124482745,-13122.8731912398,-5463.6852397993,-7287.1606210790,-3367.4344311428,-24936.1128380326,4286.3023921210,7242.4930060420,10026.0726728328
560506988012,24803,5,0,1384.9150846904,4567.4978656991,9299.3448123858,-2283.0736256759,-9779.4334582318,-7318.6019496695,-10146.3260205339,-22372.4277882261,-13125.7569353868,-5463.8434198580,-7287.2701303504,-3372.4475222339,-24940.7974013095,4281.7516735092,7237.8692812493,10017.5431173599
560506988012,24803,5,0,1381.2891110372,4561.7182097082,9295.2077954660,-2289.1696417842,-9784.0571830245,-7326.8881512059,-10153.2007692389,-22377.4652147108,-13132.8020318473,-5472.1052860008,-7299.4013240829,-3377.1807562980,-24943.0727606154,4278.7462523939,7234.8273570436,10013.8806406162
560506988012,24803,5,0,1378.3688637997,4556.6199447394,9282.2248629559,-2299.3053332377,-9787.0626041398,-7351.0288617026,-10159.1872760758,-22379.6675678357,-13133.9822984391,-5476.5951661284,-7308.6122705779,-3377.4241102345,-24940.0186687128,4281.2527979394,7235.0828786768,10018.6382100740
560506988012,24803,5,0,1377.1885972079,4556.4252615903,9274.1576799623,-2302.2620835657,-9784.9332571957,-7361.2862301244,-10158.2746988141,-22378.2682827011,-13130.4901694509,-5478.1039605345,-7306.5194267243,-3374.6620430557,-24931.5621194209,4283.6741696072,7234.8638601340,10020.3538553260
560506988012,24803,5,0,1381.1065955849,4560.0999060308,9279.7548205008,-2297.7965388317,-9782.9620903104,-7345.4073857704,-10152.6288874882,-22376.5039666617,-13127.7037668785,-5474.1616267638,-7297.5883372563,-3374.2605090605,-24933.4237770348,4286.5214106638,7236.8350270193,10020.8283955021
560506988012,24803,5,0,1383.0169239861,4563.8232212586,9293.9058519059,-2290.7636100680,-9782.4632147407,-7325.7078846141,-10150.4143666664,-22377.6355624663,-13126.9493696755,-5469.1607033696,-7290.9082717005,-3377.2172593885,-24937.1470922626,4281.1797917585,7233.8904443882,10016.2168384062
560507020435,24804,5,0,1380.6563908024,4561.9128928574,9296.2055466054,-2291.0434670949,-9784.0328476308,-7325.9999093379,-10151.9109933757,-22378.7306551803,-13128.6528472307,-5469.5744050616,-7296.1282136375,-3376.8400607870,-24940.5783827667,4277.9796874941,7233.2333887597,10015.8883105920
560507020435,24804,5,0,1379.5491303915,4559.8565520943,9284.0378497825,-2296.3120798193,-9784.4343816260,-7344.9328455944,-10154.5270481926,-22376.4552958745,-13127.8497792404,-5472.8110124165,-7304.0250488756,-3374.2483413637,-24939.1182591479,4279.7561712302,7236.3848222369,10021.3516064655
560507020435,24804,5,0,1381.7149804260,4561.6330358305,9276.8467409601,-2297.3585017460,-9781.0274265156,-7354.1194566957,-10150.5238759379,-22371.9654157468,-13122.6420050001,-5470.9128517121,-7299.6933488067,-3369.4542688155,-24935.9303225803,4285.2803055878,7241.0693855137,10027.9708335372
560507020435,24804,5,0,1385.5478049252,4565.2225063933,9285.4614703108,-2291.6761873297,-9779.8106568333,-7340.8566671587,-10144.9632384898,-22370.3836151598,-13122.6420050001,-5468.1264491397,-7291.2854703020,-3368.3105053141,-24935.5774593724,4284.5989145657,7239.2077278998,10025.8049835027
560507020435,24804,5,0,1388.1395243485,4570.6249637826,9298.2862227622,-2282.5504147125,-9780.3095324030,-7322.4347741687,-10145.3282693945,-22371.4665401770,-13124.7470165505,-5466.5324808559,-7288.0731983407,-3372.0703236324,-24939.6049670208,4282.2992198662,7234.1337983246,10016.0099875602
560507020435,24804,5,0,1386.3265375219,4567.9359027848,9300.7927683077,-2283.8158551821,-9782.5362209216,-7322.2887618069,-10147.8348149400,-22372.9388314926,-13127.3509036706,-5466.9826856383,-7292.7334262239,-3374.6255399652,-24942.6347235297,4279.4033080223,7233.7809351168,10015.9856521666
560507020435,24804,5,0,1383.7348180986,4562.9106439969,9291.3506355731,-2292.4184168359,-9783.6799844230,-7340.3456238921,-10152.3977012486,-22373.0970115513,-13127.1927236119,-5470.2801314773,-7301.0317954572,-3370.8900570406,-24940.2498549524,4279.4276434160,7232.9778671265,10019.8306443626
560507020435,24804,5,0,1383.9660043382,4563.4095195666,9280.8377455181,-2294.6086022640,-9779.9079984079,-7351.9414389644,-10148.8203983826,-22367.8283988270,-13122.1187940367,-5469.8907651790,-7298.5252499117,-3363.7719543991,-24935.3219377392,4286.2537213337,7240.2663175234,10026.7662315517
560507081683,24805,5,0,1387.7501580502,4569.4081941003,9287.1527801692,-2288.2083937352,-9774.2986901725,-7339.2261957844,-10141.7753019222,-22363.6427111199,-13116.5459888918,-5462.1764453932,-7286.2723792110,-3360.8273717680,-24932.7545537095,4290.8774461264,7244.5980175924,10029.4917956400
560507081683,24805,5,0,1392.5077275080,4574.6524714310,9303.7860217261,-2279.8005152305,-9771.4149460254,-7317.3486768967,-10138.2588375403,-22363.0343262787,-13115.7794239920,-5454.6933118471,-7277.5603082857,-3361.9589675725,-24933.3264354602,4291.1694708501,7244.4033344432,10027.1069270628
560507081683,24805,5,0,1393.3959693760,4575.9909180816,9309.8090316535,-2277.6833359833,-9771.1229213017,-7311.9097164169,-10138.8063838974,-22365.0176608609,-13115.4387284810,-5454.5959702726,-7279.8843383789,-3363.9057990642,-24932.1826719588,4292.1672219896,7247.5060971331,10025.8171511995
560507081683,24805,5,0,1392.2887089651,4572.0485843109,9301.8270225376,-2283.5359981552,-9771.6461322651,-7327.0828343551,-10142.2620097951,-22365.4800333402,-13115.8402624761,-5457.7230683561,-7289.3873095976,-3362.4700108391,-24929.8829772593,4291.6440110262,7249.8666303167,10030.0028389066
560507081683,24805,5,0,1388.7357414928,4565.1495002123,9288.0775251277,-2291.8343673884,-9772.9967466124,-7345.1518641372,-10144.8902323088,-22364.9811577704,-13115.7064178111,-5462.1521099996,-7294.2300529332,-3363.0783956802,-24929.5057786578,4291.9117003563,7250.7183690943,10033.8234957090
560507081683,24805,5,0,1386.2656990378,4564.6992954299,9283.7214896651,-2292.5765968946,-9777.3406143782,-7344.1297776040,-10146.9465730719,-22365.5408718243,-13117.7627585741,-5465.7780836528,-7291.4679857543,-3364.6845316609,-24932.5720382572,4290.0013719551,7248.5403513630,10031.2196085889
560507081683,24805,5,0,1389.3197909403,4570.4302806335,9294.9522738327,-2284.4972462042,-9778.3018624272,-7326.1459216997,-10146.6423806513,-22371.2718570279,-13122.6420050001,-5463.8799229485,-7285.4571435238,-3370.1356598375,-24937.4877877736,4284.5137406880,7244.2573220813,10024.0650028570
560507081683,24805,5,0,1389.5266417863,4570.7709761445,9303.1654691882,-2281.5526635730,-9780.6502279141,-7320.5974519485,-10149.2219323778,-22374.5327997764,-13124.3698179490,-5462.9065072026,-7289.0101109961,-3372.6178699894,-24941.7099785712,4281.6421642378,7241.0328824233,10021.5706250083
560507088871,24806,5,0,1391.0962746765,4572.0364166141,9300.2573896475,-2283.1831349473,-9778.0463407940,-7331.0616712162,-10150.1588450332,-22370.7121429740,-13122.9096943302,-5465.0115187530,-7296.1160459407,-3369.6246165710,-24938.5220420036,4284.3798960229,7242.8458692499,10024.0041643729
560507088871,24806,5,0,1393.0187707745,4572.9368261790,9293.1027839156,-2284.5459169915,-9774.4812056248,-7345.5047273450,-10147.1777593115,-22365.7112195798,-13118.3954788089,-5465.4373881418,-7296.7244307819,-3364.3073330593,-24934.6648821107,4287.7990188302,7245.7782841842,10029.6499756987
560507088871,24806,5,0,1395.7078317724,4576.5262967418,9294.4168951725,-2281.8325206000,-9771.6339645683,-7339.7615744446,-10141.8483081031,-22364.3727729293,-13115.8767655666,-5461.3368743125,-7287.1849564727,-3361.7399490297,-24932.8762306777,4291.4979986644,7247.4209232553,10031.3291178603
560507088871,24806,5,0,1399.0539483987,4581.3203692900,9306.4872504208,-2274.3128839634,-9770.1616732527,-7319.5631977185,-10138.4900237800,-22364.3971083229,-13115.8524301729,-5457.9785899893,-7279.4828043837,-3365.1712395338,-24935.1637576805,4290.9261169137,7245.0117192844,10026.4863745248
560507088871,24806,5,0,1396.1580365548,4578.9355007127,9310.9406274580,-2274.2520454793,-9773.0454173997,-7311.4960147249,-10139.9501473987,-22368.3637774872,-13119.3323914643,-5458.7329871924,-7281.7216605992,-3369.4421011186,-24940.0430041065,4286.0955412750,7242.2618198024,10023.2010963826
560507088871,24806,5,0,1391.6438210335,4572.6448014552,9303.3966554278,-2280.2385523162,-9777.0607573513,-7325.1360028634,-10145.3647724849,-22369.7630626218,-13121.2305521687,-5461.2273650411,-7290.2877191625,-3368.9188901552,-24941.6734754807,4284.7205915340,7242.4686706484,10027.9586658404
560507088871,24806,5,0,1388.8209153706,4570.1990943938,9289.8296734702,-2286.1277175785,-9776.4280371165,-7343.7282436089,-10145.3161016976,-22366.0884181813,-13118.7726774104,-5464.3544631246,-7294.5464130506,-3362.8958802279,-24936.5265397246,4288.3830682777,7247.0923954411,10034.0668496455
560507088871,24806,5,0,1388.1395243485,4572.0729197046,9284.9504270442,-2286.3224007276,-9775.2112674342,-7344.6164854770,-10142.4566929442,-22364.0564128119,-13117.5680754250,-5464.9750156625,-7289.4603157786,-3362.2509922963,-24934.4093604774,4287.3244786541,7247.6399417981,10033.7261541344
560507118811,24807,5,0,1391.5464794589,4575.9665826879,9298.2132165812,-2279.4963228100,-9774.3716963534,-7325.4401952840,-10140.6193707240,-22365.4435302497,-13117.3977276694,-5459.4995520922,-7281.6851575087,-3366.8990524826,-24936.6847197833,4285.4019825561,7243.3569125164,10027.7274796007
560507118811,24807,5,0,1391.9845165446,4575.7353964483,9306.1952256971,-2276.8437649026,-9773.0089143093,-7311.7637040550,-10139.3174271639,-22368.4124482745,-13117.6654169996,-5457.4553790259,-7281.0159341834,-3368.4443499791,-24937.1714276562,4283.6620019104,7240.3758267948,10023.3106056540
560507118811,24807,5,0,1391.1449454638,4573.9589127121,9303.2263076723,-2279.1069565116,-9773.0819204902,-7320.5852842516,-10141.9334819809,-22367.4998710128,-13119.0038636501,-5460.2052785079,-7287.7325028297,-3365.8404628590,-24935.1150868932,4284.4285668102,7240.3393237043,10025.2696048425
560507118811,24807,5,0,1389.3441263340,4571.9877458268,9293.0176100378,-2285.1421341358,-9772.2788524999,-7337.1333519308,-10141.9213142840,-22364.3971083229,-13114.6721635811,-5459.9984276619,-7292.3075568351,-3360.6448563156,-24932.0974980811,4289.0644592998,7246.0094704238,10034.3710420660
560507118811,24807,5,0,1392.8240876253,4575.1270116071,9289.4159717782,-2284.3634015391,-9768.0201586118,-7337.7904075593,-10136.3606768359,-22358.8121354812,-13111.1435315025,-5458.3679562877,-7282.6707409514,-3353.9891261535,-24928.3620151564,4295.2334815890,7249.2217423851,10037.9361772352
