timestamp,sequence,battery,flags,EEG-ch1,EEG-ch2,EEG-ch3,EEG-ch4,EEG-ch5,EEG-ch6,EEG-ch7,EEG-ch8,EEG-ch9,EEG-ch10,EEG-ch11,EEG-ch12,EEG-ch13,EEG-ch14,EEG-ch15,EEG-ch16
560785661712,31114,-2,0,4137.0047521035,6465.8532532273,12256.6913575050,-832.0392764496,-8490.0469612982,-5823.0338300712,-8704.2592638661,-22048.9495681881,-11364.8356834738,-4626.2435059603,-6667.0826232851,-2073.6188925658,-24103.7328660720,6923.6750138873,9322.1714116256,15075.2531526618
560785661712,31114,-2,0,4134.3156911056,6461.1443545568,12251.2280616315,-838.7193420054,-8490.6431784426,-5836.0045948845,-8708.5787962383,-22050.0811639927,-11363.9839446962,-4627.9348158187,-6678.3377428463,-2074.1664389228,-24100.4962587171,6926.2545656137,9323.5706967602,15076.4212515568
560785661712,31114,-2,0,4134.4008649833,6462.0934349090,12242.9053570046,-839.9969501718,-8486.2993106768,-5840.9325120978,-8705.9992445118,-22044.5570296351,-11358.9830213020,-4626.5963691682,-6677.8145318829,-2068.0095843304,-24095.1303044182,6930.3672471399,9328.3891047021,15080.2662437528
560785661712,31114,-2,0,4137.6618077319,6467.4228861174,12247.2613924672,-833.6697478239,-8484.1577960359,-5830.5412990110,-8699.5747005893,-22042.0748194832,-11356.9996867198,-4622.9947309086,-6666.2673875979,-2066.8658208290,-24097.5273406923,6929.3573283036,9328.8879802719,15080.8867962908
560785661712,31114,-2,0,4137.8686585779,6469.9294316629,12256.4845066590,-827.3668808696,-8485.0338702072,-5817.7287142564,-8696.8734718946,-22042.1113225737,-11360.5526541921,-4621.0113963264,-6656.1195284476,-2068.1799320859,-24104.7062818178,6924.4537464839,9326.3936024232,15077.8083689946
560785661712,31114,-2,0,4136.3476964750,6465.9749301955,12255.8274510306,-829.3623831485,-8488.3799868335,-5818.5074468531,-8699.0028188386,-22042.8657197767,-11364.2029632390,-4622.5566938230,-6660.0010237341,-2068.7153107461,-24108.6607832853,6920.6330896815,9325.1159942568,15076.0927237425
560785661712,31114,-2,0,4133.2327660883,6461.4972177647,12245.9594489072,-837.5025723231,-8488.2339744716,-5831.3808700918,-8703.8212267805,-22044.6665389065,-11362.9983612536,-4624.9902331875,-6670.6720938478,-2068.3259444478,-24107.2128273634,6922.6407596573,9326.4301055136,15080.0593929068
560785661712,31114,-2,0,4130.1421710953,6456.3381143117,12238.9021847499,-845.8131092532,-8486.4574907355,-5839.8617547774,-8705.6828843944,-22044.3015080018,-11357.4742268959,-4623.5057741751,-6674.5170860439,-2065.2353494548,-24101.2871590106,6927.7025215357,9330.3602715874,15086.7637938563
560785669082,31115,-2,0,4130.4828666064,6456.6301390355,12240.6543330924,-844.6206749645,-8486.5548323101,-5833.2060246152,-8705.5490397294,-22045.6642900460,-11358.6909965782,-4623.2380848450,-6669.1754671386,-2067.4498702765,-24101.7130283994,6928.1648940149,9328.7906386973,15085.8512165945
560785669082,31115,-2,0,4130.2760157604,6455.9365803166,12248.0279573671,-841.3597322160,-8490.3754891125,-5822.9364884967,-8706.4494492943,-22049.5701207261,-11364.6288326278,-4626.0366551143,-6664.1258729571,-2072.5968060326,-24106.5436040381,6923.3343183762,9323.1934981587,15081.1058148336
560785669082,31115,-2,0,4129.5094508605,6455.8514064388,12249.7679380127,-841.2745583382,-8494.5368414259,-5821.9265696604,-8709.1871810794,-22052.9649081397,-11368.1087939192,-4626.6693753491,-6666.5472446249,-2076.4052951382,-24107.4683489966,6922.4947472955,9321.0398158211,15081.5195165256
560785669082,31115,-2,0,4131.0425806602,6458.0172564733,12248.3564851813,-842.2844771745,-8490.9352031663,-5830.7724852506,-8709.8077336174,-22050.0568285990,-11363.1565413123,-4625.5864503319,-6672.9596208506,-2069.9442481252,-24100.2650724775,6928.8462850370,9327.6103721055,15087.9440604481
560785669082,31115,-2,0,4134.7415604944,6461.2295284345,12242.3456429507,-842.1993032968,-8481.9797783046,-5835.2380299846,-8705.4516981548,-22042.6101981434,-11353.0330175556,-4620.7193716027,-6671.9375343174,-2062.0717482808,-24089.4966607892,6938.9819764905,9337.1011756274,15097.0941684589
560785669082,31115,-2,0,4136.6397211988,6462.4097950264,12245.3753994597,-839.8387701131,-8477.8427613848,-5826.8788222673,-8698.7838002958,-22040.3470065343,-11347.0465107187,-4614.6598585849,-6661.3638057783,-2058.7743024418,-24085.8706871359,6940.6002801680,9341.5788880582,15099.5885463076
560785669082,31115,-2,0,4134.8997405531,6462.4584658137,12255.6936063655,-833.5845739461,-8477.1857057564,-5813.7255420017,-8694.7927957379,-22041.4177638547,-11349.1271868754,-4613.2362380566,-6653.3087904815,-2062.6071269410,-24087.2578045737,6937.1689896639,9339.8024043221,15094.5511198229
560785669082,31115,-2,0,4129.1444199558,6459.1975230651,12252.9802099740,-835.5435731346,-8486.2628075863,-5816.7918016011,-8703.2736804235,-22049.4484437579,-11359.2385429353,-4622.4228491579,-6662.9456063653,-2071.5747194995,-24095.3371552642,6929.1018066703,9331.5892089666,15084.6587823059
560785699382,31116,-2,0,4126.1755019310,6458.4674612557,12244.9738654645,-843.3552344949,-8496.6053498858,-5838.3894634618,-8717.6924011587,-22059.4624582432,-11369.3864020856,-4634.3958628317,-6682.6329398248,-2081.7104109530,-24101.5670160375,6922.9327843811,9323.5098582761,15078.3194122611
560785699382,31116,-2,0,4127.9398179704,6458.1267657447,12234.5096461968,-849.3174059382,-8500.3043297200,-5855.3999036203,-8723.2043678195,-22059.4989613336,-11370.4328240124,-4638.7884013848,-6692.1115756499,-2080.7491629040,-24101.8955438517,6923.4438276476,9323.7410445158,15078.8547909213
560785699382,31116,-2,0,4128.0128241513,6459.2705292461,12231.2973742355,-850.7775295569,-8498.2966597442,-5853.0515381334,-8719.5783941662,-22058.7688995243,-11367.9506138605,-4639.5427985878,-6684.7014482847,-2078.6198159600,-24101.0924758614,6925.2933175647,9326.7221302374,15080.8381255035
560785699382,31116,-2,0,4126.9907376182,6459.9519202681,12239.0238617181,-845.7157676786,-8499.4890940329,-5838.7301589728,-8714.7599862243,-22058.2091854704,-11368.7415141540,-4637.9853333944,-6673.2029747870,-2079.5810640090,-24104.4020893973,6922.6894304446,9324.1547462077,15078.3194122611
560785699382,31116,-2,0,4122.4400190064,6456.6788098228,12243.3433940902,-843.9027808520,-8502.1903227275,-5832.6098074709,-8714.1637690800,-22058.8784087957,-11370.8343580075,-4637.7054763675,-6670.8667769970,-2080.7369952072,-24107.5413551776,6920.5965865911,9324.5684478997,15074.8759540602
560785699382,31116,-2,0,4118.1569897247,6451.6413833381,12235.0206894633,-849.2200643636,-8501.6427763705,-5841.9911017214,-8717.4490472222,-22056.6760556707,-11370.2624762569,-4639.2751092577,-6681.0511392378,-2078.5103066886,-24103.9762200085,6921.3388160973,9324.7631310489,15078.3680830484
560785699382,31116,-2,0,4116.8915492551,6449.9135703892,12228.2311146361,-854.4278386038,-8497.3475793920,-5851.4940729401,-8718.0330966697,-22053.0500820175,-11364.5436587501,-4635.6004648172,-6684.8839637370,-2071.9032473137,-24098.5372595286,6928.8097819466,9332.1610907172,15088.6741222575
560785699382,31116,-2,0,4119.7266226149,6453.8072333726,12229.6303997708,-852.6635225645,-8493.2227301690,-5847.7464223186,-8713.1051794564,-22049.4241083642,-11361.7329207840,-4632.3516897654,-6676.9749608021,-2067.7540626971,-24097.4786699050,6930.2942409590,9333.7063882138,15091.6187048886
560785730482,31117,-2,0,4123.3282608745,6460.1952742046,12236.9066824709,-842.8563589252,-8494.2934874895,-5835.0920176228,-8708.4571192701,-22048.1830032883,-11365.0425343198,-4632.6437144892,-6666.8757724391,-2069.6157203110,-24101.7251960962,6926.5344226407,9328.6324586386,15084.4154283694
560785730482,31117,-2,0,4120.8217153289,6459.4652123952,12241.9197735619,-840.8365212526,-8499.5742679106,-5830.1519327127,-8709.9659136761,-22052.0401631812,-11370.4328240124,-4634.6635521618,-6666.9852817105,-2074.2272774069,-24108.0402307473,6918.9417798232,9323.4490197920,15078.9521324959
560785730482,31117,-2,0,4116.9037169520,6453.2231839250,12237.0891979232,-846.8108603926,-8502.5918567227,-5837.0996875986,-8713.8960797499,-22051.6142937924,-11372.0267922962,-4634.9677445824,-6675.5635079707,-2075.2371962432,-24107.3466720284,6919.5136615738,9322.3904301684,15081.5560196160
560785730482,31117,-2,0,4118.4976852358,6452.9919976854,12227.9999283965,-850.1691447158,-8496.9582130937,-5845.1181998049,-8710.9149940283,-22045.4939422904,-11365.5292421927,-4631.3296032323,-6678.2647366654,-2066.5981314989,-24099.9243769664,6928.2135648022,9331.5283704824,15090.9738169570
560785730482,31117,-2,0,4124.6180367377,6458.9054983414,12230.4334677611,-845.7522707691,-8488.4043222272,-5838.4381342491,-8702.6044570982,-22037.4267592968,-11355.5638984947,-4621.8631351040,-6667.7396789135,-2058.8351409259,-24093.0617959583,6934.6989472089,9339.8389074125,15099.6980555790
560785730482,31117,-2,0,4130.5315373937,6464.5634773640,12243.8666050536,-838.6341681276,-8485.1920502659,-5822.6201283793,-8696.1799131757,-22035.4434247147,-11353.3858807634,-4614.9640510054,-6655.0487711272,-2058.7134639577,-24092.7332681441,6935.3438351405,9341.0921801853,15098.0554165079
560785730482,31117,-2,0,4129.3026000145,6464.0037633102,12251.9459557440,-834.5944927824,-8485.9221120753,-5814.5042745984,-8697.2141674057,-22042.7075397180,-11358.0582763434,-4617.6652797001,-6655.5963174842,-2063.9455735915,-24095.1789752055,6927.8607015944,9332.4044446537,15086.8854708245
560785730482,31117,-2,0,4124.8370552805,6456.7883190942,12246.3488152055,-842.2114709936,-8490.6431784426,-5822.2916005650,-8703.4440281790,-22047.4772768726,-11362.0614485982,-4622.3133398865,-6666.9001078327,-2068.7761492302,-24100.3137432648,6926.9602920295,9329.8735637145,15086.9584770054
560785760499,31118,-2,0,4121.8924726494,6452.4201159347,12236.3591361139,-850.2908216840,-8489.1343840365,-5836.6494828161,-8706.8509832894,-22047.2339229361,-11358.7761704560,-4623.9194758671,-6675.3931602151,-2066.4399514402,-24097.2961544527,6930.9269611938,9333.9010713629,15091.6187048886
560785760499,31118,-2,0,4121.7221248938,6454.7928168152,12230.6281509103,-850.0596354444,-8484.4376530629,-5836.9780106303,-8703.6752144186,-22042.0261486959,-11354.1524456633,-4621.5102718962,-6670.9884539652,-2060.9644878699,-24089.9833686621,6936.8404618497,9338.7194793048,15095.6827156275
560785760499,31118,-2,0,4123.6811240823,6460.9618391044,12238.2329614246,-840.6783411939,-8484.9730317231,-5823.8368980616,-8699.0514896259,-22041.8192978499,-11355.6490723725,-4619.6364465855,-6658.6139062963,-2061.3051833810,-24090.9932874984,6936.9864742116,9338.0624236764,15095.0013246054
560785760499,31118,-2,0,4122.8415530016,6463.1276891389,12247.7359326433,-836.4804857900,-8488.3799868335,-5814.9788147745,-8698.9541480513,-22045.2262529603,-11360.8811820064,-4621.1087379010,-6655.1096096113,-2066.6102991958,-24096.6025957338,6933.2631589838,9332.5017862283,15090.1099104826
560785760499,31118,-2,0,4119.9334734609,6460.9618391044,12245.2902255819,-837.4417338390,-8491.8842835185,-5821.9874081445,-8703.4318604822,-22047.6597923249,-11363.2417151900,-4626.1461643857,-6665.5251580917,-2070.6743099346,-24098.8901227365,6930.9877996779,9330.8104763699,15082.4199260905
560785760499,31118,-2,0,4120.7365414512,6457.4453747226,12236.6146577471,-844.5841718741,-8488.3556514399,-5834.5201358721,-8704.5756239835,-22045.4939422904,-11358.9100151210,-4625.0875747621,-6674.2007259265,-2065.1380078802,-24093.2686468043,6932.3384140252,9332.4652831378,15089.4528548541
560785760499,31118,-2,0,4124.3868504981,6461.1808576473,12236.8823470772,-843.4282406759,-8481.2010457080,-5835.8342471290,-8699.3435143497,-22040.8337144072,-11349.9667579562,-4618.1033167858,-6667.3624803120,-2059.2001718306,-24086.1870472533,6936.6701140942,9335.7870643705,15096.1815911972
560785760499,31118,-2,0,4127.5017808847,6466.8996751540,12245.8256042421,-837.0158644502,-8477.4777304802,-5822.7539730443,-8692.5052687352,-22038.0716472284,-11348.5309697311,-4615.0248894896,-6656.8252548633,-2058.2632591752,-24086.8927736691,6938.7386225541,9338.6099700334,15092.7868037836
560785794258,31119,-2,0,4129.7041340097,6470.4648103232,12253.4425824533,-829.4353893295,-8480.0937852971,-5812.1559091115,-8690.4489279721,-22039.6047770281,-11352.5219742890,-4616.1199822036,-6650.3398724567,-2061.3295187746,-24090.9689521047,6935.1491519913,9335.2395180134,15089.6962087906
560785794258,31119,-2,0,4125.1412477011,6465.8654209241,12254.2091473531,-832.2461272956,-8483.7927651313,-5816.6944600265,-8694.0383985349,-22040.8093790136,-11355.1380291059,-4619.1254033189,-6657.9081798806,-2063.6170457773,-24093.6823484963,6933.1901528028,9334.5337915977,15089.5623641255
560785794258,31119,-2,0,4124.7275460091,6461.7770747916,12244.8400207995,-839.4737392084,-8482.9653617473,-5829.0690076954,-8698.2605893324,-22038.7530382505,-11353.4588869444,-4618.7847078078,-6666.4377353535,-2059.5530350385,-24087.9026925054,6938.1789085002,9339.0845102095,15095.1230015736
560785794258,31119,-2,0,4125.3115954566,6462.7261551438,12239.4375634101,-841.7734339080,-8478.7675063434,-5834.0212603024,-8697.1046581343,-22035.7841202257,-11349.0176776040,-4617.3367518859,-6666.4012322630,-2056.4746077423,-24083.8143463729,6943.1189934103,9343.3188687039,15100.8296513836
560785794258,31119,-2,0,4126.6257067135,6464.5513096672,12245.7404303643,-837.8919386214,-8477.7697552039,-5824.1045873917,-8694.1844108967,-22036.5993559129,-11348.7256528802,-4614.8667094309,-6657.1537826776,-2057.4115203976,-24087.1361276055,6941.1234911314,9342.0290928406,15096.9238207034
560785794258,31119,-2,0,4125.8469741168,6466.5833150366,12253.9657934167,-834.0104433349,-8481.8702690332,-5813.5430265493,-8694.2209139872,-22037.2199084508,-11353.3372099761,-4614.3313307706,-6652.2380331611,-2061.2808479873,-24091.7720200951,6936.4145924609,9336.0425860038,15096.2789327718
560785794258,31119,-2,0,4125.1412477011,6464.6608189386,12253.8441164484,-832.5503197162,-8483.1478771996,-5813.8715543636,-8696.3745963249,-22037.7309517174,-11357.8392578006,-4616.4850131083,-6655.4503051223,-2060.9766555667,-24095.2884844769,6935.0396427199,9335.7748966737,15094.5632875198
560785794258,31119,-2,0,4121.8681372557,6461.3390377060,12245.7404303643,-839.9482793845,-8481.7607597618,-5823.6057118219,-8697.4331859485,-22034.5795182403,-11353.4467192475,-4613.7594490200,-6661.2907995974,-2056.2069184121,-24090.9446167111,6938.3735916494,9340.3134475886,15102.4357873642
560785825739,31120,-2,0,4123.2309192999,6464.1984464593,12241.2748856303,-841.9316139666,-8476.3583023724,-5829.7625664143,-8694.4521002269,-22028.0332973495,-11347.5940570757,-4610.1821461540,-6659.1249495629,-2049.4416789786,-24085.2744699916,6943.5326951023,9344.4869675989,15107.5218846362
560785825739,31120,-2,0,4125.7009617549,6468.3719664696,12243.2947233029,-836.5413242741,-8476.2122900106,-5821.9387373572,-8689.7310338596,-22028.0941358336,-11348.3119511883,-4611.0217172348,-6650.8874188137,-2050.8287964164,-24086.7589290040,6940.7341248330,9342.9660054960,15103.5552154719
560785825739,31120,-2,0,4123.3890993586,6469.3697176091,12250.5223352158,-831.5525685767,-8482.6976724172,-5811.4623503926,-8690.1447355515,-22032.5840159613,-11353.6535700935,-4613.5282627803,-6645.4484583339,-2058.2024206911,-24093.5485038312,6934.2730778201,9336.3832815148,15094.9283184244
560785825739,31120,-2,0,4118.9478900182,6465.1231914179,12250.2911489761,-833.8157601857,-8488.0757944129,-5815.5141934347,-8695.7540437869,-22037.5484362650,-11360.8690143095,-4617.3367518859,-6652.2258654643,-2061.4998665301,-24098.7441103746,6930.0022162352,9334.5946300818,15089.7570472747
560785825739,31120,-2,0,4117.9258034851,6462.7748259311,12241.2140471462,-839.0722052133,-8487.7350989019,-5828.5214613384,-8699.0271542323,-22033.9346303086,-11358.8856797274,-4620.0866513679,-6661.8748490449,-2058.0929114197,-24093.6215100121,6932.9346311695,9339.0236717254,15093.6872133485
560785825739,31120,-2,0,4120.5661936957,6464.3566265180,12236.7606701090,-841.9681170571,-8482.3204738157,-5835.4205454370,-8696.5814471709,-22030.6128490760,-11352.0839372034,-4616.2903299591,-6661.8383459544,-2052.1915784606,-24090.9081136206,6936.0860646467,9341.8465773883,15098.5299566840
560785825739,31120,-2,0,4125.5671170899,6468.4328049537,12240.3014698845,-838.3056403134,-8479.2907173068,-5828.1320950401,-8692.3835917670,-22031.0752215552,-11350.6238135846,-4614.9275479150,-6652.3718778261,-2052.9824787541,-24091.6868462173,6937.1933250576,9341.6640619360,15098.4812858967
560785825739,31120,-2,0,4125.2142538820,6468.2016187141,12249.7436026191,-833.0005244986,-8482.3813122998,-5816.8648077820,-8692.3835917670,-22035.1757353846,-11355.8437555217,-4616.6796962575,-6647.6751468525,-2057.5818681531,-24097.2109805749,6934.1148977614,9337.2106848988,15094.7823060626
560785863232,31121,-2,0,4125.0439061265,6469.1020282790,12255.0487184339,-831.9662702687,-8484.9365286326,-5813.6890389112,-8695.7053729996,-22041.1865776151,-11359.4210583876,-4617.6409443065,-6650.7170710582,-2061.9135682221,-24099.7418615141,6930.4767564113,9333.9984129375,15089.2338363113
560785863232,31121,-2,0,4120.4566844243,6464.0889371879,12246.1662997532,-839.0965406069,-8486.5061615228,-5826.8179837832,-8700.6819610002,-22044.1554956399,-11359.4088906908,-4620.7072039059,-6661.9965260131,-2062.5341207601,-24098.9387935238,6931.5840168222,9334.4242823263,15089.1608301304
560785863232,31121,-2,0,4119.4832686784,6459.6598955444,12236.5538192630,-845.6792645881,-8483.7075912535,-5837.4038800191,-8700.9861534208,-22041.2352484024,-11354.9190105631,-4619.5999434950,-6667.2164679501,-2057.9468990578,-24093.0861313519,6935.3803382309,9339.4982119015,15092.2392574266
560785863232,31121,-2,0,4124.4598566790,6467.0821906064,12239.2550479577,-841.0920428859,-8479.2663819131,-5831.4173731822,-8695.7053729996,-22037.5971070523,-11350.8428321274,-4615.7549512989,-6656.5453978364,-2054.7954655807,-24091.0419582857,6937.4366789940,9341.9317512661,15094.1860889182
560785863232,31121,-2,0,4125.5306139994,6470.0024378439,12249.6949318318,-834.8621821125,-8480.5926608668,-5818.3857698849,-8691.9820577718,-22036.9765545144,-11353.3493776730,-4614.1974861056,-6646.3610355956,-2057.0464894929,-24094.1933917628,6934.3582516978,9339.6198888697,15090.8886430792
560785863232,31121,-2,0,4123.9366457156,6468.6639911934,12251.9581234409,-833.1222014668,-8485.7517643197,-5816.2077521536,-8696.1069069948,-22040.1401556883,-11357.8270901038,-4618.4805153873,-6649.9383384616,-2060.9888232636,-24093.6215100121,6931.9247123332,9335.1300087420,15085.4496825994
560785863232,31121,-2,0,4117.4269279153,6462.3732919359,12242.7228415523,-841.3110614287,-8489.4750795476,-5830.3587835586,-8704.0402453233,-22044.3015080018,-11359.7617538987,-4621.5467749867,-6662.9942771526,-2062.9356547552,-24092.0032063347,6937.1933250576,9339.3156964491,15090.5844506587
560785863232,31121,-2,0,4111.6837750149,6455.7784002579,12231.7475790180,-849.9744615666,-8488.3556514399,-5840.8351705232,-8706.8023125021,-22043.4497692242,-11355.7342462503,-4620.3421730012,-6669.1267963513,-2058.6647931704,-24086.5885812485,6943.0216518358,9343.9150858482,15097.9824103270
560785892912,31122,-2,0,4116.6603630155,6462.3976273295,12234.2906276540,-845.7157676786,-8482.6003308426,-5835.0798499260,-8701.8865629857,-22037.4632623873,-11352.2299495652,-4616.9960563749,-6661.5828243211,-2054.2600869205,-24085.3109730821,6946.4164392494,9346.9448423571,15099.2721861902
560785892912,31122,-2,0,4121.0407338718,6468.5423142251,12246.0811258754,-835.5192377410,-8481.2010457080,-5817.6313726819,-8695.1213235521,-22036.1734865241,-11351.9744279320,-4612.9442133328,-6647.4926314001,-2055.2578380600,-24089.6061700606,6943.3623473468,9344.4382968116,15096.4127774368
560785892912,31122,-2,0,4121.2719201114,6467.9339293840,12254.7201906197,-834.3511388460,-8482.4786538744,-5809.6980343533,-8693.7828769016,-22036.3560019764,-11352.7409928318,-4610.4741708778,-6646.1541847496,-2058.4944454149,-24092.8306097187,6939.4443489698,9340.8609939456,15093.5777040771
560785892912,31122,-2,0,4118.5950268103,6462.5193042978,12248.2956466972,-839.0600375164,-8482.2718030284,-5819.3835210244,-8697.3358443739,-22035.3947539274,-11354.5783150521,-4612.7738655773,-6655.9126776016,-2056.1217445344,-24093.4633299534,6938.3735916494,9341.6762296328,15095.1473369673
560785892912,31122,-2,0,4116.5995245314,6460.4751312315,12237.4177257375,-844.6206749645,-8478.4146431355,-5828.5457967320,-8696.0825716011,-22030.6858552569,-11349.7720748070,-4610.6566863301,-6661.2664642037,-2050.4272624212,-24089.3993192146,6942.4741054787,9347.8087488315,15103.2875261418
560785892912,31122,-2,0,4118.8627161405,6464.5391419704,12238.9386878403,-841.6517569397,-8474.1316138538,-5824.6277983550,-8691.1059836005,-22026.0377950705,-11343.7125617892,-4605.9234522660,-6652.8707533959,-2044.9396311541,-24084.2402157617,6947.2925134206,9350.5464806167,15108.2641141424
560785892912,31122,-2,0,4119.5806102530,6468.1042771395,12245.3753994597,-835.1542068363,-8474.8130048759,-5811.9977290528,-8686.2997433555,-22025.5632548945,-11345.4038716476,-4604.2929808917,-6641.6034661378,-2046.6066056188,-24085.9436933169,6945.5160296845,9348.1737797362,15104.6381404892
560785892912,31122,-2,0,4118.3760082675,6466.0966071637,12249.1352177779,-833.3655554033,-8478.0861153213,-5806.7169486317,-8688.9279658692,-22029.2013962445,-11350.8428321274,-4607.5295882466,-6641.3114414141,-2052.0942368860,-24090.3118964763,6937.7287037178,9339.7780689284,15095.4150262974
560785917934,31123,-2,0,4114.4215068001,6463.1763599262,12247.6142556751,-838.6828389149,-8482.5638277521,-5815.6602057965,-8694.5007710141,-22031.4280847631,-11354.1889487537,-4611.3867481395,-6651.9946792246,-2055.6837074488,-24095.3128198705,6934.5651025438,9339.1940194809,15096.8386468257
560785917934,31123,-2,0,4111.9271289514,6456.6179713387,12234.2176214730,-847.6504314734,-8482.2231322411,-5829.6773925366,-8698.4674401784,-22033.7277794626,-11352.1204402938,-4615.8401251767,-6661.5098181402,-2051.4250135607,-24091.6868462173,6936.5484371260,9341.1408509726,15101.0121668359
560785917934,31123,-2,0,4115.0785624285,6458.7229828890,12231.9665975608,-845.7644384659,-8477.9401029594,-5829.0081692113,-8693.6003614492,-22031.0387184648,-11346.7909890854,-4613.5891012644,-6657.0077703157,-2048.2127415995,-24087.7810155371,6940.2717523538,9344.9006692909,15105.8792455651
560785917934,31123,-2,0,4120.2741689719,6465.3787130512,12243.5624126330,-836.7968459074,-8475.5795697758,-5813.9445605445,-8689.1956551993,-22030.5641782887,-11346.4989643616,-4609.5129228288,-6645.1442659133,-2049.7093683087,-24088.1703818355,6939.5295228476,9343.5500549435,15105.2830284208
560785917934,31123,-2,0,4119.4954363752,6466.2061164351,12251.0333784823,-833.9861079413,-8477.0396933945,-5805.8895452477,-8688.4655933900,-22033.3749162548,-11350.9158383084,-4610.9122079634,-6642.1753478885,-2054.0775714681,-24091.9423678506,6937.7287037178,9341.6518942391,15100.9148252613
560785917934,31123,-2,0,4117.4390956122,6463.5413908309,12247.3587340418,-838.3543111007,-8479.0473633703,-5812.3262568670,-8693.4908521778,-22035.5894370766,-11352.5706450763,-4612.8468717583,-6650.4737171218,-2056.6571231946,-24092.9036158996,6939.2496658206,9340.5811369187,15099.6128817013
560785917934,31123,-2,0,4114.0929789859,6458.1632688352,12239.1820417768,-847.3097359624,-8479.1203695512,-5826.3191082134,-8696.7274595327,-22035.1879030814,-11349.4313792960,-4612.1411453425,-6658.7599186582,-2052.9703110572,-24088.0973756545,6941.2208327060,9343.0146762833,15104.8693267288
560785917934,31123,-2,0,4115.2245747904,6456.8978283656,12231.7962498053,-849.5364244810,-8477.0518610913,-5831.0766776712,-8697.4331859485,-22034.1779842451,-11346.8761629632,-4611.5084251077,-6658.7964217487,-2051.8873860400,-24085.5299916249,6943.7760490388,9344.6938184449,15104.2001034035
560786018396,31124,-2,0,4116.5143506536,6459.8667463904,12238.2572968182,-846.5796741530,-8480.9820271652,-5823.3623578855,-8697.9563969119,-22039.1302368520,-11351.0131798830,-4613.3822504185,-6652.2136977674,-2056.9978187056,-24090.6282565937,6939.4808520603,9339.7780689284,15099.9900803028
560786018396,31124,-2,0,4112.9857185750,6457.4332070258,12243.9517789314,-846.4093263975,-8489.2438933079,-5819.1158316943,-8702.9694880029,-22046.9297305155,-11359.9807724415,-4617.6652797001,-6652.9315918800,-2067.5472118511,-24099.2916567316,6930.5497625922,9332.0880845363,15092.3974374853
560786018396,31124,-2,0,4109.8342850978,6454.7319783311,12243.6354188140,-849.7676107206,-8493.0645501103,-5824.0802519980,-8709.0168333239,-22051.0789151322,-11362.8401811949,-4620.3421730012,-6661.7410043798,-2069.6643910983,-24102.1632331818,6929.6858561178,9330.9321533381,15092.8476422677
560786018396,31124,-2,0,4110.7833654500,6452.5782959934,12235.4708942458,-853.4909259484,-8488.6476761636,-5834.5809743562,-8709.7712305269,-22045.7007931364,-11357.0605252040,-4618.2858322381,-6668.6279207816,-2064.4931199486,-24094.2663979438,6937.7895422019,9339.5590503856,15098.9314906792
560786018396,31124,-2,0,4112.9248800909,6456.2407727371,12232.3802992528,-856.1313161590,-8482.4178153903,-5836.8076628748,-8707.9095729130,-22042.1599933609,-11349.6625655356,-4613.8081198073,-6666.6689215931,-2059.2488426179,-24086.6859228231,6944.7251293910,9344.1341043910,15101.2311853787
560786018396,31124,-2,0,4118.7897099595,6460.8766652267,12240.2041283099,-848.9888781240,-8481.5295735222,-5827.5967163798,-8704.1619222916,-22043.1699121972,-11350.2466149831,-4613.1997349661,-6659.2466265311,-2062.1690898554,-24086.1383764660,6942.0117329995,9342.1264344152,15099.6858878822
560786018396,31124,-2,0,4118.6923683849,6462.7383228406,12246.2879767214,-842.8076881379,-8485.1312117818,-5818.0694097675,-8704.5391208931,-22049.0347420659,-11356.5981527247,-4617.5801058224,-6655.6571559683,-2067.8027334844,-24087.9026925054,6935.6236921674,9334.9596609865,15088.3334267464
560786018396,31124,-2,0,4115.2367424872,6457.8712441114,12245.8134365453,-845.6670968913,-8490.4971660807,-5823.6300472156,-8709.1993487763,-22054.5102056362,-11360.7838404318,-4623.1164078768,-6664.7829285855,-2072.5359675485,-24092.9887897773,6931.2676567048,9332.4287800473,15085.4375149026
560786019255,31125,-2,0,4114.1781528636,6458.1754365320,12238.3911414833,-850.7045233760,-8489.0613778556,-5836.7103213002,-8711.5598819599,-22050.9329027703,-11358.5084811259,-4626.0488228111,-6674.0547135646,-2068.1069259050,-24090.3849026572,6935.3925059278,9336.2372691529,15089.8787242429
560786019255,31125,-2,0,4112.0974767069,6455.9487480134,12227.0265126507,-855.4742605306,-8487.0658755766,-5845.7752554333,-8711.0245032997,-22045.4087684127,-11355.4178861329,-4629.0907470169,-6675.8555326944,-2062.8991516648,-24087.4646554197,6940.1744107792,9340.5446338282,15094.6606290943
560786019255,31125,-2,0,4112.0488059196,6457.9929210796,12229.0706857169,-853.2597397088,-8490.0712966919,-5839.9225932615,-8708.5179577542,-22046.0293209506,-11359.6644123241,-4630.2831813055,-6668.1777159991,-2065.5882126626,-24090.8107720460,6939.1523242461,9339.0723425127,15091.8620588251
560786019255,31125,-2,0,4109.8586204915,6458.3579519843,12236.7850055027,-849.1835612731,-8494.4029967609,-5831.4903793632,-8707.6053804925,-22049.8256423594,-11366.3323101830,-4632.9965776970,-6663.4201465414,-2070.0415896998,-24096.4444156751,6934.1392331550,9332.4409477442,15086.0702351373
560786019255,31125,-2,0,4107.4129134301,6455.5350463214,12238.1599552437,-850.0353000507,-8498.8685414949,-5833.1573538279,-8710.2701060967,-22053.0135789270,-11370.8465257044,-4636.4400358979,-6668.6887592657,-2072.4507936708,-24099.5228429713,6931.0364704652,9330.9929918222,15082.8336277824
560786019255,31125,-2,0,4109.0190494107,6456.2894435244,12234.5948200745,-852.5905163835,-8496.6175175826,-5843.2808775846,-8710.8541555442,-22049.2537606087,-11366.6730056941,-4633.2034285430,-6674.6630984058,-2068.2651059637,-24096.4079125846,6935.4046736246,9335.1421764389,15089.9395627270
560786019255,31125,-2,0,4115.8451273284,6462.7383228406,12233.4997273605,-850.4611694395,-8485.6422550483,-5844.9356843525,-8704.9649902819,-22040.1766587788,-11356.5008111501,-4623.7369604148,-6669.6135042243,-2056.6084524073,-24088.5962512243,6942.7539625057,9343.0511793738,15100.8296513836
560786019255,31125,-2,0,4123.1457454221,6471.9857724260,12241.1288732685,-842.0167878444,-8479.4854004559,-5833.3033661898,-8696.0947392979,-22034.0076364896,-11350.8063290370,-4616.5336838956,-6657.4944781886,-2052.3375908225,-24085.8585194391,6946.2704268875,9346.4216313937,15103.1658491736
560786028000,31126,-2,0,4126.9785699214,6474.6748334239,12251.5444217489,-833.8765986699,-8481.8702690332,-5819.7728873227,-8693.6977030238,-22036.1004803431,-11353.8360855459,-4614.7206970690,-6648.1375193318,-2057.1438310675,-24090.3727349604,6939.5295228476,9341.8344096915,15098.7854783173
560786028000,31126,-2,0,4122.9510622730,6470.0024378439,12254.0387995976,-835.9694425234,-8486.4818261291,-5821.0748308827,-8699.5138621052,-22043.6079492829,-11360.3701387398,-4617.9086336366,-6654.3673801051,-2063.5318718996,-24094.7531058167,6933.2509912869,9336.0790890942,15094.0887473437
560786028000,31126,-2,0,4119.1425731674,6465.6707377749,12245.2537224914,-841.1893844604,-8487.9541174447,-5831.9770872361,-8704.5147854994,-22043.9364770971,-11360.9663558841,-4620.9262224487,-6667.0461201946,-2062.8869839679,-24093.6580131026,6935.5628536833,9337.1376787178,15095.7557218084
560786028000,31126,-2,0,4118.6558652945,6466.0236009828,12236.4321422948,-845.1560536247,-8484.3281437915,-5839.7765808996,-8704.0645807170,-22039.6169447249,-11355.2718737710,-4617.0203917685,-6667.5571634612,-2059.1636687401,-24089.3749838209,6939.4200135762,9340.7028138869,15101.5597131930
560786028000,31126,-2,0,4120.1159889132,6469.0776928853,12240.7760100606,-842.5399988078,-8482.1014552729,-5832.2569442630,-8700.2682593082,-22037.3172500254,-11353.0695206460,-4612.9442133328,-6659.5629866485,-2057.0221540993,-24090.7864366524,6939.1888273365,9341.2138571535,15101.5353777993
560786028000,31126,-2,0,4124.8492229773,6474.9668581476,12250.8630307268,-834.0591141222,-8482.1014552729,-5815.9643982171,-8696.2042485694,-22037.9499702602,-11357.1091959913,-4612.3723315822,-6649.3542890141,-2060.4169415129,-24096.1645586481,6936.1469031308,9338.1962683414,15096.6804667670
560786028000,31126,-2,0,4122.6833729429,6472.9956912623,12254.4159981991,-834.1807910904,-8487.0293724862,-5814.1635790873,-8699.0758250196,-22042.8778874735,-11361.6477469062,-4615.5237650593,-6652.4205486134,-2064.9068216405,-24101.3966682820,6930.7322780446,9335.4585365563,15090.7061276269
560786028000,31126,-2,0,4120.5296906052,6466.8875074572,12249.3664040176,-842.5765018983,-8488.8058562223,-5824.9806615629,-8703.7117175091,-22044.9585636302,-11363.0226966472,-4616.8500440130,-6662.3980600082,-2064.9554924278,-24101.3723328884,6930.2212347780,9335.9939152165,15091.2658416807
560786059455,31127,-2,0,4121.0894046590,6466.6806566112,12243.2582202125,-845.0830474438,-8482.9288586568,-5833.3155338866,-8701.5945382619,-22038.4123427395,-11355.8315878248,-4613.9419644723,-6664.0285313825,-2058.6769608672,-24092.7211004472,6937.3150020258,9342.0169251438,15096.3884420432
560786059455,31127,-2,0,4122.7198760333,6470.8541766215,12243.0878724569,-842.0654586317,-8477.8062582944,-5826.4651205753,-8693.8680507794,-22033.2654069834,-11349.1150191786,-4607.8216129704,-6654.3308770146,-2054.5156085538,-24088.9491144321,6941.7440436693,9344.9736754718,15097.1185038526
560786059455,31127,-2,0,4122.7807145174,6472.5333187831,12254.4890043800,-835.8599332520,-8478.9986925830,-5814.1270759968,-8691.1911574783,-22035.7232817416,-11351.4998877559,-4605.9477876596,-6645.1686013070,-2059.1149979528,-24094.2420625501,6937.5705236591,9339.7902366252,15093.0666608105
560786059455,31127,-2,0,4119.8482995831,6469.7955869979,12255.6084324878,-835.3002191981,-8481.7364243682,-5810.5254377373,-8691.2033251751,-22038.2298272871,-11355.1623644996,-4608.0406315132,-6646.9329173463,-2060.9888232636,-24096.5174218560,6934.7354502993,9337.2836910797,15088.9296438907
560786059455,31127,-2,0,4116.9280523456,6466.0479363764,12250.6926829713,-839.2547206656,-8479.9599406320,-5818.9698193324,-8694.1235724126,-22037.4024239032,-11353.7509116681,-4610.9730464475,-6657.2146211617,-2059.6260412194,-24093.9622055232,6937.7043683241,9338.8898270603,15091.1319970157
560786059455,31127,-2,0,4116.2831644140,6464.0524340975,12242.4186491317,-845.8374446468,-8475.6160728662,-5831.4660439695,-8694.6711187697,-22034.7985367831,-11349.2245284500,-4612.0681391616,-6663.9433575048,-2055.8418875075,-24086.7832643976,6941.5858636107,9341.9925897502,15095.0013246054
560786059455,31127,-2,0,4117.2322447662,6464.7703282100,12240.6056623051,-845.5089168326,-8474.4479739712,-5831.1375161553,-8693.1258212732,-22033.3384131643,-11348.3362865819,-4615.9983052354,-6662.0938675877,-2055.5011919964,-24084.6660851505,6941.2695034933,9339.7902366252,15091.7890526441
560786059455,31127,-2,0,4119.4954363752,6469.0411897949,12246.0811258754,-838.9018574577,-8478.0009414435,-5822.3767744428,-8691.2763313561,-22035.4312570179,-11354.1402779665,-4621.9361412850,-6655.1339450049,-2061.2686802905,-24091.3583184031,6935.4655121087,9333.7185559106,15084.7682915773
560786075631,31128,-2,0,4118.4246790548,6470.6716611691,12252.3353220424,-836.1641256726,-8483.2208833806,-5818.4466083690,-8692.2740824955,-22038.6556966759,-11359.2750460257,-4625.4039348795,-6654.6350694352,-2064.6026292200,-24098.3425763794,6929.0531358830,9329.0339926337,15081.3613364669
560786075631,31128,-2,0,4116.7455368933,6470.4404749295,12247.9062803988,-837.7215908659,-8482.7341755077,-5827.9130764972,-8695.7053729996,-22036.6115236097,-11359.3115491162,-4628.0078219996,-6663.5053204191,-2061.8405620412,-24096.0915524672,6930.5010918050,9330.3602715874,15083.0648140221
560786075631,31128,-2,0,4119.4102624975,6470.3066302645,12240.1311221290,-839.9726147782,-8478.1469538054,-5839.4237176917,-8695.6080314250,-22032.4380035994,-11351.8405832669,-4625.1362455494,-6668.1047098182,-2054.1992484364,-24091.1514675571,6938.7751256446,9339.5955534761,15093.0544931137
560786075631,31128,-2,0,4120.6270321798,6469.8077546947,12238.0626136691,-841.1407136732,-8475.8715944995,-5839.1073575743,-8694.6224479824,-22029.7732779952,-11349.0055099072,-4620.5490238472,-6663.8338482334,-2051.9968953114,-24087.0387860309,6941.8170498503,9342.2237759898,15095.3541878133
560786075631,31128,-2,0,4120.9433922972,6470.4039718390,12245.8012688485,-837.5147400199,-8478.7918417370,-5826.7814806927,-8692.6147780066,-22033.0220530469,-11352.6193158636,-4620.0258128838,-6654.8054171907,-2056.7301293755,-24089.9346978748,6936.2929154927,9337.1498464146,15088.7592961352
560786075631,31128,-2,0,4118.6436975976,6469.6374069392,12250.8751984236,-833.1708722541,-8481.7120889745,-5818.4222729753,-8693.8072122952,-22036.7332005779,-11357.7419162260,-4622.0456505564,-6654.0510199877,-2062.1812575522,-24096.7121050052,6930.6227687732,9332.2462645950,15081.6776965843
560786075631,31128,-2,0,4113.8617927462,6462.5071366010,12246.4583244769,-839.1695467878,-8485.4962426865,-5825.5282079199,-8699.0149865355,-22040.1158202947,-11361.7329207840,-4623.4571033879,-6662.5197369765,-2064.7973123691,-24101.2749913138,6925.8408639218,9330.1655884383,15082.5659384523
560786075631,31128,-2,0,4112.1461474942,6458.5526351335,12237.3690549502,-845.6062584072,-8484.9486963294,-5837.2213645668,-8702.2272584967,-22038.6921997664,-11359.5427353558,-4623.5666126593,-6670.2097213686,-2059.8937305495,-24100.6666064726,6927.3983291151,9334.5094562041,15088.4916068051
560786105599,31129,-2,0,4115.8451273284,6462.9695090802,12235.3248818839,-844.3651533312,-8481.5904120063,-5837.0510168113,-8698.2240862420,-22032.8152022009,-11355.3813830424,-4619.8311297346,-6665.2696364585,-2055.9878998693,-24096.1280555577,6931.8517061523,9338.6586408207,15092.5556175440
560786105599,31129,-2,0,4119.4467655880,6467.9704324745,12247.6142556751,-835.3853930759,-8481.2253811016,-5822.2916005650,-8694.1479078063,-22034.2144873356,-11355.6125692820,-4614.9032125213,-6653.5521444180,-2056.3650984708,-24096.2862356164,6929.6371853305,9335.6288843118,15089.5015256414
560786105599,31129,-2,0,4120.9677276908,6469.3697176091,12256.8982083510,-830.3723019849,-8485.6909258356,-5813.7377096985,-8696.1677454789,-22040.1401556883,-11361.2462129110,-4615.8157897830,-6650.6684002709,-2064.5904615232,-24101.7982022772,6922.8232751097,9329.3503527511,15081.3370010732
560786105599,31129,-2,0,4115.9303012061,6465.9140917114,12252.4326636170,-835.4218961664,-8490.2416444474,-5819.7607196259,-8701.3755197191,-22045.1654144762,-11365.3953975277,-4618.6021923555,-6661.7896751671,-2068.5449629906,-24107.0303119110,6919.6475062389,9325.9433976407,15077.1391456693
560786105599,31129,-2,0,4114.1416497731,6461.5215531583,12244.3654806234,-842.3088125682,-8489.9982905110,-5834.8851667768,-8703.9064006583,-22043.3645953464,-11360.6256603731,-4617.3367518859,-6670.7937708161,-2064.0915859534,-24102.3335809374,6924.7336035109,9331.2241780619,15082.8701308729
560786105599,31129,-2,0,4116.6238599250,6464.3687942149,12242.6254999777,-842.1628002063,-8484.3403114883,-5836.7468243907,-8702.7261340665,-22039.0937337616,-11355.0285198345,-4614.2339891961,-6667.2773064342,-2059.6503766130,-24095.4588322324,6930.1360609003,9333.6820528201,15085.6808688390
560786105599,31129,-2,0,4118.1569897247,6467.8122524158,12245.2293870978,-836.2006287630,-8485.8369381975,-5828.9229953335,-8699.3070112592,-22037.6944486269,-11355.9289293994,-4615.4385911815,-6658.5895709027,-2061.1835064127,-24096.0185462863,6929.6858561178,9336.0060829133,15087.1409924578
560786105599,31129,-2,0,4115.6869472697,6467.2890414524,12253.4425824533,-832.1974565083,-8489.1587194302,-5820.4421106480,-8700.5481163351,-22043.7417939479,-11360.4553126176,-4617.3124164923,-6654.5620632543,-2065.6003803595,-24101.4818421598,6926.4857518534,9330.7374701890,15082.7849569952
560786136806,31130,-2,0,4111.4769241689,6463.0546829580,12253.4060793628,-836.0667840980,-8492.4805006628,-5824.5669598709,-8703.8455621742,-22045.3235945349,-11361.9762747204,-4619.3079187712,-6661.2664642037,-2066.8658208290,-24102.0780593041,6926.3154040979,9330.1047499542,15083.2473294744
560786136806,31130,-2,0,4109.9072912788,6457.8469087178,12243.7570957822,-842.4913280205,-8488.9031977969,-5837.4282154128,-8706.8753186831,-22043.7417939479,-11359.0681951797,-4618.6265277491,-6671.3656525668,-2062.7166362124,-24096.0428816799,6933.1536497124,9334.5702946882,15087.3843463942
560786136806,31130,-2,0,4115.1880716999,6462.0447641217,12240.7881777574,-844.0487932138,-8483.6710881630,-5840.3241272566,-8703.7847236900,-22039.5682739377,-11351.3538753940,-4615.2804111228,-6671.2926463858,-2058.3362653562,-24090.2997287795,6936.8769649402,9338.7803177889,15091.9350650060
560786136806,31130,-2,0,4116.0276427807,6463.7604093737,12246.2758090246,-840.5931673161,-8483.0992064123,-5831.8554102679,-8701.3511843255,-22041.9288071213,-11353.1060237365,-4616.3146653528,-6663.4566496318,-2061.7188850729,-24094.3150687310,6933.1049789251,9334.9353255929,15087.9927312354
560786136806,31130,-2,0,4113.8617927462,6460.9131683171,12249.1108823843,-838.6463358245,-8491.0447124377,-5825.4430340422,-8703.8577298710,-22047.6232892344,-11362.5116533806,-4624.7712146447,-6662.2520476464,-2069.0681739540,-24101.8712084581,6924.7579389045,9328.2430923403,15080.8381255035
560786136806,31130,-2,0,4107.0722179190,6456.6179713387,12244.8886915867,-843.6594269155,-8499.3552493678,-5833.4858816421,-8712.2656083756,-22051.7724738511,-11369.9461161395,-4633.7388072032,-6671.8158573492,-2074.8356622481,-24105.6918652605,6921.4726607623,9324.2885908728,15077.7962012977
560786136806,31130,-2,0,4099.6499228570,6448.7333037974,12232.3924669496,-853.9167953372,-8501.1195654071,-5849.0605335755,-8717.6924011587,-22055.1064227806,-11372.3309847167,-4636.2575204456,-6684.6406098006,-2073.7527372308,-24103.1609843213,6921.7525177893,9324.9578141981,15082.1765721540
560786136806,31130,-2,0,4102.1564684026,6449.3903594258,12223.5708867530,-856.8005394843,-8497.9681319300,-5855.9231145837,-8717.1448548016,-22051.1884244036,-11366.5756641195,-4636.7077252280,-6686.6117766859,-2068.5206275970,-24096.4930864624,6930.0752224161,9331.3093519396,15090.5966183555
560786166843,31131,-2,0,4105.5999266034,6453.4787055583,12228.9855118392,-851.3615790044,-8496.3133251621,-5846.7973419664,-8713.5675519357,-22049.4606114547,-11366.0889562466,-4633.4346147827,-6676.4152467483,-2067.7540626971,-24096.0307139831,6930.4280856240,9332.2584322918,15089.9030596366
560786166843,31131,-2,0,4104.8455294004,6453.4543701647,12237.5028996152,-848.8915365494,-8499.6716094852,-5834.2767819356,-8711.6085527472,-22052.1983432399,-11370.2746439537,-4633.1304223621,-6669.0781255640,-2073.0591785119,-24102.5039286929,6926.3884102788,9328.8514771814,15085.3766764184
560786166843,31131,-2,0,4101.3655681091,6449.7553903305,12237.1500364074,-849.7919461143,-8503.6017755590,-5835.2867007719,-8716.3417868113,-22056.7855649421,-11376.2611507906,-4637.1822654041,-6675.2958186406,-2077.4638847618,-24106.6409456127,6922.0688779067,9325.1159942568,15080.9598024717
560786166843,31131,-2,0,4094.6124963723,6439.5223573024,12222.8529926404,-861.7527920912,-8506.4611843124,-5850.1799616832,-8723.3503801813,-22059.3651166686,-11377.1858957491,-4639.8348233115,-6686.9159691065,-2077.7194063951,-24106.8599641555,6922.3730703272,9324.8726403203,15082.7484539047
560786166843,31131,-2,0,4092.5196525188,6438.2934199233,12215.7227223022,-868.2746775883,-8505.0740668746,-5860.4129947113,-8726.3679689934,-22058.7445641306,-11374.5333378417,-4639.1047615022,-6692.4644388577,-2076.9285061016,-24103.4895121355,6924.8066096918,9326.6247886628,15083.1986586871
560786166843,31131,-2,0,4094.8558503088,6441.5908657623,12217.9737462144,-865.2692564731,-8505.7919609871,-5856.0447915519,-8724.8226714969,-22058.6715579497,-11374.9470395337,-4639.9199971893,-6686.9159691065,-2079.2647038916,-24103.0393073531,6922.8476105033,9326.3327639391,15083.2716648681
560786166843,31131,-2,0,4095.9631107197,6445.2655102028,12225.4690474573,-859.9763083551,-8509.0529037357,-5845.0695290176,-8726.4531428712,-22065.9113375593,-11381.4445896371,-4641.7573194096,-6680.4062513062,-2085.3242169094,-24108.4539324393,6913.5149870401,9316.7446188426,15075.0219664221
560786166843,31131,-2,0,4096.6810048322,6443.7323804032,12231.6989082307,-859.2827496362,-8514.0294917363,-5843.7067469734,-8729.2395454436,-22068.6003985572,-11385.3382526205,-4640.2728603972,-6681.7446979567,-2087.8916009391,-24115.1583333888,6912.3347204483,9317.9857239185,15074.5839293365
560786199573,31132,-2,0,4095.0870365484,6441.7368781242,12226.5641401714,-862.3855123260,-8512.8857282349,-5851.4332344560,-8729.5924086515,-22066.4953870068,-11381.4689250308,-4639.2751092577,-6688.9723098696,-2082.1606157355,-24109.5611928502,6916.8732713633,9322.8771380413,15080.5461007797
560786199573,31132,-2,0,4095.2817196976,6441.5665303687,12219.1905158967,-864.9407286588,-8507.3980969678,-5858.3809893419,-8727.0736954092,-22059.1947689131,-11373.3409035531,-4636.2696881424,-6688.9479744759,-2074.9208361258,-24097.6733530542,6926.3032364010,9330.5184516461,15088.4186006242
560786199573,31132,-2,0,4098.2628054192,6446.2875967360,12222.6096387039,-861.8623013626,-8501.9469687911,-5850.9465265831,-8720.7708284549,-22055.0577519933,-11366.9163596305,-4630.4535290610,-6676.9749608021,-2071.2340239885,-24090.7742689556,6932.1558985729,9331.8934013871,15092.4217728789
560786199573,31132,-2,0,4096.8148494973,6447.0054908485,12231.0296849054,-854.6468571466,-8502.8108752655,-5835.2136945910,-8715.6117250019,-22054.4250317585,-11368.2061354938,-4627.5697849140,-6665.4764873045,-2071.9032473137,-24095.5196707165,6929.0166327926,9330.4454454652,15092.3487666980
560786199573,31132,-2,0,4087.9080954229,6441.2745056449,12232.1369453163,-856.6180240319,-8504.8185452413,-5830.2249388936,-8715.0641786449,-22054.9117396314,-11372.3309847167,-4628.4093559948,-6663.5661589032,-2072.2561105216,-24103.2704935927,6924.4415787871,9328.5472847608,15087.9683958417
560786199573,31132,-2,0,4083.5155568698,6434.2172414876,12228.4501331789,-862.8113817148,-8503.4192601067,-5840.7499966454,-8717.3273702540,-22053.0865851079,-11369.6419237189,-4627.4116048553,-6670.3435660336,-2071.4895456218,-24103.3800028641,6925.6218453790,9331.2606811523,15094.1130827373
560786199573,31132,-2,0,4091.0230258096,6436.1275698888,12223.7534022053,-868.0069882582,-8498.4061690156,-5851.5062406369,-8718.0574320634,-22050.6408780465,-11362.4264795029,-4625.4161025763,-6675.9528742690,-2066.5129576212,-24097.4421668145,6931.8638738491,9334.8136486246,15097.5808763318
560786199573,31132,-2,0,4105.8189451463,6449.4511979099,12233.5849012382,-860.3778423502,-8495.4007479003,-5848.8658504263,-8715.5022157305,-22051.6751322765,-11360.0416109256,-4626.5355306841,-6673.7261857504,-2068.1799320859,-24096.6877696115,6932.8737926854,9333.6820528201,15093.9914057691
560786230487,31133,-2,0,4111.5620980467,6454.8171522089,12243.7084249949,-853.1867335279,-8500.6815283215,-5840.6039842836,-8717.8019104301,-22059.7423152701,-11367.2813905352,-4630.1980074278,-6668.8956101117,-2077.6342325173,-24102.4065871183,6925.2324790806,9322.7311256795,15084.4397637631
560786230487,31133,-2,0,4109.2745710440,6455.4133693532,12250.6196767903,-852.7243610486,-8506.7288736425,-5837.7202401365,-8720.6369837898,-22064.5485555152,-11374.2291454211,-4634.9677445824,-6670.9154477843,-2084.4603104350,-24107.4683489966,6919.8665247817,9317.3408359869,15075.6181835664
560786230487,31133,-2,0,4106.7071870143,6451.9455757586,12242.6985061586,-855.2674096846,-8508.5296927723,-5848.1114532233,-8724.9565161620,-22065.5949774419,-11375.8474490986,-4640.9542514192,-6682.8032875803,-2083.8762609875,-24108.4904355298,6918.5524135248,9317.1948236250,15074.7056063047
560786230487,31133,-2,0,4104.8211940068,6448.1492543499,12234.4123046222,-860.3413392598,-8504.7090359699,-5859.2935666036,-8723.7640818733,-22061.0320911333,-11371.7225998756,-4640.4797112432,-6688.3030865443,-2077.5125555491,-24103.9032138275,6923.3464860731,9321.5508590876,15082.2982491222
560786230487,31133,-2,0,4108.8000308679,6452.5052898125,12234.6678262555,-857.8104583206,-8500.5111805660,-5855.8014376154,-8719.3472079266,-22055.9459938613,-11367.4882413812,-4636.7807314090,-6684.0078895658,-2073.2660293579,-24097.6490176605,6926.7899442740,9325.7365467947,15082.8944662666
560786230487,31133,-2,0,4109.7734466137,6455.8392387420,12239.7782589211,-852.1889823884,-8501.0587269230,-5842.2709587483,-8716.4634637796,-22055.8851553772,-11372.9028664674,-4638.8492398689,-6675.9650419658,-2076.5269721065,-24101.5548483407,6921.8498593638,9320.0177292879,15080.0107221195
560786230487,31133,-2,0,4106.0988021732,6452.8338176267,12242.9905308824,-851.9699638456,-8506.3638427378,-5837.3917123223,-8720.1381082201,-22063.4412951043,-11379.0475533630,-4640.7839036637,-6675.2349801564,-2082.5743174275,-24105.6188590796,6917.6276685663,9316.5742710871,15078.5749338944
560786230487,31133,-2,0,4104.7846909163,6450.0595827511,12241.0071963002,-856.1678192495,-8508.8582205865,-5844.6193242351,-8725.2607085825,-22066.3007038577,-11381.4689250308,-4643.7893247790,-6686.4535966272,-2084.0587764399,-24107.8942183855,6918.2117180138,9318.4845994883,15079.7186973958
560786284266,31134,-2,0,4103.9329521387,6446.8594784867,12229.2288657756,-864.0646544876,-8506.6558674616,-5857.0912134787,-8728.3634712724,-22063.7089844344,-11376.6140139984,-4645.4562992437,-6694.3382641685,-2081.3697154420,-24103.4530090451,6924.4415787871,9321.7455422368,15084.0747328584
560786284266,31134,-2,0,4107.3399072491,6449.7675580273,12229.4965551057,-863.6144497051,-8501.4602609182,-5855.2903943489,-8723.6910756924,-22060.8130725905,-11371.4549105455,-4639.8226556147,-6688.3274219379,-2076.8554999207,-24099.8878738760,6927.1914782691,9324.7509633521,15088.6984576511
560786284266,31134,-2,0,4110.8320362373,6455.5593817151,12240.8976870288,-854.1236461832,-8500.0123049962,-5841.6260708167,-8719.4688848948,-22059.9978369034,-11371.9416184184,-4635.4057816680,-6675.3079863374,-2078.2426173585,-24103.0514750499,6923.8088585523,9323.8018829999,15085.6200303549
560786284266,31134,-2,0,4109.4570864963,6453.4422024679,12246.2271382373,-851.9699638456,-8504.0641480383,-5834.4349619943,-8720.8316669390,-22064.4147108501,-11378.0984730108,-4637.8393210326,-6674.4562475598,-2083.3287146305,-24109.5368574566,6916.4108988840,9319.5796922023,15079.7308650926
560786284266,31134,-2,0,4103.2272257230,6448.4899498609,12242.0901213175,-857.1899057826,-8507.7509601756,-5842.1736171737,-8726.7938383822,-22067.7973305669,-11382.0286390846,-4639.5062954973,-6682.2192381328,-2086.1516202934,-24112.5422785718,6913.1012853481,9319.6283629896,15078.0030521437
560786284266,31134,-2,0,4100.2704753950,6445.8008888631,12232.6601562797,-864.0281513971,-8506.4733520092,-5855.1930527743,-8727.3413847393,-22062.0176745760,-11377.2589019300,-4637.6568055802,-6689.0088129600,-2080.2989581216,-24107.6873675395,6918.7714320676,9324.9091434108,15087.7737126926
560786284266,31134,-2,0,4103.2393934198,6449.1956762767,12226.4424632032,-863.5171081305,-8499.9758019058,-5854.6211710236,-8720.6978222739,-22056.3353601597,-11370.7005133425,-4634.2255150762,-6683.3021631501,-2073.1686877833,-24099.2794890348,6924.9282866600,9329.9952406828,15093.3708532311
560786284266,31134,-2,0,4109.3232418313,6458.2727781066,12238.8291785689,-853.0893919533,-8495.7171080177,-5839.6062331441,-8711.1218448743,-22050.5922072592,-11366.4539871513,-4629.2002562883,-6667.1312940724,-2069.4697079492,-24099.0969735825,6927.0454659072,9331.0538303064,15092.3609343948
560786305554,31135,-2,0,4111.4769241689,6459.5990570603,12249.7436026191,-845.0708797470,-8497.6396041158,-5828.5822998225,-8708.8099824779,-22052.5512064477,-11369.4594082665,-4628.9203992614,-6660.4755639102,-2073.3877063261,-24102.7472826293,6923.2248091048,9326.9289810834,15086.9949800959
560786305554,31135,-2,0,4108.9095401393,6456.6544744291,12248.3564851813,-849.9014553857,-8498.0533058077,-5831.9649195393,-8712.3751176470,-22053.7679761300,-11371.0777119440,-4631.9136526798,-6668.1655483023,-2074.7261529767,-24103.4408413483,6923.8575293396,9328.2430923403,15083.2108263840
560786305554,31135,-2,0,4107.9604597871,6455.7540648642,12239.6200788624,-855.8027883448,-8494.7923630592,-5842.5264803816,-8712.8009870358,-22051.4196106432,-11365.9672792784,-4630.1858397309,-6675.3688248215,-2068.6179691715,-24096.1037201640,6931.7178614872,9334.9718286833,15088.6984576511
560786305554,31135,-2,0,4109.3840803154,6454.9753322676,12235.4343911553,-857.0925642080,-8489.4994149412,-5845.8482616143,-8708.5544608446,-22045.7737993174,-11358.1069471307,-4622.6905384880,-6671.5968388064,-2061.6823819825,-24092.2708956648,6938.8116287350,9340.7879877647,15094.4416105515
560786305554,31135,-2,0,4111.4890918657,6458.2362750161,12241.6642519287,-852.9190441978,-8488.0879621098,-5834.6296451435,-8703.3466866044,-22043.6322846765,-11357.5837361673,-4621.0357317201,-6660.4512285166,-2061.1226679286,-24094.0352117041,6937.7287037178,9339.6198888697,15091.2658416807
560786305554,31135,-2,0,4108.8365339583,6456.1434311626,12246.3244798119,-849.3417413318,-8493.2105624722,-5826.3191082134,-8704.4174439248,-22047.2825937234,-11363.1687090091,-4621.9604766786,-6656.4845593523,-2065.9775789610,-24099.9730477537,6932.1802339665,9334.9839963802,15087.7493772989
560786305554,31135,-2,0,4101.4020711995,6448.8306453720,12244.5601637725,-856.4111731859,-8497.9681319300,-5831.4782116664,-8712.1195960138,-22055.7148076217,-11367.4639059876,-4625.2822579113,-6664.3205561063,-2072.0492596756,-24102.9176303849,6929.0896389735,9331.2850165460,15086.7151230690
560786305554,31135,-2,0,4096.1577938688,6443.0266539874,12230.8471694531,-865.2814241699,-8500.9492176516,-5848.7685088518,-8719.4810525916,-22058.3673655291,-11368.9483650000,-4631.4877832910,-6680.3819159126,-2072.8401599691,-24101.6521899153,6931.1094766461,9333.5847112455,15089.9517304239
560786328120,31136,-2,0,4093.7364222011,6439.2546679723,12218.5212925714,-872.6793838382,-8501.7401179451,-5858.9407033957,-8721.6347349293,-22057.6373037197,-11369.9217807458,-4634.6270490713,-6684.6041067101,-2070.9785023552,-24100.1920662965,6934.4920963629,9337.7460635590,15094.7579706689
560786328120,31136,-2,0,4096.7905141036,6443.9757343396,12226.0774322985,-868.0921621360,-8501.3994224341,-5848.7928442454,-8715.7334019702,-22056.2015154946,-11370.7005133425,-4632.8262299415,-6674.1763905329,-2071.5625518027,-24101.7738668835,6932.9954696537,9337.0281694464,15094.1009150405
560786328120,31136,-2,0,4098.2628054192,6447.6625464770,12235.3370495807,-859.9276375678,-8503.4679308940,-5835.6273962830,-8713.9569182340,-22056.4205340374,-11374.8740333527,-4634.8582353110,-6668.5549146007,-2074.7139852798,-24105.1199835098,6929.1991482449,9331.6865505411,15090.1099104826
560786328120,31136,-2,0,4093.9554407439,6445.8860627408,12235.7507512727,-858.9542218219,-8505.8527994713,-5835.7855763417,-8716.1471036622,-22058.6228871624,-11378.5121747028,-4637.0362530423,-6673.0934655156,-2077.5612263364,-24107.5535228744,6926.1085532519,9330.1290853478,15090.7547984142
560786328120,31136,-2,0,4094.5029871009,6443.9635666428,12230.8471694531,-864.7703809033,-8503.6869494368,-5845.5319014969,-8719.1768601711,-22056.8464034262,-11376.1881446096,-4636.2940235361,-6681.1363131156,-2072.9861723310,-24103.8302076466,6929.3208252131,9333.5360404582,15095.3906909037
560786328120,31136,-2,0,4096.8148494973,6443.5742003445,12224.5199671051,-866.9970694219,-8499.4282555487,-5851.9686131162,-8718.2399475157,-22052.4782002668,-11370.2381408632,-4631.3417709291,-6682.3287474042,-2066.2817713815,-24095.2398136896,6934.7719533898,9339.2548579650,15104.2122711004
560786328120,31136,-2,0,4104.0789645006,6450.0474150543,12227.8660837314,-863.3102572846,-8495.4615863845,-5841.4313876675,-8713.4580426643,-22049.5579530293,-11366.1497947307,-4626.7302138332,-6672.3269006158,-2064.6999707946,-24093.6945161931,6939.3956781825,9341.8709127819,15108.2641141424
560786328120,31136,-2,0,4103.2272257230,6450.9478246192,12240.1067867353,-858.0051414698,-8498.7468645267,-5828.9960015145,-8712.8739932168,-22054.1330070347,-11370.4206563155,-4625.6716242096,-6664.6734193141,-2070.1510989712,-24099.4133336999,6933.0928112282,9334.6433008691,15101.8274025231
560786382172,31137,-2,0,4097.2650542797,6445.1438332346,12239.8025943148,-862.2881707514,-8505.5486070507,-5833.5832232167,-8718.2764506062,-22059.5597998178,-11377.9037898617,-4631.4391125037,-6671.6333418969,-2075.9307549621,-24104.8279587861,6925.8165285281,9328.1457507657,15093.4438594120
560786382172,31137,-2,0,4092.0451123427,6440.4471022610,12230.6646540007,-867.5932865662,-8506.0596503172,-5846.7000003919,-8723.8370880543,-22059.8274891479,-11376.5896786048,-4634.9190737951,-6684.0078895658,-2076.6364813779,-24103.9762200085,6926.7047703962,9327.2575088976,15092.6772945122
560786382172,31137,-2,0,4090.7310010858,6437.9648921091,12221.8430738041,-871.5112849432,-8502.4215089672,-5857.2128904469,-8723.9587650225,-22056.4448694311,-11371.6252583010,-4633.5441240541,-6688.1205710919,-2071.4408748345,-24098.6346011032,6930.8052842255,9333.4508665805,15097.6417148160
560786382172,31137,-2,0,4091.6679137412,6441.5421949750,12224.6294763765,-866.8510570600,-8500.8640437738,-5852.6135010478,-8720.5518099121,-22054.3276901839,-11369.5567498411,-4632.4368636432,-6679.4328355604,-2070.7716515092,-24096.7729434893,6933.1536497124,9334.1809283899,15096.7534729479
560786382172,31137,-2,0,4094.3569747390,6447.2975155723,12232.9156779130,-859.1610726679,-8502.7622044782,-5840.2267856821,-8717.2908671635,-22057.3574466928,-11374.4359962671,-4634.6270490713,-6671.2318079017,-2074.6288114021,-24101.1898174360,6927.6538507484,9329.0096572401,15090.7061276269
560786382172,31137,-2,0,4093.3105528123,6444.2434236697,12236.3348007202,-859.5869420567,-8508.6026989532,-5840.0686056234,-8720.9776793009,-22062.2853639061,-11379.1935657249,-4637.9244949103,-6672.3877390999,-2079.3377100726,-24105.6310267764,6922.2513933590,9324.6171186870,15087.2870048196
560786382172,31137,-2,0,4091.8869322840,6441.0798224958,12232.1612807099,-866.0601567665,-8509.1867484007,-5851.5914145147,-8723.8979265384,-22061.8473268205,-11378.7311932456,-4638.7762336879,-6683.7280325389,-2077.4882201555,-24104.1709031576,6924.9769574473,9327.4156889563,15090.6209537491
560786382172,31137,-2,0,4093.3957266900,6440.3010898991,12222.7799864595,-871.5964588210,-8503.1880738670,-5860.0357961098,-8723.3868832718,-22058.4647071037,-11371.9902892057,-4637.5229609152,-6687.3783415857,-2070.7108130251,-24097.7585269319,6928.3474094673,9333.2196803408,15096.2424296813
560786389444,31138,-2,0,4096.9851972528,6443.6228711317,12224.3982901369,-868.0191559550,-8499.6472740916,-5855.0713758060,-8719.4323818044,-22056.0433354359,-11367.6464214399,-4632.0840004353,-6678.9339599906,-2068.4354537192,-24097.9775454748,6930.0143839320,9332.4166123505,15097.6782179064
560786389444,31138,-2,0,4098.5183270525,6447.5895402960,12236.9188501677,-861.8988044531,-8499.8784603312,-5840.1781148948,-8715.8307435448,-22057.3452789960,-11370.4206563155,-4632.3881928559,-6669.2363056227,-2072.0735950693,-24101.6400222185,6924.7579389045,9327.8293906483,15092.6286237249
560786389444,31138,-2,0,4096.1091230815,6446.0685781932,12238.5736569356,-860.0128114455,-8505.4512654761,-5838.0000971635,-8718.0087612761,-22061.0564265270,-11376.9425418126,-4635.9168249345,-6670.8424416034,-2077.4152139745,-24108.5999448012,6920.4140711387,9323.3030074301,15087.7737126926
560786389444,31138,-2,0,4092.8238449394,6442.5034430240,12233.7552489938,-865.7072935587,-8507.7022893883,-5847.9046023773,-8723.3260447877,-22062.1880223315,-11377.4049142919,-4636.8537375899,-6679.8830403428,-2076.8554999207,-24109.5003543661,6918.7592643708,9323.8018829999,15090.3775998127
560786389444,31138,-2,0,4095.0018626707,6441.3353441290,12228.7056548122,-869.5279503611,-8502.8717137496,-5856.5680025153,-8721.8902565626,-22057.6373037197,-11370.9682026726,-4632.0718327385,-6683.9835541721,-2070.4431236950,-24104.5724371528,6924.3320695157,9329.8248929272,15096.5222867083
560786389444,31138,-2,0,4100.3678169696,6446.7864723057,12228.2919531203,-866.1696660379,-8496.2403189811,-5849.9731108372,-8715.7334019702,-22052.6363803255,-11365.3345590436,-4627.9469835155,-6676.1475574182,-2065.6368834499,-24100.8126188345,6928.1648940149,9333.6577174265,15098.1649257794
560786389444,31138,-2,0,4102.8135240310,6450.8504830446,12238.7440046912,-858.1146507412,-8495.0478846925,-5832.5124658963,-8710.8419878474,-22053.1352558952,-11364.4949879628,-4624.3940160432,-6664.2718853190,-2067.9365781495,-24103.4286736514,6927.5078383865,9329.4720297194,15094.2104243119
560786389444,31138,-2,0,4101.9009467693,6449.6823841496,12245.4849087311,-857.2142411763,-8496.5201760081,-5824.2384320567,-8711.4382049917,-22056.9680803945,-11368.9240296063,-4622.9825632118,-6662.4223954019,-2072.4142905803,-24105.9595545906,6923.4194922540,9326.3449316359,15088.5402775924
560786432003,31139,-2,0,4099.7715998253,6446.6039568534,12240.5691592146,-860.2196622915,-8497.4327532698,-5830.9915037934,-8714.7721539212,-22058.2213531672,-11368.0844585255,-4625.4769410605,-6671.5360003223,-2072.5481352454,-24103.6355244974,6924.5997588458,9327.4278566531,15087.9805635385
560786432003,31139,-2,0,4100.6598416933,6448.3317698022,12233.8282551747,-864.0524867908,-8493.8797857975,-5843.9866040003,-8715.4657126401,-22052.6972188096,-11363.9474416057,-4624.2358359845,-6678.0578858194,-2067.4498702765,-24097.8802039002,6930.0630547193,9330.5306193430,15091.8985619155
560786432003,31139,-2,0,4102.4849962168,6450.3637751717,12232.0517714385,-863.8943067321,-8492.3466559978,-5843.8649270321,-8712.2534406788,-22048.9495681881,-11361.0271943682,-4622.0091474659,-6674.1885582297,-2064.1889275280,-24095.1181367214,6932.4479232966,9331.7473890253,15092.9328161455
560786432003,31139,-2,0,4104.8455294004,6455.2186862040,12238.7805077816,-856.7397010002,-8493.5025871960,-5831.3565346981,-8707.8243990353,-22049.8499777530,-11363.6675845788,-4622.9460601213,-6663.6391650842,-2065.3448587262,-24097.6855207510,6929.5398437559,9327.8050552546,15089.4041840668
560786432003,31139,-2,0,4101.8522759820,6453.4056993774,12244.8278531026,-854.0384723055,-8497.9924673236,-5824.8468168979,-8709.6738889524,-22054.8995719346,-11369.1430481491,-4625.1970840335,-6660.8649302086,-2071.4043717440,-24103.6720275879,6924.1617217602,9322.8162995572,15082.5294353619
560786432003,31139,-2,0,4094.9653595802,6445.6427088044,12238.0382782754,-862.8600525021,-8503.5896078622,-5835.3475392561,-8717.4855503127,-22059.2191043067,-11373.9127853037,-4630.3683551833,-6674.3224028947,-2077.1110215540,-24107.2128273634,6917.7858486250,9316.5499356934,15077.7110274200
560786432003,31139,-2,0,4090.4146409684,6440.1794129309,12225.0188426749,-872.8132285033,-8504.4291789430,-5852.5283271700,-8723.3503801813,-22059.3042781845,-11374.6185117195,-4633.7144718096,-6686.1494042066,-2075.5535563606,-24104.4020893973,6921.2171391290,9320.9668096401,15080.8624608971
560786432003,31139,-2,0,4092.2884662791,6441.2745056449,12219.9449130997,-872.7888931096,-8500.4381743850,-5856.0447915519,-8719.7974127090,-22054.4737025458,-11370.5301655870,-4630.4900321515,-6682.7546167930,-2071.1610178075,-24105.8257099256,6924.2103925475,9326.6856271469,15088.9296438907
560786445961,31140,-2,0,4096.0361169006,6446.2997644328,12231.2487034482,-864.6243685414,-8500.8275406834,-5844.1204486654,-8714.8694954957,-22053.8288146141,-11372.0754630835,-4627.2047540093,-6670.6599261510,-2070.9054961743,-24107.6630321458,6923.6628461905,9324.7752987457,15087.7128742084
560786445961,31140,-2,0,4095.7562598737,6445.8130565599,12239.5714080751,-857.8956321983,-8505.6337809284,-5836.8076628748,-8716.4269606891,-22057.8076514752,-11378.1471437981,-4631.8406464989,-6668.7009269625,-2076.9650091921,-24112.3354277258,6917.5059915980,9318.8131273025,15081.4830134351
560786445961,31140,-2,0,4092.2276277950,6445.2533425060,12237.5880734930,-860.1101530201,-8508.7608790119,-5843.6702438829,-8722.1701135895,-22062.7964071727,-11382.8195393781,-4637.6933086707,-6679.7248602841,-2081.1506968992,-24114.5621162444,6916.9462775442,9317.5841899234,15080.6069392638
560786445961,31140,-2,0,4089.6115729781,6445.9469012249,12228.5353070567,-868.8952301263,-8509.0164006452,-5858.2349769800,-8729.2517131405,-22064.8649156326,-11381.0917264293,-4638.9952522308,-6691.1381599040,-2081.3697154420,-24110.6319501706,6921.7768531829,9319.0564812389,15082.6511123301
560786445961,31140,-2,0,4089.1613681956,6446.8229753962,12221.6605583517,-871.2435956131,-8505.4999362634,-5862.3354908093,-8728.5459867247,-22063.0397611091,-11377.3927465951,-4640.7352328764,-6691.8803894102,-2078.9361760774,-24104.6576110306,6926.9846274231,9322.3782624716,15084.2572483107
560786445961,31140,-2,0,4088.9666850465,6448.4169436800,12225.1405196431,-865.5004427127,-8505.4756008697,-5851.0317004608,-8724.2264543526,-22061.5796374904,-11377.6239328347,-4639.4576247100,-6680.2237358539,-2079.3377100726,-24105.5336852018,6923.2856475889,9318.7157857279,15079.7308650926
560786445961,31140,-2,0,4089.8305915209,6448.0154096848,12236.8336762900,-859.5869420567,-8508.3228419263,-5840.8960090073,-8721.3548779024,-22063.0884318964,-11380.8483724928,-4637.9001595167,-6671.6941803810,-2081.3210446547,-24110.8266333198,6920.8277728307,9319.2511643881,15080.0837283005
560786445961,31140,-2,0,4087.9445985134,6445.3020132933,12236.3591361139,-861.9109721499,-8511.7419647336,-5843.8527593353,-8725.2120377952,-22064.2808661851,-11383.8902966985,-4640.8812452383,-6678.2160658781,-2081.7955848308,-24111.5688628260,6919.6475062389,9319.8108784420,15079.4753434593
560786485382,31141,-2,0,4085.8395869630,6441.7733812147,12225.8827491493,-872.1440051780,-8511.6446231590,-5857.4684120802,-8729.5559055610,-22064.8649156326,-11382.1138129624,-4643.2174430283,-6689.8848871313,-2079.2160331043,-24105.3633374463,6925.5366715012,9325.7487144916,15084.4032606726
560786485382,31141,-2,0,4086.4601395010,6442.4426045399,12220.2491055203,-875.2224324742,-8510.0749902688,-5863.4549189171,-8729.6167440452,-22064.6580647866,-11378.9137086980,-4640.9299160256,-6692.2697557086,-2077.2448662190,-24101.0681404678,6930.8539550128,9328.3647693085,15089.9517304239
560786485382,31141,-2,0,4089.2343743766,6446.0199074059,12224.9336687971,-870.2458444736,-8510.3183442053,-5853.9641153952,-8726.5748198394,-22063.5508043757,-11379.7411120819,-4640.1146803385,-6682.2435735265,-2078.0479342093,-24101.5183452502,6930.3672471399,9327.9754030102,15088.5889483797
560786485382,31141,-2,0,4088.6016541418,6446.2510936455,12231.0418526022,-863.6022820083,-8513.5671192570,-5841.7477477849,-8724.7496653160,-22066.0451822244,-11384.3161660873,-4640.0173387639,-6674.5779245280,-2081.0776907182,-24105.8500453192,6925.4028268361,9324.0209015427,15082.3225845159
560786485382,31141,-2,0,4085.3407113932,6443.4281879826,12234.3636338349,-863.3710957687,-8513.7861377998,-5841.8329216627,-8725.7474164555,-22066.6292316719,-11386.1169852171,-4638.3260289055,-6676.7924453498,-2082.6473236084,-24109.4151804883,6922.0932133003,9320.7964618846,15078.2099029897
560786485382,31141,-2,0,4081.9945947669,6439.5223573024,12226.6858171396,-869.4184410897,-8511.5594492812,-5852.6621718351,-8727.8767633995,-22063.7698229185,-11381.7001112704,-4636.2453527488,-6686.1980749939,-2078.2426173585,-24103.5868537101,6923.2004737112,9321.7333745400,15083.8435466187
560786485382,31141,-2,0,4085.2920406060,6441.1163255862,12220.8209872710,-870.4648630164,-8505.4999362634,-5858.9042003053,-8724.2021189589,-22058.7810672211,-11374.8253625655,-4635.0529184601,-6688.2057449697,-2071.5868871963,-24098.8901227365,6930.3064086558,9330.1290853478,15092.3000959107
560786485382,31141,-2,0,4087.6769091833,6444.9004792982,12226.3937924159,-868.8830624295,-8505.3417562047,-5851.8469361480,-8723.4842248464,-22059.2191043067,-11376.5045047270,-4634.8217322205,-6680.6252698490,-2074.9816746099,-24100.4232525362,6929.4911729686,9326.6977948437,15090.9129784729
560786516889,31142,-2,0,4086.7278288311,6446.2145905550,12233.6944105096,-862.9817294703,-8510.0506548752,-5841.7477477849,-8724.0317712034,-22066.1060207085,-11382.0651421751,-4637.8758241230,-6674.2737321074,-2081.2967092611,-24106.3002501016,6923.8088585523,9319.2876674786,15083.7218696505
560786516889,31142,-2,0,4087.4092198531,6447.6503787801,12236.6268254440,-861.7284566976,-8512.1678341224,-5841.8815924500,-8725.7717518491,-22066.6900701560,-11384.7420354762,-4640.6135559082,-6676.4639175356,-2084.2412918922,-24108.2592492901,6920.7669343466,9319.1659905103,15080.0350575132
560786516889,31142,-2,0,4085.4137175742,6446.8351430930,12230.5794801230,-866.6807093045,-8510.5130273544,-5852.2241347495,-8728.0106080645,-22063.7576552217,-11381.3959188498,-4640.2971957908,-6684.9082991307,-2081.2967092611,-24106.7869579746,6924.3929079998,9321.9158899923,15084.9264716360
560786516889,31142,-2,0,4088.7720018973,6448.7941422815,12225.9435876334,-867.2039202679,-8505.2200792365,-5858.8555295180,-8725.0660254334,-22057.7103099007,-11375.5432566780,-4638.2651904214,-6688.4125958157,-2074.5193021307,-24103.4165059546,6930.0873901130,9327.1114965357,15089.7448795779
560786516889,31142,-2,0,4090.6214918144,6450.6557998954,12225.7367367874,-864.5513623605,-8505.1714084492,-5855.7284314345,-8721.5373933547,-22056.2380185851,-11375.9934614605,-4637.7663148516,-6681.1484808124,-2074.4706313434,-24104.6454433337,6927.8241985039,9325.0064849854,15086.8002969467
560786516889,31142,-2,0,4088.4434740831,6448.8184776751,12232.6723239765,-862.1421583896,-8510.4643565671,-5844.0839455749,-8721.6712380198,-22064.0131768549,-11380.7875340087,-4640.0781772480,-6676.3787436578,-2082.2944604005,-24109.8288821803,6920.4262388356,9316.7202834489,15078.1125614151
560786516889,31142,-2,0,4083.1870290556,6443.1361632588,12233.1346964558,-866.5833677299,-8516.6212111596,-5846.3471371840,-8729.1908746564,-22071.1921179805,-11387.1390717503,-4645.6996531802,-6682.7059460057,-2088.7555074135,-24114.4404392762,6916.6299174268,9310.9892982453,15073.2941534733
560786516889,31142,-2,0,4080.8264958719,6440.4957730483,12223.7655699021,-870.9394031925,-8515.5017830518,-5857.0547103882,-8732.7560098255,-22070.1213606601,-11385.4720972855,-4646.6730689260,-6691.8682217134,-2084.7279997651,-24109.6220313343,6920.8642759212,9316.2335755760,15077.1269779725
560786545403,31143,-2,0,4082.2014456129,6443.1848340461,12218.2901063318,-872.9105700779,-8510.2331703275,-5864.0389683646,-8729.3125516246,-22063.6603136471,-11376.4314985461,-4641.6478101382,-6692.9633144275,-2076.7946614366,-24100.3989171425,6929.5155083623,9326.1502484867,15088.6132837733
560786545403,31143,-2,0,4088.5408156577,6448.3682728927,12225.3108673986,-866.9240632410,-8503.8086264050,-5855.9231145837,-8722.8028338243,-22058.8297380084,-11371.2358920027,-4636.7442283185,-6681.8663749250,-2071.9640857979,-24098.2330671080,6933.5065129202,9330.9443210349,15093.1396669915
560786545403,31143,-2,0,4091.0473612032,6453.3205254996,12233.7917520842,-860.2439976852,-8505.1835761460,-5841.6017354230,-8718.9091708410,-22059.2434397004,-11373.4869159149,-4636.4765389884,-6671.2318079017,-2074.2272774069,-24101.2993267074,6930.7687811351,9328.4256077926,15088.0657374163
560786545403,31143,-2,0,4090.0982808510,6450.9721600128,12239.1455386863,-859.7329544186,-8509.1745807039,-5840.0807733202,-8721.3062071151,-22062.0298422728,-11379.3395780868,-4637.5716317025,-6672.1808882539,-2079.6784055836,-24107.1398211824,6926.9237889390,9323.7167091221,15081.7141996747
560786545403,31143,-2,0,4086.6426549533,6446.9081492739,12233.0981933653,-867.7879697154,-8511.9123124891,-5851.5670791210,-8726.5748198394,-22063.8428290994,-11380.5320123754,-4639.5549662846,-6684.0443926563,-2081.2358707769,-24106.6287779159,6925.6340130758,9322.7554610731,15083.0769817189
560786545403,31143,-2,0,4085.4015498774,6443.0874924715,12220.4194532758,-873.8596504300,-8510.7077105036,-5863.5765958853,-8727.5604032821,-22060.7765695000,-11378.0132991331,-4639.1412645926,-6691.6978739579,-2075.4927178765,-24100.2164016902,6931.4136690667,9328.5351170640,15088.1995820814
560786545403,31143,-2,0,4089.5385667972,6448.1735897435,12222.2324401024,-869.1994225469,-8506.5220227965,-5858.4418278260,-8723.3990509686,-22059.0122534607,-11374.3021516021,-4636.3548620202,-6684.3485850768,-2073.5458863848,-24098.1600609271,6933.8715438249,9329.6545451717,15091.0346554411
560786545403,31143,-2,0,4088.9666850465,6452.4687867220,12233.4145534827,-861.5702766389,-8509.3935992467,-5846.4931495459,-8721.1480270564,-22061.1781034952,-11379.8262859597,-4636.6468867439,-6674.3345705916,-2078.1817788744,-24104.6576110306,6927.4226645087,9325.7730498852,15088.0048989322
560786576740,31144,-2,0,4087.5430645182,6450.1934274161,12237.0770302264,-860.2439976852,-8515.7451369883,-5843.6337407925,-8724.7983361033,-22066.9699271829,-11387.1512394471,-4643.8744986568,-6678.1187243035,-2085.5067323618,-24112.7247940242,6920.3897357451,9320.6747849164,15081.7141996747
560786576740,31144,-2,0,4084.6836557648,6444.7301315426,12231.7597467148,-867.3134295393,-8518.0083285974,-5854.5359971458,-8731.7582586860,-22069.7806651490,-11389.7794619608,-4648.3157079971,-6690.1890795518,-2086.7235020441,-24114.5256131540,6918.7227612803,9319.0078104516,15081.0084732590
560786576740,31144,-2,0,4084.6228172807,6442.8563062319,12221.4415398089,-874.5167060585,-8514.5040319124,-5864.6230178121,-8731.6122463241,-22064.9987602976,-11384.1944891191,-4645.0060944613,-6695.2386737334,-2080.9073429627,-24109.0136464932,6924.0400447920,9323.0474857969,15086.9949800959
560786576740,31144,-2,0,4090.3538024843,6446.7499692152,12222.8043218531,-870.0998321118,-8507.5441093296,-5860.0722992003,-8726.0272734824,-22060.1681846589,-11377.5752620474,-4640.7230651796,-6687.4635154635,-2075.5170532702,-24104.1587354608,6927.4469999024,9327.2818442912,15088.7836315289
560786576740,31144,-2,0,4092.5804910029,6452.2497681792,12231.4920573847,-861.8866367563,-8505.7067871094,-5845.8604293111,-8720.6734868803,-22059.9126630256,-11379.2179011185,-4639.1047615022,-6675.8433649976,-2077.3300400968,-24106.9816411237,6925.0986344156,9323.8140506967,15082.7971246920
560786576740,31144,-2,0,4091.9112676776,6453.7220594948,12238.0261105786,-857.4454274159,-8511.2430891638,-5839.6062331441,-8722.1822812863,-22066.3493746450,-11385.8127927966,-4641.5383008667,-6675.2349801564,-2082.7081620925,-24113.6495389827,6920.6209219847,9317.7788730725,15078.1855675961
560786576740,31144,-2,0,4090.4998148462,6455.4255370500,12237.5394027057,-856.1191484622,-8513.1655852618,-5848.2574655852,-8725.7230810618,-22066.7144055496,-11387.9056366501,-4645.8334978452,-6686.3075842653,-2082.8663421512,-24111.7757136720,6918.9417798232,9316.2457432728,15076.1900653171
560786576740,31144,-2,0,4089.7819207336,6453.4908732552,12226.4424632032,-862.8113817148,-8511.5229461907,-5862.4571677776,-8727.9619372772,-22063.0519288059,-11383.9389674858,-4647.0380998307,-6695.9322324523,-2078.8631698965,-24109.1353234614,6925.8286962249,9319.9933938943,15083.5393541982
560786605636,31145,5,0,4092.0086092522,6454.9631645707,12223.2301912419,-863.5049404337,-8508.5905312564,-5863.3089065552,-8724.6644914382,-22060.6913956223,-11380.6901924341,-4643.9596725345,-6691.5518615960,-2076.6729844683,-24105.7283683510,6928.0188816531,9321.6968714495,15086.1189059246
560786605636,31145,5,0,4093.6390806265,6457.7008963559,12232.3559638591,-857.1412349953,-8507.9821464153,-5849.8027630817,-8718.8118292664,-22060.3993708985,-11381.9069621164,-4642.1953564952,-6680.0047173110,-2077.6220648205,-24108.5756094075,6925.2568144743,9318.9226365739,15084.2085775234
560786605636,31145,5,0,4092.1059508268,6457.4088716321,12236.8458439868,-854.3061616356,-8509.4787731245,-5840.7743320391,-8717.7045688555,-22061.1659357984,-11384.3770045715,-4642.1345180111,-6675.1376385819,-2081.4670570166,-24114.0024021906,6921.1197975545,9316.2579109697,15078.6966108626
560786605636,31145,5,0,4090.0739454574,6452.9311592013,12238.0869490627,-856.3990054891,-8510.0871579656,-5844.4003056923,-8721.1845301469,-22062.9302518377,-11385.8127927966,-4641.9154994683,-6681.1971515997,-2082.1606157355,-24116.3264322838,6919.7935186008,9315.5765199476,15079.0251386769
560786605636,31145,5,0,4088.6989957164,6449.8283965114,12228.5474747535,-864.6730393287,-8507.9578110216,-5857.7604368039,-8725.0416900397,-22061.8594945173,-11381.9312975101,-4641.8059901969,-6690.8948059676,-2079.2768715884,-24110.4859378087,6923.4559953445,9320.1880770435,15081.0084732590
560786605636,31145,5,0,4092.9211865139,6452.2984389665,12224.4347932274,-865.5612811968,-8503.6991171336,-5860.8145287065,-8723.0461877608,-22058.7810672211,-11377.2223988396,-4640.8325744510,-6689.0331483537,-2075.6508979352,-24105.4120082336,6927.0819689977,9322.4512686525,15084.2572483107
560786605636,31145,5,0,4096.0117815070,6458.3944550748,12234.3149630476,-857.7982906238,-8503.4679308940,-5847.9776085583,-8718.9335062346,-22059.8153214510,-11376.0908030350,-4637.1335946168,-6677.0966377704,-2076.4417982287,-24107.6873675395,6922.0080394225,9319.4093444468,15079.2806603101
560786605636,31145,5,0,4097.5692467003,6459.6598955444,12242.1022890143,-853.0528888628,-8504.6847005762,-5835.9802594908,-8716.7798238969,-22060.0465076907,-11378.9745471821,-4636.3670297170,-6670.2097213686,-2078.3642943267,-24113.0289864447,6918.9052767327,9316.5499356934,15077.3946673026
560786636700,31146,5,0,4094.7341733406,6458.8446598572,12240.8246808479,-851.6049329409,-8506.3395073442,-5839.3385438140,-8718.5441399363,-22061.5431343999,-11380.9822171579,-4638.2165196341,-6677.3886624941,-2079.4350516471,-24115.3286811443,6917.0436191188,9314.9559674096,15075.4113327204
560786636700,31146,5,0,4091.6192429539,6453.9897488249,12233.2685411208,-860.4508485312,-8506.7653767330,-5852.4309855955,-8723.3017093940,-22059.8639922383,-11379.1935657249,-4639.4697924068,-6688.8506329013,-2077.9384249379,-24112.7978002051,6919.0634567914,9316.0267247300,15078.0152198406
560786636700,31146,5,0,4093.5417390519,6453.1623454409,12228.8029963868,-861.9353075436,-8503.1759061702,-5857.3345674151,-8720.6004806994,-22054.0478331570,-11374.5211701449,-4637.8514887294,-6688.6437820553,-2071.8059057392,-24107.5656905712,6925.4880007139,9320.8694680656,15083.1743232935
560786636700,31146,5,0,4097.9586129986,6459.8667463904,12235.3735526712,-854.3304970292,-8499.1240631282,-5843.8162562448,-8713.5553842389,-22051.3709398559,-11374.4846670544,-4634.4688690126,-6676.1597251150,-2070.6743099346,-24106.9086349428,6924.9282866600,9321.4170144226,15083.2838325649
560786636700,31146,5,0,4096.7661787100,6459.6842309380,12243.6475865108,-850.6680202855,-8500.8397083802,-5832.4394597154,-8711.6085527472,-22052.7093865064,-11377.0155479936,-4633.5076209636,-6668.0073682436,-2075.3102024242,-24110.6319501706,6921.2414745227,9317.1218174441,15078.3194122611
560786636700,31146,5,0,4091.5584044698,6452.9919976854,12242.3821460412,-855.1213973227,-8502.9933907179,-5835.4570485275,-8716.5243022637,-22057.8684899594,-11379.3517457836,-4635.5639617267,-6673.9087012027,-2078.6198159600,-24113.1871665034,6919.4041523024,9315.1993213461,15075.1314756935
560786636700,31146,5,0,4088.6016541418,6449.1591731862,12232.5019762210,-862.0448168150,-8501.3750870404,-5847.0406959029,-8721.2575363278,-22058.4890424973,-11376.6018463016,-4637.0605884359,-6685.9182179670,-2076.7824937397,-24105.0348096321,6920.4384065324,9316.0875632141,15078.9399647991
560786636700,31146,5,0,4088.7233311100,6448.1370866531,12224.7268179511,-866.8632247569,-8498.1019765950,-5853.8059353365,-8722.2187843768,-22058.0631731085,-11370.9560349758,-4634.4080305285,-6687.1471553461,-2073.6553956562,-24102.4065871183,6927.4591675992,9321.6360329654,15082.7119508142
560786670841,31147,5,0,4092.3128016728,6453.1866808346,12232.3072930718,-861.5946120325,-8496.8730392159,-5846.1402863380,-8718.5441399363,-22058.6472225560,-11370.5788363742,-4632.3638574622,-6678.2890720590,-2075.8820841748,-24103.2826612896,6927.1549751786,9320.6139464323,15080.8624608971
560786670841,31147,5,0,4094.5881609787,6454.0870903995,12240.1554575226,-855.6689436798,-8500.3773359009,-5834.2646142388,-8717.9479227920,-22061.1902711920,-11375.1538903797,-4634.4323659221,-6672.8136084887,-2081.2602061706,-24107.6143613585,6921.8863624543,9316.2214078792,15074.9732956348
560786670841,31147,5,0,4089.8670946114,6449.3781917290,12239.8634327989,-859.7086190250,-8505.8041286840,-5838.5598112173,-8723.6789079956,-22066.2763684640,-11381.7731174514,-4639.0074199276,-6680.9903007537,-2086.3098003521,-24113.2966757748,6917.7250101409,9313.6296884559,15073.4158304415
560786670841,31147,5,0,4085.1581959409,6445.0099885696,12232.7574978543,-867.5324480821,-8505.7797932903,-5851.9199423289,-8728.7650052675,-22065.7896605911,-11380.4346708008,-4640.3580342749,-6691.9655632880,-2083.1096960877,-24109.8532175739,6922.0567102098,9316.2092401824,15078.5505985008
560786670841,31147,5,0,4087.6282383960,6447.6868818706,12225.1405196431,-869.6496273293,-8498.2844920474,-5856.9086980263,-8725.0416900397,-22059.0852596417,-11372.0632953866,-4637.7541471548,-6692.9146436402,-2075.3102024242,-24101.0438050741,6930.6227687732,9322.4147655621,15083.1013171125
560786670841,31147,5,0,4094.3326393454,6454.8414876025,12230.0927722500,-862.6532016561,-8495.4615863845,-5849.5472414484,-8720.8316669390,-22057.3939497833,-11370.2746439537,-4635.8316510568,-6684.5919390133,-2075.2615316369,-24097.7950300224,6929.4668375750,9320.7721264910,15085.2063286629
560786670841,31147,5,0,4096.2673031402,6456.4719589768,12239.8147620116,-856.1921546431,-8498.6738583457,-5837.9392586793,-8721.0993562691,-22062.0176745760,-11375.7744429176,-4637.3161100692,-6678.5080906018,-2081.3575477452,-24102.9906365658,6925.6096776821,9314.7126134731,15080.0958959973
560786670841,31147,5,0,4090.4511440589,6454.5616305756,12241.0071963002,-857.2629119636,-8503.4314278035,-5838.7666620633,-8724.5184790763,-22067.0916041512,-11382.6735270162,-4644.4342127106,-6683.1074800009,-2085.8595955697,-24108.5877771044,6922.4947472955,9309.6143485043,15074.9489602412
560786738172,31148,5,0,4088.7963372910,6450.0230796606,12234.2541245635,-863.4197665560,-8507.0087306694,-5853.7450968523,-8730.8213460306,-22068.0406845033,-11383.8294582144,-4646.3080380213,-6694.6911273763,-2085.9934402347,-24109.1474911582,6922.4095734177,9311.3056583627,15077.3946673026
560786738172,31148,5,0,4088.7354988068,6448.6846330101,12226.7953264110,-869.1264163659,-8505.9014702585,-5863.5157574012,-8730.4928182164,-22064.6945678770,-11379.6802735978,-4643.1322691506,-6697.2463437092,-2079.9095918232,-24105.3998405367,6927.9093723817,9318.4480963978,15084.8291300614
560786738172,31148,5,0,4096.1456261720,6454.7319783311,12229.5208904994,-862.4828539006,-8502.8595460528,-5855.5824190726,-8724.2751251399,-22059.5597998178,-11375.6284305558,-4639.9078294925,-6687.4513477667,-2075.5657240574,-24103.6233568006,6930.2455701717,9323.2665043397,15085.8268812009
560786738172,31148,5,0,4097.1555450083,6459.0150076128,12238.8778493562,-855.9244653130,-8504.7577067572,-5841.5043938485,-8721.9754304403,-22061.0685942238,-11378.2323176759,-4639.0804261085,-6677.1818116481,-2079.7027409772,-24108.1862431092,6925.9625408900,9320.5774433418,15080.3514176306
560786738172,31148,5,0,4094.1622915899,6456.0460895880,12240.2527990972,-855.4864282274,-8508.7000405278,-5840.4214688312,-8725.0173546461,-22066.3615423418,-11383.4522596129,-4641.2219407494,-6679.4936740445,-2085.3607199999,-24114.7446316968,6919.7326801166,9313.9338808765,15071.1526388324
560786738172,31148,5,0,4089.8427592177,6450.0839181447,12231.8692559862,-862.8965555926,-8512.5206973302,-5854.0127861824,-8731.3445569940,-22068.7950817064,-11386.7375377551,-4647.5491430973,-6693.4986930877,-2087.5022346408,-24114.9393148459,6914.6587505415,9312.0235524753,15071.0552972578
560786738172,31148,5,0,4086.6913257406,6447.0298262422,12220.8696580583,-871.3166017941,-8510.7563812909,-5866.9835509957,-8734.8731890727,-22067.9920137160,-11385.2895818332,-4649.1552790779,-6702.0039131669,-2084.5333166160,-24112.1407445767,6920.9859528894,9314.8342904414,15077.3824996058
560786738172,31148,5,0,4084.0144324395,6447.4191925405,12219.5920498918,-873.2390978921,-8510.0263194815,-5864.7325270835,-8732.4883204954,-22067.6513182050,-11384.6446939016,-4647.2084475862,-6695.4455245794,-2084.3508011636,-24112.6882909337,6920.7060958625,9313.6053530623,15077.8448720850
560786745594,31149,5,0,4084.5741464934,6450.0230796606,12226.8439971983,-866.2670076125,-8512.4233557556,-5851.6522529988,-8729.5924086515,-22068.9289263714,-11388.7452077309,-4649.1552790779,-6685.7722056051,-2087.7090854867,-24116.8009724598,6917.9075255932,9308.9329574822,15071.5541728276
560786745594,31149,5,0,4081.5565576813,6447.9059004134,12229.0463503233,-864.1254929717,-8518.4463656830,-5847.6369130472,-8730.7361721529,-22071.3502980392,-11394.3910190567,-4651.2846260219,-6686.5022674145,-2091.2133821717,-24122.6171315412,6912.7240867466,9306.2560641812,15067.7456837220
560786745594,31149,5,0,4080.6683158132,6446.3849383106,12225.7975752715,-866.7780508791,-8520.6487188079,-5857.2250581437,-8734.6541705299,-22072.4332230564,-11394.7925530519,-4652.8420912153,-6694.9953197969,-2090.4224818783,-24123.2376840792,6912.3590558419,9308.1055540983,15069.7290183041
560786745594,31149,5,0,4081.8485824051,6446.7864723057,12217.7060568843,-870.7812231338,-8516.9010681865,-5869.8064566586,-8735.3477292488,-22068.0650198970,-11389.7186234767,-4650.7249119681,-6702.0647516510,-2084.9226829143,-24117.5675373597,6916.8124328791,9313.0091359179,15075.9710467743
560786745594,31149,5,0,4083.9170908650,6450.2177628098,12215.2725175197,-870.9637385862,-8512.8857282349,-5867.6771097146,-8732.9993637619,-22065.7774928943,-11386.6523638774,-4650.1651979142,-6696.9786543790,-2083.6450747479,-24114.3065946111,6915.9241910111,9312.7901173751,15074.4135815810
560786745594,31149,5,0,4086.5331456819,6452.7364760521,12224.9458364939,-865.0867410207,-8514.9055659075,-5855.1443819870,-8731.9164387447,-22070.3282115061,-11388.7817108214,-4648.8754220510,-6687.7677078841,-2088.5973273548,-24119.7455550910,6913.8800179448,9309.3588268710,15072.9656256590
560786745594,31149,5,0,4083.9535939554,6449.2443470639,12228.9611764455,-863.8699713384,-8518.8844027686,-5850.3624771356,-8735.1773814932,-22075.9983582255,-11394.1720005139,-4652.8177558216,-6688.9479744759,-2095.5085791502,-24123.6878888616,6909.3536347267,9302.4110719851,15064.9471134527
560786745594,31149,5,0,4080.8751666592,6446.7743046089,12222.8286572467,-870.6473784688,-8521.1232589840,-5859.3300696941,-8740.7380189413,-22079.8433504216,-11395.6199564359,-4657.6848345508,-6700.2761002181,-2097.7230999720,-24123.9434104949,6908.6722437046,9301.7540163567,15062.7934311151
560786770617,31150,5,0,4081.9824270701,6445.3993548679,12220.0909254616,-873.7866442491,-8515.4287768709,-5869.4414257539,-8739.2048891416,-22076.4972337953,-11389.2075802102,-4653.7303330833,-6705.9097438471,-2092.5153257318,-24116.8253078535,6914.8777690843,9307.5823431349,15069.4369935804
560786770617,31150,5,0,4087.2145367040,6449.2686824576,12221.0886766011,-872.8618992906,-8509.5274439118,-5867.5067619591,-8734.1917980506,-22071.0096025281,-11384.5473523270,-4650.5667319094,-6700.2274294308,-2086.6504958631,-24111.6783720974,6919.0026183073,9311.9262109007,15073.6105135907
560786770617,31150,5,0,4089.3803867385,6452.4444513284,12228.2554500298,-864.2715053336,-8511.2674245575,-5854.7428479918,-8730.5779920942,-22070.3403792029,-11388.3071706453,-4651.0169366918,-6689.7145393758,-2089.8627678244,-24114.9149794523,6915.9971971920,9309.0059636632,15069.3883227931
560786770617,31150,5,0,4086.9103442834,6453.4178670742,12235.0450248570,-860.3535069566,-8515.7451369883,-5847.7464223186,-8730.5779920942,-22074.3192160640,-11392.8457215602,-4651.9416816504,-6686.9524721969,-2095.3017283043,-24122.2034298492,6910.4608951376,9304.1388849340,15064.8011010908
560786770617,31150,5,0,4082.1892779161,6449.0009931275,12229.6912382549,-865.7924674364,-8520.9407435317,-5856.8843626327,-8737.7812686133,-22077.7870096585,-11396.5325336976,-4656.2368786289,-6697.7695546725,-2096.6645103484,-24124.2354352187,6909.1467838807,9303.2993138532,15065.2756412669
560786770617,31150,5,0,4082.1892779161,6447.1515032104,12220.0544223711,-871.5477880337,-8518.2516825338,-5869.3562518762,-8740.2026402811,-22074.9397686020,-11392.3225105968,-4656.2490463257,-6706.0800916026,-2092.0529532525,-24118.2975991691,6914.9751106589,9309.3953299615,15071.8218621577
560786770617,31150,5,0,4083.8440846840,6448.6724653133,12218.7159757206,-871.0489124639,-8512.1191633351,-5868.0543083161,-8735.8222694249,-22068.5638954667,-11384.0241413636,-4649.1552790779,-6699.1445044135,-2085.6649124205,-24111.0091487721,6923.2126414080,9318.4115933073,15082.5294353619
560786770617,31150,5,0,4087.4457229436,6452.9676622918,12227.5375559172,-865.2570887762,-8510.9997352274,-5855.4242390139,-8729.7627564070,-22068.1745291684,-11384.6081908111,-4647.0624352244,-6686.0277272384,-2085.9934402347,-24111.8973906402,6922.0080394225,9317.0609789600,15079.5118465498
560786791877,31151,5,0,4088.9910204401,6452.5417929030,12234.4244723190,-862.1056552991,-8514.8203920298,-5847.2840498394,-8732.0502834097,-22072.1898691200,-11390.1323251687,-4649.0214344129,-6684.1904050181,-2091.4689038050,-24116.0587429536,6916.6055820332,9311.6828569642,15071.7245205831
560786791877,31151,5,0,4088.4069709926,6449.6945518464,12232.1856161036,-866.2426722189,-8518.0204962942,-5853.7937676396,-8736.0291202708,-22075.0614455702,-11392.7605476825,-4650.3355456697,-6691.3328430532,-2093.4765737808,-24117.9082328707,6912.8457637149,9308.2028956729,15067.4049882110
560786791877,31151,5,0,4087.6039030023,6448.1127512594,12224.9093334035,-871.1827571290,-8515.1732552376,-5863.5644281885,-8735.9682817867,-22070.9487640440,-11387.6379473200,-4647.0137644371,-6698.6821319343,-2085.8839309633,-24115.6572089585,6919.3676492120,9314.6882780795,15076.9809656106
560786791877,31151,5,0,4089.5385667972,6451.5927125508,12221.3685336280,-869.8078073880,-8507.3250907868,-5863.1750618901,-8729.4950670769,-22063.7089844344,-11380.9700494610,-4644.3733742265,-6694.5329473176,-2077.8654187570,-24110.5711116865,6924.6119265426,9320.4192632831,15082.1400690635
560786791877,31151,5,0,4091.4488951984,6455.3525308691,12227.4280466458,-860.7307055581,-8505.9623087427,-5851.0803712481,-8723.9100942352,-22061.3606189475,-11381.3715834562,-4642.2561949793,-6681.7933687440,-2078.3277912363,-24112.0677383957,6922.8719458970,9317.6206930138,15079.5118465498
560786791877,31151,5,0,4088.4921448704,6455.4498724436,12237.5150673120,-856.1556515527,-8510.3548472957,-5843.4998961274,-8724.6158206509,-22065.8139959847,-11387.6501150168,-4646.3567088086,-6678.5810967828,-2084.7401674619,-24118.0420775358,6915.2306322922,9311.1474783040,15071.1161357420
560786791877,31151,5,0,4084.8540035203,6451.0451661937,12233.2928765145,-862.2151645705,-8516.2926833453,-5849.9974462309,-8730.8213460306,-22069.9266775109,-11393.2959263427,-4654.9227673720,-6688.5707758744,-2089.9601093990,-24122.8969885681,6910.9476030105,9308.2759018538,15065.6771752621
560786791877,31151,5,0,4083.3452091143,6445.3263486870,12223.5465513593,-871.1462540385,-8517.2295960007,-5865.2679057437,-8734.5689966521,-22068.5882308604,-11392.3346782937,-4657.2954682525,-6699.5095353182,-2085.3363846063,-24120.8528155019,6914.0990364876,9311.6706892674,15069.2179750376
560786832303,31152,5,0,4085.0973574568,6447.2001739977,12220.3707824885,-873.2999363762,-8510.8050520782,-5869.9524690205,-8730.4198120355,-22063.1249349869,-11385.6059419506,-4653.1949544231,-6697.9033993376,-2079.4228839503,-24114.2700915207,6918.8931090359,9317.2921651996,15076.6889408869
560786832303,31152,5,0,4089.5507344940,6453.4908732552,12226.6249786555,-864.8312193874,-8505.7067871094,-5856.3489839725,-8722.8271692180,-22060.0343399938,-11381.9434652069,-4650.3963841538,-6685.6018578496,-2075.8090779939,-24111.8122167624,6921.9228655448,9318.3507548232,15076.9566302170
560786832303,31152,5,0,4091.1568704746,6458.4066227716,12238.0139428818,-857.7131167460,-8508.2255003517,-5843.7554177607,-8720.4788037311,-22064.3052015787,-11386.7497054519,-4649.4959745890,-6678.3012397558,-2082.4039696719,-24116.7401339757,6916.9341098474,9312.2912418054,15072.8561163876
560786832303,31152,5,0,4088.4921448704,6453.7220594948,12239.5957434688,-857.5792720810,-8513.0682436873,-5846.0429447634,-8725.3215470667,-22068.8437524937,-11391.2882563669,-4652.4527249169,-6684.7987898593,-2087.6360793058,-24123.2376840792,6910.1810381106,9307.5215046508,15068.8164410424
560786832303,31152,5,0,4088.2001201466,6450.1204212352,12231.8084175021,-862.8722201989,-8512.3625172715,-5860.3764916208,-8726.9398507441,-22064.2565307914,-11389.5239403276,-4651.5036445647,-6695.3481830048,-2084.1196149240,-24120.9136539860,6913.3689746782,9311.8532047198,15073.9268737081
560786832303,31152,5,0,4093.8702668661,6457.5305486004,12230.1901138246,-861.8257982722,-8501.7401179451,-5860.4373301050,-8721.3913809928,-22057.3817820864,-11378.6825224583,-4641.6478101382,-6691.8560540166,-2074.2272774069,-24111.1064903467,6923.4681630413,9320.3340894053,15083.7462050442
560786832303,31152,5,0,4099.4674074047,6462.7626582342,12237.0040240455,-853.7829506722,-8497.1893993333,-5846.2376279126,-8714.1516013832,-22054.0600008538,-11373.2557296753,-4632.7775591542,-6677.4495009782,-2070.8081545997,-24108.7337894662,6927.5321737802,9322.2565855034,15087.2018309419
560786832303,31152,5,0,4098.8590225635,6465.1231914179,12243.4529033616,-847.5652575957,-8498.1993181696,-5832.1474349916,-8712.7644839454,-22056.1771801010,-11376.4071631524,-4630.4413613642,-6667.9221943659,-2073.5823894753,-24111.4350181609,6927.1063043913,9319.4580152341,15084.4640991567
560786876022,31153,5,0,4097.5814143971,6463.6630677991,12245.8864427262,-849.1592258795,-8500.7667021993,-5830.0910942285,-8716.1836067526,-22060.4115385954,-11379.5829320232,-4631.1105846895,-6671.4994972318,-2076.7946614366,-24112.0068999116,6924.8552804791,9318.4967671851,15080.8624608971
560786876022,31153,5,0,4090.8648457509,6456.3624497054,12238.7075016007,-860.3535069566,-8501.8739626101,-5844.7288335065,-8724.8835099810,-22063.3439535297,-11378.6460193679,-4633.1425900589,-6683.4116724215,-2078.9970145615,-24110.9969810753,6925.7800254376,9319.5675245055,15082.1887398508
560786876022,31153,5,0,4092.9333542108,6454.3791151232,12230.2996230960,-865.1110764144,-8498.5400136807,-5854.1587985443,-8724.7861684064,-22059.9004953288,-11373.3530712499,-4632.2178451004,-6686.3197519621,-2072.9861723310,-24104.4994309719,6932.0220539078,9325.3228451027,15087.1896632451
560786876022,31153,5,0,4096.7540110132,6460.0492618427,12235.9819375123,-859.6599482377,-8493.3930779246,-5843.1835360100,-8718.5319722395,-22054.9725781155,-11369.8487745649,-4627.3507663712,-6675.5878433643,-2071.1975208980,-24102.2970778469,6933.9202146122,9327.1723350198,15088.5037745019
560786876022,31153,5,0,4097.0703711306,6460.3412865665,12246.0081196945,-854.2209877578,-8496.0456358320,-5829.7260633239,-8715.7699050606,-22056.5178756120,-11374.3143192989,-4627.9348158187,-6664.5760777396,-2073.3512032357,-24105.8135422287,6929.8927069638,9323.0474857969,15082.7727892983
560786876022,31153,5,0,4095.6832536927,6460.1587711141,12251.7147695044,-851.0452188870,-8501.0100561357,-5828.9838338177,-8717.4490472222,-22062.0663453633,-11380.4955092849,-4633.3737762986,-6668.2872252706,-2079.4958901313,-24110.8388010166,6926.4249133693,9318.7766242120,15077.7110274200
560786876022,31153,5,0,4092.6291617902,6455.7053940769,12244.0491205060,-859.0150603061,-8503.2975831384,-5841.9424309341,-8723.1556970322,-22062.6260594171,-11380.3616646199,-4638.2651904214,-6680.4914251840,-2077.9505926347,-24108.2105785029,6925.3176529584,9319.0199781485,15078.0517229310
560786876022,31153,5,0,4092.4466463378,6452.2010973919,12235.0815279475,-864.0889898812,-8500.7058637151,-5854.3291462998,-8723.6667402987,-22060.8495756810,-11374.3386546925,-4636.3913651106,-6684.9691376148,-2072.2074397343,-24104.6332756369,6932.1558985729,9326.3570993327,15089.9638981207
560786916995,31154,5,0,4095.8657691451,6459.1975230651,12239.4132280164,-859.0880664870,-8497.1772316365,-5849.6932538103,-8718.0574320634,-22056.3231924628,-11370.9925380662,-4634.4567013158,-6677.0601346799,-2068.9951677731,-24101.3723328884,6935.9522199816,9329.6910482622,15093.2248408692
560786916995,31154,5,0,4094.9410241865,6462.4462981168,12245.9472812103,-852.7608641391,-8499.7081125757,-5838.5841466110,-8717.2178609826,-22060.4358739890,-11374.3994931767,-4638.3990350864,-6670.5139137891,-2073.5093832944,-24103.9275492212,6932.8616249886,9326.8559749024,15087.1409924578
560786916995,31154,5,0,4092.5196525188,6458.2484427129,12246.4461567801,-853.7951183690,-8506.0839857109,-5840.0321025329,-8723.0705231544,-22066.9942625766,-11382.0894775688,-4645.6023116056,-6676.2570666896,-2081.4062185325,-24108.0280630505,6926.1937271296,9320.0542323784,15078.8061201340
560786916995,31154,5,0,4086.2532886550,6450.3029366875,12234.4244723190,-863.4806050401,-8509.7221270609,-5856.4828286375,-8731.2715508131,-22070.3525468997,-11386.5185192123,-4655.8353446337,-6692.1724141340,-2084.5576520096,-24108.9041372218,6925.3419883520,9319.3485059627,15076.6159347059
560786916995,31154,5,0,4086.7156611342,6444.2069205793,12221.7944030168,-870.8785647084,-8508.5905312564,-5870.2323260474,-8732.9871960651,-22066.2763684640,-11383.1115641019,-4658.4027286633,-6700.5802926386,-2079.9825980042,-24104.6454433337,6929.3573283036,9322.4877717430,15080.7772870194
560786916995,31154,5,0,4089.6724114622,6449.1713408830,12224.0697623227,-869.2724287278,-8505.8162963808,-5865.8762905848,-8728.8380114485,-22061.4214574317,-11379.5464289328,-4656.5410710494,-6693.8515562956,-2077.1596923413,-24103.3191643800,6932.2532401475,9324.5319448093,15083.6975342569
560786916995,31154,5,0,4091.3515536238,6453.0528361695,12232.9278456098,-861.4972704579,-8506.5950289775,-5852.4188178986,-8724.3968021081,-22063.3074504392,-11384.4378430556,-4655.3608044576,-6683.2899954532,-2080.4206350898,-24106.5557717349,6926.8021119708,9316.5256002998,15077.2729903344
560786916995,31154,5,0,4089.9157653987,6453.2110162282,12236.4321422948,-857.5549366873,-8509.3205930658,-5846.1159509444,-8725.1633670080,-22065.2421142341,-11387.4919349581,-4655.8961831178,-6682.2314058296,-2083.9857702589,-24110.3764285373,6926.2423979169,9314.7734519573,15076.3360776790
560786919813,31155,5,0,4085.3772144837,6448.2830990149,12231.2365357514,-863.1399095290,-8511.4621077066,-5853.7572645492,-8728.9353530231,-22065.2786173245,-11387.2364133249,-4653.0732774549,-6691.6005323833,-2084.3386334668,-24109.6585344248,6926.0355470709,9315.3575014048,15077.9300459628
560786919813,31155,5,0,4085.4380529678,6444.5841191808,12223.2666943324,-867.3377649330,-8506.4855197060,-5863.3697450393,-8728.2904650915,-22061.6648113681,-11379.4855904486,-4647.6951554592,-6695.9322324523,-2077.8410833633,-24101.5548483407,6931.4380044603,9321.2953374544,15083.6853665601
560786919813,31155,5,0,4092.0329446459,6452.0915881205,12224.3739547433,-862.5193569911,-8498.5643490743,-5857.2858966278,-8721.7077411102,-22056.2136831914,-11372.2579785358,-4641.0029222065,-6687.3783415857,-2072.6819799104,-24096.5174218560,6935.8062076198,9325.8460560661,15085.8633842914
560786919813,31155,5,0,4093.0793665726,6455.7297294706,12234.6434908618,-854.6468571466,-8500.7058637151,-5841.7842508754,-8716.7919915938,-22055.9946646486,-11372.3066493231,-4635.0164153696,-6673.6653472663,-2074.3002835879,-24099.3403275189,6932.4844263871,9322.4269332589,15083.2960002617
560786919813,31155,5,0,4091.2542120492,6455.7175617738,12242.5403260999,-851.6049329409,-8503.4435955003,-5832.7558198328,-8717.4855503127,-22059.6084706050,-11376.9303741158,-4634.6878875554,-6670.5139137891,-2079.0213499552,-24105.6675298669,6925.4514976234,9316.7202834489,15077.4676734835
560786919813,31155,5,0,4088.8815111687,6452.3349420570,12237.8557628231,-854.1601492737,-8505.5242716570,-5838.9126744252,-8721.2575363278,-22061.1172650111,-11378.7676963361,-4635.5882971203,-6679.6518541032,-2079.3133746789,-24107.4318459062,6924.3685726062,9317.3286682901,15075.5938481728
560786919813,31155,5,0,4088.3948032958,6450.1812597193,12230.8228340594,-859.9154698710,-8501.6549440673,-5848.3669748566,-8723.6180695114,-22059.3529489718,-11372.8906987706,-4631.7554726211,-6685.3463362163,-2074.4219605561,-24102.1510654850,6928.8584527339,9323.2786720365,15081.9210505207
560786919813,31155,5,0,4093.5782421424,6453.1015069568,12233.5727335414,-858.7960417632,-8494.9262077242,-5846.9676897220,-8718.7509907823,-22054.7900626632,-11364.9451927452,-4625.5012764541,-6680.4914251840,-2069.7982357634,-24097.0649682130,6934.0783946709,9328.4377754894,15085.3158379343
560786950823,31156,5,0,4097.6179174876,6457.3115300576,12243.5624126330,-851.6414360314,-8494.5125060323,-5832.6341428645,-8714.8573277989,-22056.1041739200,-11366.3688132735,-4624.9293947034,-6669.3458148941,-2070.9054961743,-24097.1258066971,6933.1414820155,9326.0529069121,15081.9453859144
560786950823,31156,5,0,4095.8536014483,6454.7928168152,12250.1086335238,-849.8527845984,-8499.9271311185,-5825.7107233723,-8715.9767559066,-22060.9712526492,-11372.9880403452,-4627.6792941854,-6667.9221943659,-2078.0114311189,-24103.3191643800,6925.3176529584,9319.2146612976,15073.6470166811
560786950823,31156,5,0,4091.3758890174,6451.3736940080,12248.6971806923,-852.8947088041,-8504.7577067572,-5834.7634898086,-8721.1236916627,-22062.7720717790,-11376.7356909667,-4633.6779687191,-6677.6320164306,-2081.7347463467,-24106.1542377398,6920.9616174958,9314.7369488668,15070.3617385389
560786950823,31156,5,0,4091.6192429539,6447.4313602373,12238.5979923293,-858.3823400713,-8501.8861303070,-5847.7464223186,-8720.9776793009,-22057.8076514752,-11374.2534808148,-4636.0141665091,-6686.1129011162,-2075.1641900623,-24103.5990214070,6926.2789010074,9321.3318405448,15079.0616417673
560786950823,31156,5,0,4091.7774230126,6449.2321793671,12234.8868447983,-857.6401105651,-8497.2745732111,-5850.9465265831,-8716.7433208065,-22053.0379143207,-11369.5932529316,-4633.9213226556,-6683.3630016342,-2068.5449629906,-24099.4985075776,6929.2356513354,9323.7775476062,15085.3036702375
560786950823,31156,5,0,4094.8923533993,6452.9554945949,12242.4186491317,-852.5783486867,-8497.8586226586,-5840.7621643423,-8711.6207204440,-22052.7458895969,-11370.2746439537,-4632.2178451004,-6671.7550188651,-2069.9564158221,-24103.4165059546,6927.7633600198,9322.6946225890,15083.7705404378
560786950823,31156,5,0,4090.2564609097,6451.7752280031,12247.9062803988,-849.7311076302,-8502.6161921163,-5831.8919133583,-8710.6716400918,-22057.2479374214,-11375.5189212844,-4635.1624277315,-6666.2795552948,-2073.5093832944,-24108.2835846838,6921.1197975545,9316.3795879379,15075.5816804760
560786950823,31156,5,0,4090.6944979953,6452.2619358760,12247.5534171910,-848.6481826129,-8503.4800985908,-5836.4913027574,-8712.6793100676,-22056.9315773040,-11377.5022558665,-4636.8050668026,-6672.2052236475,-2073.6432279594,-24108.9041372218,6922.4582442050,9318.7279534247,15078.5505985008
560786983598,31157,5,0,4091.0230258096,6449.0131608243,12240.8611839384,-855.7054467702,-8501.5210994023,-5849.1578751501,-8715.3683710655,-22054.0600008538,-11373.6937667609,-4637.0605884359,-6681.5378471107,-2069.0073354699,-24104.8401264829,6926.8872858485,9323.1569950683,15085.6930365358
560786983598,31157,5,0,4093.5660744456,6450.6801352891,12234.6921616491,-856.6666948192,-8496.8365361255,-5853.7085937619,-8713.1295148501,-22050.1420024768,-11369.1065450587,-4635.6248002108,-6681.8298718345,-2064.5417907359,-24098.8536196460,6932.7521157172,9327.4643597436,15090.6939599301
560786983598,31157,5,0,4098.2749731160,6455.3890339595,12242.7836800364,-850.5828464078,-8494.9627108147,-5841.1880337311,-8707.5445420083,-22047.2095875425,-11367.5125767749,-4634.2133473793,-6669.6013365274,-2063.2155117822,-24098.8779550397,6933.5308483139,9327.1966704135,15088.8323023162
560786983598,31157,5,0,4097.5084082162,6456.0947603753,12251.0455461792,-844.9492027787,-8498.5521813775,-5829.9937526540,-8707.4350327369,-22051.1640890099,-11371.6495936947,-4634.4932044063,-6664.5517423459,-2069.4940433428,-24104.0248907958,6927.9702108658,9322.3417593811,15083.7462050442
560786983598,31157,5,0,4093.9554407439,6453.8680718567,12249.3420686239,-845.7522707691,-8503.2732477448,-5832.6949813487,-8711.6085527472,-22054.2668516998,-11377.7091067125,-4638.4355381769,-6672.6675961268,-2072.1222658566,-24105.9960576811,6925.3541560488,9319.3363382659,15079.2441572197
560786983598,31157,5,0,4090.1469516383,6450.7653091668,12240.7760100606,-853.5639321294,-8503.7964587082,-5846.2619633062,-8715.2466940973,-22053.9018207951,-11375.6162628589,-4638.7884013848,-6683.3021631501,-2070.0172543062,-24101.9928854263,6925.5975099853,9319.8960523197,15080.6556100511
560786983598,31157,5,0,4090.7188333890,6448.3561051959,12233.5849012382,-858.4066754649,-8499.6107710011,-5851.8347684511,-8713.4458749675,-22049.5092822420,-11370.4328240124,-4635.6613033013,-6683.9713864753,-2064.5904615232,-24099.5106752744,6931.6935260936,9326.3814347263,15090.3045936317
560786983598,31157,5,0,4093.8702668661,6453.8194010694,12237.8679305199,-853.8437891563,-8497.8099518713,-5842.5264803816,-8708.2381007272,-22048.1221648042,-11368.8875265159,-4632.9114038193,-6673.9573719900,-2063.0694994203,-24100.3624140521,6932.1680662697,9325.5905344329,15089.9273950302
560787019604,31158,5,0,4090.6336595112,6453.1258423505,12242.3334752539,-849.9014553857,-8503.1272353829,-5832.0865965075,-8709.1506779890,-22052.4782002668,-11375.2268965606,-4636.0019988123,-6667.6545050358,-2069.6765587951,-24106.4584301603,6924.9526220537,9319.9325554102,15083.8070435283
560787019604,31158,5,0,4085.3772144837,6448.1005835626,12239.9242712830,-853.7586152785,-8509.7707978482,-5835.5300547084,-8715.9280851193,-22059.1582658226,-11381.3594157594,-4638.4112027833,-6674.9672908263,-2076.0767673240,-24111.3498442832,6920.6087542879,9315.7103646126,15079.4388403688
560787019604,31158,5,0,4082.4447995494,6444.2799267602,12232.0882745290,-860.4751839248,-8511.8149709145,-5848.4521487344,-8720.5396422152,-22058.7810672211,-11380.8118694023,-4639.9443325829,-6687.2201615270,-2075.4318793924,-24109.5611928502,6923.5655046159,9317.8275438598,15081.4708457383
560787019604,31158,5,0,4083.8805877745,6443.6350388286,12225.0918488558,-865.1840825953,-8506.5463581902,-5855.8987791900,-8718.4467983617,-22054.8995719346,-11375.1295549860,-4637.1700977073,-6689.0209806568,-2069.7739003697,-24104.3412509132,6929.0166327926,9323.4976905793,15087.3113402133
560787019604,31158,5,0,4090.0617777605,6449.7797257242,12232.8791748225,-858.1633215285,-8504.7942098477,-5846.2132925189,-8713.7865704785,-22053.1474235921,-11373.2313942816,-4632.0961681321,-6677.6441841274,-2068.8856585017,-24105.4363436272,6929.2964898195,9324.6901248680,15088.8323023162
560787019604,31158,5,0,4092.6534971838,6452.0915881205,12244.2803067456,-852.2984916598,-8505.0740668746,-5831.8675779647,-8712.0952606201,-22057.6738068102,-11376.0299645509,-4631.9014849830,-6668.7009269625,-2074.2516128006,-24109.3908450947,6923.8331939460,9320.1394062562,15083.1864909903
560787019604,31158,5,0,4091.0351935064,6449.4146948195,12246.7625168975,-854.5860186625,-8508.5661958628,-5831.1131807617,-8715.8307435448,-22062.5895563267,-11379.1327272408,-4635.0164153696,-6673.8478627186,-2079.1673623170,-24110.1939130850,6918.9904506104,9314.4570918399,15076.4334192536
560787019604,31158,5,0,4088.2487909339,6445.5818703202,12241.2262148430,-860.1588238074,-8508.2741711390,-5842.5873188657,-8719.6514003472,-22063.6116428598,-11377.0155479936,-4635.2110985188,-6684.4702620451,-2077.9749280284,-24109.2570004296,6922.0932133003,9317.5111837424,15080.8624608971
560787048130,31159,5,0,4086.6183195597,6442.9293124128,12232.5141439178,-864.8555547811,-8503.5652724685,-5853.2340535858,-8719.6148972567,-22061.3849543412,-11370.0921285013,-4634.1281735016,-6689.0331483537,-2073.9839234705,-24101.1411466487,6930.8296196192,9322.7067902858,15080.4730945988
560787048130,31159,5,0,4089.6115729781,6447.3218509659,12232.9521810034,-862.3490092355,-8498.9172122822,-5847.4665652917,-8716.7554885033,-22061.4701282190,-11368.2548062811,-4633.1790931494,-6681.7690333504,-2074.1907743165,-24099.3159921253,6932.8859603822,9323.4611874888,15061.1872951344
560787048130,31159,5,0,4089.8427592177,6450.8626507414,12241.6885873223,-855.4499251369,-8503.5409370749,-5836.8806690557,-8716.1957744494,-22066.7630763369,-11372.2458108390,-4633.0817515748,-6673.6166764790,-2081.7225786499,-24104.5967725464,6927.0089628168,9318.2899163391,15031.4737794928
560787048130,31159,5,0,4087.1780336135,6448.1370866531,12244.5844991662,-855.6202728925,-8509.9289779069,-5838.8518359411,-8721.8902565626,-22070.9852671345,-11378.8528702138,-4637.1822654041,-6677.8753703670,-2087.7820916677,-24109.0866526741,6921.8133562734,9314.1894025098,15007.0045411819
560787048130,31159,5,0,4084.1117740141,6446.8229753962,12238.0017751850,-860.7550409517,-8511.3160953448,-5850.7883465244,-8727.9741049741,-22072.9686017166,-11380.8362047960,-4642.1953564952,-6690.7001228184,-2087.2832160979,-24107.6265290553,6922.5434180827,9314.2502409939,14994.4961488479
560787048130,31159,5,0,4083.0775197842,6444.7057961490,12231.0905233895,-867.3012618425,-8510.9753998337,-5864.1728130296,-8729.4828993801,-22069.1722803079,-11377.2223988396,-4641.6113070477,-6695.7740523936,-2082.7568328798,-24103.1244812309,6928.7854465529,9319.9203877134,14999.0833705501
560787048130,31159,5,0,4088.6138218386,6448.3682728927,12233.6457397223,-863.6022820083,-8507.6536186010,-5858.6000078847,-8723.7154110860,-22065.5706420483,-11375.1660580765,-4639.5306308910,-6688.2665834538,-2078.4373005077,-24101.7130283994,6930.6106010764,9321.9402253860,14998.1829609852
560787048130,31159,5,0,4093.4930682646,6451.4710355825,12242.4064814349,-857.3724212350,-8508.4201835009,-5842.8550081958,-8718.1912767284,-22064.3538723660,-11378.0011314362,-4639.5184631941,-6677.3034886163,-2079.4837224344,-24104.7306172115,6927.8120308071,9318.9834750580,14990.9066782851
560787119503,31160,5,0,4093.0671988758,6448.1735897435,12249.4637455922,-855.9001299194,-8510.2088349339,-5835.7247378576,-8718.7388230854,-22063.9401706740,-11381.0795587324,-4639.7009786465,-6674.7969430708,-2081.1141938087,-24109.2691681264,6922.5799211732,9316.3917556347,14985.1391899910
560787119503,31160,5,0,4088.7111634132,6444.2799267602,12244.0612882028,-861.8988044531,-8510.9632321369,-5845.2277090763,-8721.8415857753,-22062.9059164441,-11379.5585966296,-4640.3215311845,-6683.6793617516,-2079.2160331043,-24109.7558759994,6921.5578346401,9317.3043328964,14983.0828492280
560787119503,31160,5,0,4088.3461325085,6445.9590689218,12233.2685411208,-865.7072935587,-8506.9478921853,-5855.4485744076,-8721.1480270564,-22057.7103099007,-11373.6329282768,-4639.0560907149,-6688.2909188475,-2070.3092790299,-24102.9176303849,6928.4569187387,9323.6437029412,14987.6214001429
560787119503,31160,5,0,4090.9378519318,6449.9500734797,12231.7232436243,-862.1664937832,-8503.6991171336,-5851.9199423289,-8715.9159174225,-22052.1253370589,-11369.5567498411,-4635.2354339125,-6681.9150457122,-2065.8559019927,-24100.7031095631,6932.5939356585,9328.1214153720,14990.5416473804
560787119503,31160,5,0,4093.2497143282,6454.5007920915,12241.4330656890,-854.6955279339,-8504.6968682731,-5840.2146179852,-8712.5332977057,-22053.0987528048,-11372.4648293818,-4634.5053721031,-6670.6720938478,-2069.3967017682,-24103.1488166245,6931.0608058588,9324.1425785109,14984.5186374531
560787119503,31160,5,0,4091.0595289000,6453.2353516219,12242.8810216110,-853.8072860658,-8509.9776486942,-5836.2479488210,-8714.8451601021,-22058.9270795830,-11377.6361005316,-4637.9244949103,-6672.3147329189,-2074.8234945512,-24105.8987161065,6926.4127456724,9319.4823506277,14977.4735409926
560787119503,31160,5,0,4086.5696487724,6447.1636709072,12238.1234521532,-860.6455316803,-8511.3647661320,-5844.0109393940,-8721.2210332373,-22063.6846490407,-11380.3008261358,-4639.8469910084,-6682.2922443138,-2076.7094875588,-24105.9595545906,6926.6560996089,9318.4845994883,14978.2644412861
560787119503,31160,5,0,4087.2875428849,6444.9491500854,12231.3703804165,-865.1475795048,-8507.4954385423,-5854.3656493903,-8722.7176599465,-22061.1050973143,-11375.4702504971,-4636.6712221376,-6689.6171978012,-2072.6698122136,-24100.5205941107,6932.0707246951,9323.9235599681,14984.5673082404
560787131890,31161,5,0,4090.8161749636,6447.0419939390,12231.2852065387,-864.5513623605,-8502.5918567227,-5852.2849732336,-8717.4977180095,-22055.2646028393,-11369.7027622030,-4632.4368636432,-6683.1561507882,-2067.9244104526,-24096.9067881543,6935.8792138007,9328.0484091911,14987.9012571699
560787131890,31161,5,0,4095.2938873944,6454.5737982724,12241.3600595081,-855.9731361003,-8501.0587269230,-5836.2236134273,-8711.7545651091,-22054.5345410299,-11370.1894700759,-4628.5310329630,-6669.2971441069,-2069.1776832254,-24099.1943151570,6933.7742022503,9325.9433976407,14984.1292711547
560787131890,31161,5,0,4096.4498185926,6457.5792193877,12253.9171226294,-850.4490017427,-8501.9591364879,-5825.7715618564,-8710.2336030062,-22056.5908817930,-11369.3255636015,-4624.4548545273,-6664.4300653777,-2072.5846383358,-24102.7229472357,6930.0995578098,9322.5851133176,14980.3451174428
560787131890,31161,5,0,4096.4011478053,6454.1600965804,12253.0045453676,-852.2133177820,-8500.2921620232,-5829.3245293287,-8712.2656083756,-22057.4426205706,-11369.3620666920,-4623.7856312021,-6671.3899879604,-2071.2705270789,-24098.8657873428,6931.0973089493,9324.6901248680,14980.0044219318
560787131890,31161,5,0,4096.6566694386,6453.8924072503,12247.2248893767,-856.3138316114,-8494.6341830005,-5839.5088915695,-8711.8275712900,-22052.3078525113,-11360.7838404318,-4620.4395145758,-6676.3057374769,-2063.9212381979,-24090.3605672636,6940.2474169601,9331.9055690840,14985.2365315656
560787131890,31161,5,0,4099.6134197666,6455.9609157102,12246.5069952642,-856.2529931273,-8487.7594342955,-5837.1483583859,-8706.0357476023,-22046.5890350045,-11351.7919124796,-4614.6111877976,-6671.3656525668,-2058.1780852975,-24084.3618927299,6945.5647004718,9336.5536292703,14988.9963498839
560787131890,31161,5,0,4102.3633192485,6462.0082610312,12255.2312338862,-849.3174059382,-8485.3745657182,-5824.3479413281,-8701.7040475333,-22047.1852521488,-11351.7554093892,-4612.8712071519,-6660.5850731816,-2060.3074322415,-24085.8950225296,6943.9342290975,9335.3246918912,14984.9810099323
560787131890,31161,5,0,4101.5724189551,6462.1421056963,12259.8792940726,-845.0708797470,-8487.9176143542,-5815.2343364077,-8702.7383017633,-22053.6949699491,-11356.7563327834,-4617.2272426145,-6657.0686087998,-2066.9144916163,-24090.1415487208,6937.4975174781,9326.5517824819,14974.9183246598
560787158217,31162,5,0,4094.8436826120,6457.6887286591,12257.3240777398,-850.3273247745,-8492.2128113327,-5822.7174699538,-8709.1871810794,-22060.8860787715,-11360.7108342508,-4621.7657935295,-6668.0073682436,-2071.9275827074,-24094.1690563692,6936.0495615562,9325.0794911663,14972.2414313587
560787158217,31162,5,0,4093.6634160201,6456.0704249816,12247.5655848878,-855.9244653130,-8491.5192526138,-5836.6616505129,-8712.9469993977,-22059.8883276320,-11356.9510159326,-4624.9780654907,-6680.0533880983,-2068.9586646826,-24089.2898099432,6939.8215475713,9328.5472847608,14974.4316167869
560787158217,31162,5,0,4096.7783464068,6458.0659272606,12242.1509598016,-854.8293725990,-8486.4331553418,-5840.0199348361,-8708.7491439938,-22054.2790193966,-11352.4002973208,-4621.9118058913,-6677.5225071592,-2062.7653069997,-24084.9337744806,6944.2505892149,9334.1809283899,14978.3009443765
560787158217,31162,5,0,4101.4994127741,6461.9717579407,12249.6705964382,-848.4656671606,-8486.5304969164,-5828.9473307272,-8703.1155003648,-22054.5710441203,-11353.7387439713,-4619.4052603458,-6666.1943814170,-2064.5782938263,-24087.1604629992,6942.1820807550,9332.8181463457,14977.0476716038
560787158217,31162,5,0,4100.7085124806,6461.2538638282,12258.9788845077,-839.8996085972,-8489.9374520268,-5817.7652173469,-8699.6598744671,-22054.6197149076,-11358.1191148276,-4620.5003530599,-6659.4778127707,-2067.3038579147,-24092.2952310584,6938.6899517668,9328.4986139735,14972.3022698428
560787158217,31162,5,0,4095.5859121182,6455.1700154167,12254.0022965071,-845.1925567152,-8493.8067796165,-5820.1257505306,-8701.0591596017,-22054.8143980568,-11360.9541881873,-4622.4958553388,-6665.3913134267,-2067.7175596066,-24092.2222248775,6936.6457787005,9327.5130305309,14973.2635178919
560787158217,31162,5,0,4092.3249693696,6450.7288060763,12245.0468716454,-855.3525835624,-8492.6386807215,-5832.1961057789,-8704.0645807170,-22052.0036600907,-11356.7198296929,-4621.0113963264,-6675.7581911198,-2064.8459831564,-24089.4479900019,6939.8093798745,9332.2462645950,14979.9557511445
560787158217,31162,5,0,4096.4498185926,6453.7220594948,12239.3645572291,-857.2750796604,-8490.1929736601,-5837.5620600778,-8703.3953573917,-22048.2560094692,-11351.7919124796,-4619.8311297346,-6677.1209731640,-2060.6846308430,-24085.7490101677,6943.1311611072,9334.8014809278,14984.7619913895
560787180613,31163,5,0,4106.6950193175,6463.8212478578,12249.8531118905,-848.1249716495,-8489.0857132492,-5827.7062256512,-8698.5039432689,-22045.8224701046,-11353.3737130666,-4619.9406390060,-6666.8514370454,-2059.8815628527,-24087.7445124467,6941.3546773710,9333.4995373678,14983.0341784407
560787180613,31163,5,0,4115.9424689029,6471.9127662451,12266.9608936236,-837.3443922644,-8490.5945076553,-5813.5795296398,-8694.5616094983,-22044.7760481779,-11355.4665569202,-4616.8135409225,-6655.1826157922,-2060.9766555667,-24091.2853122221,6938.9089703096,9330.2020915287,14980.0774281127
560787180613,31163,5,0,4118.1691574215,6471.3773875849,12271.4629414480,-835.5314054378,-8489.3412348825,-5811.6570335418,-8695.2916713076,-22043.9608124907,-11356.3669664850,-4615.6819451180,-6655.8761745111,-2059.0906625592,-24091.2244737380,6939.3713427889,9329.8370606241,14978.5321306162
560787180613,31163,5,0,4118.4733498421,6466.1087748605,12262.7387028260,-841.6395892429,-8486.3114783736,-5821.2086755478,-8696.4110994153,-22038.4488458299,-11350.3804596482,-4613.7229459295,-6663.4809850255,-2053.7247082603,-24085.5056562312,6945.7350482273,9337.2958587765,14982.6934829296
560787180613,31163,5,0,4120.6878706639,6468.3354633791,12260.8527098184,-842.9537004998,-8479.7774251797,-5824.4209475091,-8692.4809333415,-22033.5574317071,-11341.8630718721,-4607.3957435816,-6661.0231102673,-2046.1564008364,-24076.8544237901,6952.9504924433,9339.4617088110,14983.9832587929
560787180613,31163,5,0,4123.7297948696,6471.0731951643,12268.0803217313,-838.2204664357,-8476.0054391646,-5814.3582622365,-8686.2754079618,-22029.7246072079,-11338.7724768791,-4602.6990126079,-6649.8288291901,-2044.0878923765,-24073.7638287971,6952.4637845704,9341.4572110900,14983.8615818246
560787180613,31163,5,0,4126.6987128944,6476.7920126711,12278.7270564513,-830.9441837355,-8476.3217992820,-5800.9981311249,-8683.0753036974,-22029.9557934475,-11342.3376120482,-4602.5895033365,-6639.9243239763,-2046.8742949489,-24077.8886780201,6947.4993642666,9335.6045489181,14976.0134173738
560787180613,31163,5,0,4122.3061743413,6473.3242190766,12281.7811483539,-830.6278236181,-8479.4123942750,-5800.6209325234,-8683.9757132623,-22032.7665314136,-11345.6228901904,-4603.3804036300,-6642.1996832822,-2048.9306357120,-24082.6097443874,6945.3821850194,9335.0204994706,14974.7723122979
560787200592,31164,5,0,4116.5021829568,6466.3764641907,12272.9960712477,-838.0136155897,-8480.6900024414,-5813.7255420017,-8688.0762270916,-22031.8174510614,-11343.6882263955,-4603.8184407156,-6653.2357843006,-2047.1541519759,-24081.4538131892,6949.4096926678,9337.7703989526,14977.3031932371
560787200592,31164,5,0,4117.6094433677,6466.6684889144,12262.0329764103,-841.7369308175,-8474.8495079664,-5822.7783084380,-8686.1293956000,-22028.1184712273,-11337.8720673142,-4604.7431856742,-6656.9834349220,-2041.6178499214,-24075.0657723572,6956.2966090696,9345.0953524400,14984.1292711547
560787200592,31164,5,0,4122.6833729429,6471.0975305580,12265.5007700048,-837.0888706311,-8474.1802846411,-5815.1978333173,-8682.1262233452,-22027.1693908751,-11336.2050928494,-4602.1636339477,-6648.5877241142,-2041.0094650803,-24074.4452198192,6956.7103107616,9346.0322650954,14984.7984944800
560787200592,31164,5,0,4121.1867462336,6475.1372059032,12275.2349274632,-832.2947980829,-8477.1126995755,-5803.1031426753,-8682.0775525579,-22032.7178606263,-11341.7170595102,-4603.9766207743,-6641.0072489935,-2048.0910646312,-24081.3078008273,6950.0545805994,9340.6298077060,14979.4812109684
560787200592,31164,5,0,4118.3030020866,6473.7744238590,12276.3786909645,-831.7837548163,-8483.0627033219,-5805.1716511352,-8686.4944265046,-22037.5484362650,-11347.6913986503,-4609.7684444620,-6646.1420170528,-2053.8707206221,-24085.9680287105,6945.1266633861,9334.4486177200,14973.9449089139
560787200592,31164,5,0,4115.2367424872,6467.9339293840,12267.3502599219,-839.8996085972,-8485.7395966229,-5818.9819870292,-8693.3205044223,-22039.9698079328,-11349.4192115992,-4613.6742751422,-6659.5994897390,-2055.2700057568,-24085.2501345980,6943.6422043737,9333.0006617980,14975.5510448946
