timestamp,sequence,battery,flags,EEG-ch1,EEG-ch2,EEG-ch3,EEG-ch4,EEG-ch5,EEG-ch6,EEG-ch7,EEG-ch8,EEG-ch9,EEG-ch10,EEG-ch11,EEG-ch12,EEG-ch13,EEG-ch14,EEG-ch15,EEG-ch16
560377174105,21749,-2,0,369.8371449333,3857.7804454106,7652.9702583640,-2607.4157521882,-10128.0866429963,-7746.6128531133,-10707.2081732843,-21870.1695987687,-13671.0766039006,-5297.1703087773,-7224.2657962012,-3849.6645916297,-24372.3347734385,2763.7098178789,6353.0587036786,9060.7241099911
560377174105,21749,-2,0,369.4234432413,3857.6952715328,7648.8089060505,-2608.8880435038,-10128.5246800820,-7759.9243134376,-10708.0599120619,-21869.8045678640,-13670.7845791768,-5297.7665259217,-7231.0432033316,-3847.1580460842,-24370.6069604896,2763.7219855758,6354.0564548181,9064.4474252189
560377174105,21749,-2,0,369.5086171191,3858.1698117089,7641.0824185679,-2612.7330356999,-10124.6188494018,-7773.4304569111,-10707.1108317097,-21866.3246065726,-13666.0391774159,-5299.2388172372,-7233.3307303343,-3842.5221535946,-24366.6159559317,2767.2992884417,6355.5774169209,9069.7160379432
560377174105,21749,-2,0,372.2098458138,3861.3090774892,7639.1720901667,-2610.0561423988,-10122.2461485213,-7768.3200242454,-10702.5844484916,-21864.3169365968,-13665.0535939732,-5298.7399416675,-7227.2225465292,-3841.4270608806,-24366.0319064842,2768.4065488526,6356.2466402462,9068.2924174149
560377174105,21749,-2,0,374.3878635451,3863.4627598269,7648.3100304808,-2603.4734184176,-10122.1488069468,-7750.6281930649,-10701.0269832982,-21867.0303329883,-13668.4848844773,-5295.0774649238,-7221.3333812669,-3846.9511952382,-24372.3469411353,2763.6854824853,6351.3552261234,9061.1378116830
560377174105,21749,-2,0,371.8813179996,3860.0193016260,7654.3087050145,-2603.7654431414,-10126.5170101062,-7741.4172465699,-10702.7547962471,-21871.6418900842,-13671.7944980132,-5295.0652972270,-7224.2779638981,-3850.9178644024,-24376.2041010281,2759.1834346608,6347.7049170765,9057.4631672425
560377174105,21749,-2,0,369.2165923954,3855.5050861047,7647.2757762508,-2608.9732173816,-10129.0965618327,-7755.0937377989,-10706.6484592304,-21871.7635670525,-13673.1207769669,-5297.9977121613,-7233.6714258454,-3849.4942438742,-24374.5127911698,2761.9576695364,6350.1262887443,9059.3126571596
560377174105,21749,-2,0,370.1900081412,3855.0670490191,7636.9819047386,-2612.7208680030,-10126.6021839839,-7772.3475318938,-10705.4681926386,-21867.7482271009,-13668.8377476852,-5298.2897368850,-7235.4600772783,-3843.8362648515,-24368.4289427583,2767.1654437766,6354.6770073560,9067.2094923977
560377206571,21750,-2,0,372.1855104201,3856.7340234838,7637.6511280639,-2611.8569615286,-10124.4850047368,-7771.7026439622,-10701.8787220758,-21865.5580416728,-13663.5569672640,-5296.3550730902,-7226.8818510182,-3841.1472038536,-24365.2896769780,2771.5823177234,6357.8771116205,9069.4483486131
560377206571,21750,-2,0,374.8867391148,3862.9517165603,7648.0666765443,-2604.8605358554,-10122.5868440324,-7753.0982355199,-10698.9219717478,-21866.5071220250,-13665.0657616701,-5294.0310429970,-7221.9782691985,-3844.7853452037,-24366.8958129586,2769.4894738698,6355.8451062510,9064.4352575220
560377206571,21750,-2,0,374.9354099021,3862.1243131764,7655.8905056015,-2602.0497978893,-10124.9473772160,-7741.4415819636,-10701.4771880807,-21869.3178599911,-13669.1784431962,-5294.1770553589,-7222.9516849444,-3848.6790081870,-24372.0549164115,2764.2695319328,6351.4525676980,9059.1544771009
560377206571,21750,-2,0,372.5262059312,3859.3500783007,7654.4912204668,-2606.0164670536,-10125.1542280620,-7750.0928144047,-10705.4681926386,-21871.2160206954,-13669.6043125850,-5295.9900421855,-7230.1306260699,-3848.8128528521,-24372.9553259764,2763.0040914632,6352.4624865343,9060.6389361133
560377206571,21750,-2,0,373.3049385279,3858.2549855867,7645.4506217274,-2609.1557328339,-10123.3290735386,-7766.9694098981,-10704.0932428976,-21867.2615192280,-13666.3433698365,-5297.7665259217,-7234.1946368088,-3842.1084519026,-24369.0981660835,2768.1023564320,6356.7090127255,9067.8665480261
560377206571,21750,-2,0,377.6488062937,3862.9395488635,7641.5691264409,-2607.0142181931,-10119.0582119537,-7768.0279995217,-10699.6642012540,-21862.0294095941,-13662.3888683690,-5297.0973025964,-7225.4217273994,-3838.9570184255,-24365.7033786699,2770.5602311902,6359.0452105155,9070.9449753223
560377206571,21750,-2,0,380.3743703820,3868.6218632798,7654.4668850732,-2599.9204509453,-10119.5814229171,-7750.7985408204,-10696.7682894102,-21863.9519056921,-13663.2892779339,-5292.9724533734,-7217.8047491883,-3841.3297193060,-24368.8913152376,2769.0636044810,6356.9767020556,9068.2072435372
560377206571,21750,-2,0,378.9994206410,3865.0080573234,7660.3682180323,-2599.9326186421,-10123.5967628687,-7741.3685757826,-10699.4816858017,-21868.4904566071,-13668.5092198710,-5294.7976078969,-7220.3964686115,-3846.5618289398,-24374.9386605586,2764.1478549646,6352.2556356883,9062.6952768764
560377240519,21751,-2,0,372.9034045327,3859.2649044230,7653.1892769068,-2606.2111502028,-10128.2204876614,-7750.5430191871,-10705.1518325212,-21870.9604990621,-13672.7192429717,-5299.3604942055,-7230.9701971507,-3848.5573312188,-24377.4452061041,2761.0694276684,6351.2092137615,9061.8192027051
560377240519,21751,-2,0,369.0949154271,3853.7894408527,7643.0657531501,-2614.1323208345,-10126.8942087077,-7768.4051981232,-10705.5898696068,-21868.6729720594,-13667.9130027266,-5299.1536433595,-7233.3428980312,-3843.3982277659,-24373.5150400303,2764.4277119915,6354.0564548181,9067.3920078500
560377240519,21751,-2,0,373.2562677406,3857.3545760218,7640.0238289443,-2613.0493958173,-10121.4065774406,-7769.7193093801,-10699.1166548970,-21862.6256267384,-13661.6466388628,-5294.8584463810,-7225.1540380693,-3838.5676521272,-24367.4798624061,2770.7427466426,6357.8527762268,9072.8309683299
560377240519,21751,-2,0,379.8146563281,3863.5844367951,7651.7534886817,-2604.3616602857,-10116.1866355035,-7751.5164349330,-10694.2495761678,-21861.6400432958,-13657.6678020017,-5290.1252123168,-7216.2229486013,-3839.0543600001,-24365.7642171541,2771.9595163249,6356.4778264858,9068.3289205054
560377240519,21751,-2,0,379.4374577266,3863.5966044920,7662.2298756462,-2599.9569540358,-10119.0217088633,-7738.0832976404,-10697.4375127354,-21868.5999658785,-13662.9485824229,-5289.7966845026,-7217.3058736185,-3847.1823814778,-24371.3248546021,2766.6300651164,6350.6616674045,9061.8313704019
560377240519,21751,-2,0,373.5847955548,3860.5060094989,7658.7377466580,-2603.7289400509,-10125.3610789080,-7747.6957781306,-10704.8476401006,-21873.4792123045,-13668.5578906582,-5295.6736820681,-7229.2545518986,-3851.8669447546,-24374.9264928617,2761.6534771159,6347.7170847733,9058.8746200740
560377240519,21751,-2,0,368.8272260970,3857.2815698408,7645.4749571210,-2610.4820117876,-10126.1763145951,-7768.0766703090,-10708.5831230253,-21872.5057965587,-13668.7160707169,-5301.1004748511,-7236.8471947162,-3848.7885174584,-24371.2275130276,2763.2596130965,6350.4791519521,9065.1653193314
560377240519,21751,-2,0,369.8979834174,3858.7781965501,7638.0039912717,-2609.9588008242,-10124.9717126097,-7774.5498850188,-10703.9593982325,-21868.1984318833,-13664.1166813179,-5299.1293079658,-7230.6660047301,-3842.5221535946,-24369.5362031692,2769.8788401682,6357.8527762268,9071.7845464031
560377268049,21752,-2,0,376.1765149781,3865.1662373821,7647.6043040650,-2603.9966293810,-10123.6454336560,-7760.9829030612,-10700.1630768238,-21866.1664265139,-13663.0702593911,-5296.3915761807,-7221.3577166606,-3841.9016010566,-24369.8403955897,2770.2560387697,6357.8892793173,9069.0954854052
560377268049,21752,-2,0,378.2936942253,3865.9206345851,7654.8197482810,-2600.6626804515,-10126.9307117982,-7746.4911761451,-10701.1364925696,-21869.4273692625,-13667.8156611520,-5298.7642770611,-7222.0634430763,-3847.8881078935,-24373.0039967637,2767.3236238353,6353.0100328913,9061.1134762894
560377268049,21752,-2,0,371.7231379409,3859.0337181833,7653.7368232638,-2607.1358951613,-10134.0001436523,-7755.0450670116,-10710.0554143408,-21877.0808505641,-13677.0022722534,-5306.9044662357,-7233.7444320263,-3856.2351479141,-24380.3776210384,2758.9887515116,6346.5854889688,9056.7209377363
560377268049,21752,-2,0,363.9601473678,3850.4798273168,7638.0769974527,-2618.4761886003,-10140.4368552716,-7777.3241198944,-10717.4168709187,-21879.5265576255,-13680.4092273638,-5314.1564135422,-7245.8877934556,-3856.1499740363,-24381.4970491461,2758.0396711594,6347.3763892623,9061.1499793799
560377268049,21752,-2,0,363.8871411869,3850.6015042850,7629.0850695005,-2620.6055355443,-10137.5166080341,-7788.3845563065,-10715.9324119063,-21876.3751241484,-13676.2600427472,-5314.6796245055,-7242.9675462181,-3852.2198079625,-24377.0071690185,2762.6512282553,6350.2601334093,9063.8268726809
560377268049,21752,-2,0,369.2287600922,3859.5569291467,7640.3280213649,-2612.4896817634,-10133.0875663906,-7774.3673695664,-10711.2235132358,-21875.4138760993,-13674.3010435587,-5309.8855519573,-7233.0022025201,-3850.9178644024,-24376.8489889598,2762.4565451062,6351.3795615170,9064.5691021871
560377268049,21752,-2,0,370.4333620776,3859.2892398166,7649.2956139234,-2608.6811926578,-10134.7302054617,-7757.7341280095,-10712.8296492165,-21878.9911789653,-13676.7224152264,-5307.1113170817,-7229.6074151065,-3856.5028372442,-24381.6552292048,2759.7796518051,6348.9460221524,9058.4730860788
560377268049,21752,-2,0,368.4500274955,3858.1089732248,7650.8652468136,-2608.6203541737,-10136.9933970707,-7756.2740043907,-10714.3627790162,-21881.3517121489,-13680.0320287623,-5309.3136702066,-7236.9202008971,-3859.1432274548,-24381.4605460557,2758.6602236974,6347.3033830813,9056.6600992522
560377317848,21753,-2,0,367.3549347814,3854.9210366572,7642.4573683089,-2614.1931593186,-10137.5896142151,-7772.2745257129,-10717.2951939505,-21879.9889301048,-13677.6349924882,-5312.7084576202,-7244.3911667464,-3856.8070296647,-24380.0247578305,2760.0716765289,6350.0167794729,9062.3302459717
560377317848,21753,-2,0,367.2697609037,3855.8336139189,7634.8160547041,-2618.0746546051,-10136.2268321709,-7786.7297495386,-10716.6381383221,-21877.2633660164,-13674.7390806443,-5314.5336121437,-7243.9774650544,-3853.1080498306,-24376.1554302409,2762.9675883727,6353.0952067691,9067.9395542071
560377317848,21753,-2,0,370.3116851094,3858.3279917676,7638.5758730224,-2614.3391716805,-10134.4868515252,-7777.9446724324,-10712.9999969720,-21876.5576396007,-13675.6638256028,-5314.3997674786,-7237.5285857382,-3854.3248195129,-24374.7561451062,2765.2551153754,6353.7765977911,9066.4794305883
560377317848,21753,-2,0,369.7641387524,3857.5614268678,7647.3122793413,-2611.2485766875,-10137.2002479167,-7762.6012067387,-10714.3141082289,-21880.1106070730,-13678.3285512071,-5312.7327930139,-7233.7931028136,-3859.4474198753,-24378.6254726959,2761.6778125095,6349.7004193555,9061.3446625290
560377317848,21753,-2,0,366.6735437594,3854.1544717573,7651.9725072245,-2611.6744460763,-10140.2665075161,-7761.1897539072,-10718.1347650313,-21884.1867855087,-13682.3560588555,-5313.7792149406,-7240.3271560075,-3862.0026362081,-24382.1176016841,2758.3803666705,6346.3056319419,9055.5528388413
560377317848,21753,-2,0,363.4004333140,3849.6767593265,7640.7052199664,-2620.9827341458,-10142.9555685140,-7779.8184977431,-10723.2208623033,-21883.7852515135,-13683.6214993251,-5320.2767650441,-7250.2803320087,-3860.1653139879,-24380.4019564321,2758.5142113355,6347.9117679225,9061.5880164655
560377317848,21753,-2,0,363.2179178616,3846.4523196684,7627.5762750945,-2626.9205701954,-10143.8924811693,-7795.7095097939,-10724.0482656872,-21883.0916927946,-13681.8936863762,-5323.5620431863,-7250.3898412801,-3856.6366819092,-24379.1000128720,2760.4367074336,6350.5764935267,9066.5889398597
560377317848,21753,-2,0,362.9502285315,3849.7254301138,7631.7254597111,-2623.5987889628,-10142.2863451887,-7789.3579720523,-10721.0428445720,-21882.1912832297,-13681.1514568700,-5320.7513052202,-7241.8846212009,-3855.8336139189,-24380.8278258209,2759.0739253894,6349.8585994142,9066.6497783438
560377336603,21754,-2,0,363.4004333140,3852.0129571165,7639.4276118000,-2618.0503192115,-10142.2011713110,-7769.4637877468,-10718.0130880630,-21882.3251278948,-13681.7841771048,-5318.3664366429,-7236.0684621195,-3857.9507931661,-24383.5047191219,2757.0054169295,6350.0654502601,9061.7218611305
560377336603,21754,-2,0,363.7411288250,3852.4388265053,7645.1220939132,-2616.6266986832,-10141.7874696190,-7761.4696109341,-10717.7697341266,-21883.3715498215,-13683.1591268458,-5317.3443501098,-7238.0152936112,-3859.8002830832,-24386.5466433276,2753.4646171540,6347.9604387098,9058.7894461962
560377336603,21754,-2,0,360.7965461939,3847.7299278348,7639.5492887682,-2622.1873361313,-10141.5684510762,-7774.0266740554,-10719.5218824691,-21882.6536557090,-13681.8571832857,-5316.8089714496,-7244.7927007415,-3855.9187877967,-24386.2546186039,2754.3406913253,6348.8973513651,9062.7682830573
560377336603,21754,-2,0,359.2147456069,3847.1093752969,7629.3770942243,-2626.1661729924,-10137.6139496087,-7786.8879295973,-10717.8062372171,-21877.8595831608,-13676.9657691629,-5318.4637782175,-7246.1919858762,-3851.4775784563,-24381.0468443637,2758.5872175165,6352.3894803533,9069.2536654639
560377336603,21754,-2,0,362.8893900474,3849.5429146615,7630.4356838479,-2621.6154543806,-10133.5986096571,-7779.3804606575,-10711.9535750452,-21875.2556960406,-13673.2911247224,-5314.2537551167,-7239.0252124475,-3849.0805421822,-24378.1387648230,2760.9720860938,6354.8108520211,9070.1054042415
560377336603,21754,-2,0,366.0286558277,3855.9431231903,7644.4772059815,-2613.9498053822,-10133.3795911143,-7760.5692013692,-10708.9238185363,-21876.3994595420,-13674.0576896222,-5308.8147946369,-7230.2279676445,-3852.6091742608,-24381.0590120605,2759.7066456242,6351.7445924217,9064.5934375807
560377336603,21754,-2,0,367.8051395639,3857.5614268678,7651.7656563785,-2608.9975527752,-10134.5233546157,-7753.2685832755,-10711.3938609914,-21880.5486441586,-13677.2699615835,-5310.4087629207,-7233.8174382072,-3857.2937375377,-24382.4582971951,2757.5164601961,6349.0676991207,9060.8701223529
560377336603,21754,-2,0,363.9358119742,3853.3757391607,7642.5182067930,-2614.7042025852,-10137.5774465182,-7767.6021301329,-10716.7233121998,-21883.3837175184,-13679.9833579750,-5314.2902582072,-7244.4763406241,-3857.9629608629,-24382.9693404617,2757.4556217119,6349.1285376048,9062.2207367003
560377364023,21755,-2,0,361.3805956414,3849.6524239329,7632.1148260094,-2620.8610571776,-10137.1759125231,-7787.3503020765,-10717.0640077109,-21880.8771719728,-13677.1482846152,-5315.7990526133,-7246.2163212698,-3852.9742051655,-24380.7426519431,2760.3880366463,6351.4769030916,9068.1099019626
560377364023,21755,-2,0,363.9844827615,3853.3392360702,7630.7885470557,-2619.3887658620,-10133.4647649921,-7783.1767820663,-10711.8318980770,-21876.2047763928,-13673.9360126540,-5312.2460851410,-7237.9301197334,-3849.7497655074,-24378.3942864563,2762.2010234729,6354.0564548181,9070.1784104225
560377364023,21755,-2,0,367.8173072607,3857.0868866917,7642.5303744899,-2611.2607443843,-10131.7491197401,-7762.9419022497,-10707.8530612159,-21874.3674541726,-13673.7900002921,-5306.5637707246,-7229.7655951652,-3851.4289076690,-24379.7935715909,2760.4002043431,6350.9536921282,9063.9607173460
560377364023,21755,-2,0,369.8858157206,3859.7151092054,7654.2722019240,-2605.5662622712,-10131.5301011972,-7751.4190933584,-10708.4006075729,-21877.1903598355,-13674.3862174364,-5302.7796170127,-7230.2644707349,-3856.2594833077,-24383.6994022711,2757.8693234039,6347.4737308369,9061.3568302258
560377364023,21755,-2,0,365.8218049818,3855.8944524030,7648.6993967791,-2610.4455086972,-10134.0731498332,-7760.8977291834,-10711.9170719547,-21881.0353520315,-13675.8098379647,-5306.3812552723,-7241.2397332692,-3856.6366819092,-24385.0621843152,2756.1293427582,6345.9892718245,9058.7164400153
560377364023,21755,-2,0,365.5662833485,3854.7628565985,7638.9044008366,-2616.2008292944,-10132.6130262145,-7777.2267783198,-10712.0509166198,-21878.5409741828,-13671.8431688004,-5309.0094777861,-7244.7318622574,-3851.6600939086,-24380.1829378892,2762.2253588665,6351.8906047836,9068.0247280848
560377364023,21755,-2,0,367.4887794465,3857.0017128139,7637.5537864893,-2615.3734259104,-10129.1695680136,-7777.8594985546,-10708.5709553284,-21875.5355530676,-13667.0490962522,-5304.7142808076,-7237.5894242224,-3849.3725669059,-24375.4132007347,2765.7418232484,6353.9712809403,9070.2757519971
560377364023,21755,-2,0,370.7497221950,3858.9242089119,7647.4217886127,-2609.4112544672,-10128.4151708106,-7759.9973196186,-10706.2590929321,-21874.6716465931,-13667.8034934552,-5302.0617229002,-7228.6339993607,-3850.6136719819,-24374.7439774094,2765.9121710039,6351.9636109645,9066.4064244074
560377397069,21756,-2,0,370.1900081412,3858.1333086184,7652.5930597624,-2607.9998016357,-10130.3741699991,-7749.1193986588,-10707.9382350936,-21877.7379061925,-13672.0013488591,-5304.3492499029,-7232.2356376203,-3856.1378063395,-24377.0193367153,2761.1667692429,6348.1794572526,9060.0062158785
560377397069,21756,-2,0,364.0696566392,3850.0174548375,7645.8399880257,-2616.0913200230,-10133.2579141461,-7759.5227794425,-10713.3406924830,-21881.1083582125,-13674.9459314903,-5309.4475148717,-7241.2884040565,-3858.1698117089,-24381.2171921192,2756.8107337803,6344.4439743279,9060.2982406022
560377397069,21756,-2,0,361.4657695191,3847.9976171649,7635.3757687580,-2621.7614667425,-10131.6639458623,-7777.9446724324,-10713.5353756322,-21878.9181727844,-13672.0743550401,-5313.4020163391,-7245.9121288493,-3852.5483357767,-24379.5137145640,2759.3781178100,6348.1064510717,9065.6641949012
560377397069,21756,-2,0,361.6604526683,3851.5627523341,7628.2089953293,-2621.0679080236,-10126.2736561697,-7780.1105224669,-10706.4902791717,-21872.0677594730,-13668.1806920567,-5313.0978239186,-7239.0130447506,-3846.9876983286,-24377.4330384073,2761.8603279618,6352.0122817518,9069.7647087305
560377397069,21756,-2,0,365.0917431724,3855.1765582905,7638.2473452082,-2615.0814011867,-10123.7062721401,-7762.0536603816,-10701.5258588680,-21871.1916853018,-13667.2316117045,-5307.5493541673,-7228.6705024511,-3846.4766550621,-24378.7593173610,2762.5295512871,6352.1826295073,9068.8886345592
560377397069,21756,-2,0,364.7875507518,3855.1157198064,7647.2879439476,-2610.7983719050,-10125.6774390254,-7748.3771691526,-10702.3167591614,-21873.6738954537,-13670.4682190595,-5307.3181679277,-7227.6362482212,-3850.4554919232,-24382.2027755619,2758.7819006656,6349.6760839618,9064.7029468522
560377397069,21756,-2,0,361.5509433969,3849.3238961186,7642.9319084850,-2615.4342643946,-10129.6806112802,-7755.0450670116,-10704.4096030150,-21874.3431187789,-13672.6219013971,-5309.7030365050,-7235.7521020021,-3849.7497655074,-24379.1121805688,2757.3947832278,6349.8951025046,9065.8345426567
560377397069,21756,-2,0,358.7037023403,3846.7078413017,7632.6137015792,-2621.8344729234,-10130.0943129721,-7773.4061215174,-10706.0644097829,-21871.8487409302,-13671.5876471672,-5310.3357567398,-7240.7530253963,-3847.0120337223,-24377.2140198645,2760.6678936732,6353.9834486371,9075.2645076945
560377428029,21757,-2,0,357.8276281691,3845.2720530766,7626.8583809819,-2623.2094226644,-10128.8775432898,-7781.2056151809,-10704.8233047070,-21870.1209279814,-13667.6331456997,-5308.5227699131,-7236.0806298163,-3842.4978182010,-24374.4397849888,2764.1113518741,6354.9203612925,9080.1802572109
560377428029,21757,-2,0,363.1692470743,3852.7065158354,7633.8426389583,-2615.2639166390,-10126.4196685316,-7765.7283048222,-10701.9273928631,-21868.4904566071,-13666.8422454062,-5304.6656100203,-7227.4172296784,-3844.4203142990,-24373.1135060351,2763.2109423092,6354.7013427497,9076.2014203498
560377428029,21757,-2,0,366.6735437594,3857.0747189949,7648.6628936886,-2609.0097204720,-10126.2249853824,-7745.4690896120,-10701.2338341442,-21871.7513993556,-13668.4605490837,-5297.9003705867,-7221.6984121716,-3848.5573312188,-24375.4375361283,2762.2861973506,6351.6715862408,9071.1761615620
560377428029,21757,-2,0,367.0629100577,3855.4442476206,7649.7093156154,-2610.1048131861,-10128.1718168741,-7748.1581506098,-10706.0400743893,-21875.4625468866,-13670.2735359103,-5297.8030290121,-7229.7777628620,-3851.7087646959,-24377.4087030136,2760.7408998541,6351.0875367933,9071.3100062270
560377428029,21757,-2,0,365.6514572262,3852.2076402657,7639.9873258539,-2616.2251646881,-10128.7071955343,-7765.7039694285,-10709.3253525315,-21874.0024232679,-13670.2370328198,-5303.6435234871,-7239.9864604965,-3848.6911758838,-24376.5204611455,2761.6169740254,6353.6427531261,9075.7512155674
560377428029,21757,-2,0,361.5022726096,3850.6745104660,7629.0729018037,-2621.0922434172,-10129.2060711041,-7779.9888454986,-10710.1770913091,-21872.9560013411,-13671.2712870498,-5307.0626462944,-7240.2784852202,-3847.7420955317,-24378.4916280309,2760.5705520986,6355.1637152290,9079.2190091619
560377428029,21757,-2,0,364.2521720916,3853.4365776448,7635.4244395453,-2617.4419343703,-10131.3110826544,-7768.9770798739,-10710.8219792407,-21876.4237949357,-13673.5709817493,-5307.4276771991,-7235.1802202514,-3852.0981309943,-24381.9594216254,2755.6913056726,6347.8144263479,9071.5898632539
560377428029,21757,-2,0,366.5883698816,3855.9552908871,7644.4041998006,-2612.9520542427,-10133.1970756620,-7753.5606079992,-10711.3938609914,-21880.5364764618,-13678.7300852022,-5307.8048758006,-7234.1216306278,-3857.8291161979,-24388.2622885797,2752.5885429828,6344.6143220835,9065.9318842313
560377458226,21758,-2,0,367.9754873194,3857.5614268678,7648.5290490236,-2612.1368185555,-10133.7324543222,-7751.5772734171,-10712.9634938815,-21881.8505877187,-13679.2167930751,-5307.4763479864,-7237.7232688874,-3857.5005883837,-24387.4348851957,2752.1505058971,6342.7891675600,9064.1188974047
560377458226,21758,-2,0,369.7641387524,3857.2572344472,7647.3609501286,-2614.0958177440,-10129.2182388009,-7765.6674663380,-10711.7102211088,-21877.8109123735,-13673.1086092700,-5305.4686780106,-7240.8381992741,-3852.3049818403,-24380.4506272194,2758.1613481277,6348.4228111891,9071.5411924666
560377458226,21758,-2,0,372.9034045327,3859.4474198753,7640.9607415997,-2616.5536925023,-10124.0469676511,-7774.3917049601,-10707.3541856461,-21873.8807462997,-13665.6133080271,-5304.4830945679,-7238.8670323888,-3845.4424008321,-24372.0670841083,2765.4741339183,6355.2975598940,9077.1870037925
560377458226,21758,-2,0,378.2085203475,3864.6186910251,7646.9594161334,-2611.0173904478,-10121.2605650787,-7763.6719640591,-10702.6939577630,-21873.2723614585,-13662.4375391563,-5301.3681641812,-7229.3397257764,-3846.7686797858,-24371.0571652720,2767.2262822608,6354.8716905052,9072.3442604570
560377458226,21758,-2,0,377.2959430858,3864.6551941155,7658.4578896311,-2604.8848712491,-10122.7571917879,-7747.8174550988,-10703.8620566580,-21876.7888258403,-13663.8246565941,-5298.7399416675,-7226.4803170230,-3852.5605034735,-24375.9242440012,2763.3812900647,6350.2966364998,9065.0071392727
560377458226,21758,-2,0,373.5482924643,3859.9584631419,7656.2312011125,-2607.0993920708,-10128.3299969328,-7750.3970068253,-10709.8485634949,-21883.5053944866,-13670.9549269324,-5305.6511934629,-7236.3726545401,-3857.2815698408,-24379.8057392877,2758.1613481277,6346.5733212720,9060.3590790864
560377458226,21758,-2,0,368.2918474368,3854.3126518160,7644.4285351942,-2615.9331399643,-10134.7788762490,-7773.5521338793,-10717.9279141853,-21885.9389338512,-13675.7368317838,-5316.7237975718,-7250.0978165563,-3858.4496687358,-24380.5114657035,2753.9634927238,6344.8820114136,9061.2959917417
560377458226,21758,-2,0,365.9191465563,3852.6700127449,7630.2166653051,-2625.0345771879,-10136.8838877993,-7793.7261752117,-10719.4732116818,-21886.0484431226,-13677.5376509136,-5325.2533530447,-7252.7868775542,-3857.6952715328,-24382.5313033761,2757.1635969882,6346.8653459957,9067.2216600945
560377535389,21759,-2,0,366.9412330895,3854.5438380557,7630.7033731780,-2623.4771119945,-10138.1249928753,-7789.7716737443,-10718.9013299311,-21887.2165420176,-13680.3848919701,-5330.2299410453,-7248.8445437836,-3858.7903642469,-24383.9305885107,2755.3262747679,6345.9892718245,9064.6177729744
560377535389,21759,-2,0,365.6636249231,3855.2130613809,7636.9575693450,-2621.2260880823,-10143.1380839663,-7775.6449777329,-10721.9554218337,-21892.8623533434,-13686.5539142594,-5333.0285113145,-7246.5205136904,-3863.6939460665,-24388.2866239733,2752.8075615256,6341.7427456333,9057.8281981472
560377535389,21759,-2,0,362.8528869570,3851.9156155419,7642.6155483676,-2622.9052302438,-10148.1998458447,-7772.9437490382,-10728.5868166022,-21898.8001893930,-13692.4552472185,-5333.6003930652,-7253.4439331827,-3870.7147071334,-24390.0022692254,2748.9747370263,6337.9099211340,9054.3847399463
560377535389,21759,-2,0,361.1372417049,3847.0850399032,7633.9643159265,-2628.5510415697,-10150.7672298743,-7790.2218785267,-10735.0600313120,-21900.8686978529,-13693.1366382406,-5338.0416024056,-7264.6868850471,-3870.7755456175,-24386.5831464181,2750.5078668260,6339.2118646941,9057.7551919663
560377535389,21759,-2,0,359.8474658417,3842.7655075311,7620.4703401499,-2635.6448088175,-10151.4729562900,-7808.1448959469,-10736.2281302070,-21898.8610278772,-13691.8468623774,-5340.4264709829,-7267.4732876195,-3866.3708393676,-24382.1906078650,2753.9269896333,6342.9595153155,9065.0193069696
560377535389,21759,-2,0,361.4414341255,3848.0584556491,7623.7556182921,-2631.7754812278,-10149.0637523191,-7802.2313952910,-10731.5679023238,-21895.6974267032,-13688.2573918146,-5334.3061194809,-7256.9847329581,-3863.8399584284,-24379.5745530481,2754.7300576236,6344.0911111201,9064.1797358888
560377535389,21759,-2,0,363.2422532553,3848.5694989156,7634.9620670660,-2623.9394844738,-10147.7496410622,-7780.1713609510,-10728.0027671547,-21896.6343393586,-13687.9166963035,-5326.8229859348,-7247.3235816807,-3865.5312682868,-24382.1662724714,2754.8030638045,6343.7260802154,9062.3545813653
560377535389,21759,-2,0,361.9646450889,3844.7610098100,7638.4906991447,-2622.5888701264,-10149.0029138350,-7770.3641973117,-10727.8080840055,-21898.3743200042,-13690.4232418491,-5324.5597943258,-7248.1753204583,-3867.6119444435,-24385.0135135280,2754.1095050856,6343.1055276774,9059.2396509787
560377540685,21760,-2,0,354.6883623888,3838.2999627971,7630.4235161510,-2630.7898977851,-10152.2516888867,-7783.4079683059,-10731.0811944509,-21899.1408849041,-13690.8247758442,-5323.1848445848,-7255.5976155203,-3865.6042744677,-24383.6507314838,2754.6205483522,6344.6021543866,9063.1089785683
560377540685,21760,-2,0,350.0281345056,3834.4549706010,7619.4604213136,-2636.4965475951,-10151.8744902852,-7798.8609432710,-10730.7404989398,-21894.7605140478,-13688.5372488415,-5324.6936389908,-7255.9383110314,-3859.7029415086,-24381.8864154445,2759.2199377513,6351.3552261234,9070.8476337477
560377540685,21760,-2,0,352.4860092638,3839.4437262984,7618.1219746630,-2634.2820267733,-10149.3436093460,-7794.8821064099,-10725.9707617852,-21890.6600002185,-13686.8337712863,-5322.8441490737,-7247.4209232553,-3857.4519175964,-24380.9008320018,2760.8139060351,6353.5575792483,9073.1473284473
560377540685,21760,-2,0,354.4328407555,3841.2445454282,7629.2189141656,-2628.7578924157,-10148.5527090525,-7773.7954878158,-10722.2839496479,-21889.7717583504,-13686.8581066800,-5316.2370896989,-7238.4898337873,-3858.2914886771,-24384.0887685694,2758.8792422402,6352.2556356883,9070.9449753223
560377540685,21760,-2,0,353.4959281001,3840.4049743474,7638.1865067241,-2625.1197510656,-10148.3580259034,-7761.8954803229,-10721.2861985084,-21889.5162367171,-13686.7242620149,-5313.0126500408,-7236.7255177479,-3858.6200164914,-24384.0887685694,2758.4533728514,6350.7468412822,9068.7304545005
560377540685,21760,-2,0,351.3909165497,3839.0300246064,7634.6578746454,-2627.6993027921,-10146.7397222259,-7768.2956888518,-10721.0428445720,-21887.4842313477,-13684.9599459756,-5311.7107064807,-7241.6169318708,-3854.3613226033,-24378.2847771849,2759.4389562941,6352.1461264169,9069.9715595765
560377540685,21760,-2,0,350.0403022024,3835.7204110706,7626.4933500772,-2631.9093258928,-10142.3958544601,-7783.2862913377,-10717.6723925520,-21882.7875003740,-13678.0365264833,-5309.6056949304,-7242.0062981691,-3847.8272694094,-24375.3401945537,2765.4619662214,6359.3128998456,9080.8129774457
560377540685,21760,-2,0,353.4107542224,3839.5532355698,7627.7222874563,-2627.1882595255,-10135.6914535107,-7781.3394598460,-10710.6516314852,-21877.6162292243,-13671.7214918322,-5305.9675535803,-7233.4037365153,-3842.8141783184,-24371.4830346608,2767.2749530481,6360.2619801978,9083.2100137198
560377551724,21761,-2,0,358.4116776166,3844.3108050276,7636.2031721419,-2619.4617720430,-10132.2723307034,-7761.4209401468,-10705.5777019100,-21877.0200120800,-13672.0743550401,-5304.0207220886,-7227.2347142260,-3844.6515005386,-24373.7462262699,2764.6588982311,6357.5485838063,9076.0919110784
560377551724,21761,-2,0,357.8641312595,3845.5884131940,7647.2757762508,-2615.8479660865,-10132.6616970018,-7749.5331003508,-10706.1739190543,-21881.4490537235,-13673.4128016906,-5302.9134616778,-7227.1617080451,-3849.3117284218,-24377.9927524611,2761.8359925682,6353.0100328913,9071.5168570730
560377551724,21761,-2,0,352.7171955034,3840.4658128315,7642.0193312233,-2621.1652495982,-10137.4070987627,-7761.2140893008,-10711.5033702628,-21884.3206301737,-13676.2357073535,-5309.1433224511,-7238.9400385697,-3850.9665351897,-24380.5844718844,2759.6093040496,6351.8054309058,9071.7723787063
560377551724,21761,-2,0,348.3854954345,3836.8763422688,7628.1238214515,-2627.3464395842,-10138.4900237800,-7782.8117511616,-10714.7034745272,-21883.4810590930,-13675.2136208204,-5316.4074374544,-7246.2406566635,-3847.3162261429,-24378.5281311213,2760.8869122160,6354.7743489306,9077.0044883401
560377551724,21761,-2,0,351.2814072783,3839.4923970857,7625.2887480918,-2626.0323283273,-10134.7180377649,-7787.6788298907,-10709.2888494410,-21877.1660244418,-13670.2126974262,-5314.8013014738,-7239.9499574060,-3843.2643831008,-24374.7561451062,2764.8292459866,6359.5805891757,9082.8328151183
560377551724,21761,-2,0,355.8077904965,3843.7875940642,7636.4708614720,-2619.5104428302,-10131.8221259210,-7768.5633781819,-10704.2514229563,-21878.9303404812,-13669.2636170740,-5310.4087629207,-7230.2888061286,-3844.0431156975,-24376.3136102996,2765.1334384072,6358.8140242758,9081.2875176218
560377551724,21761,-2,0,358.7158700372,3846.2211334288,7645.4141186369,-2613.9254699885,-10131.3597534417,-7752.9278877644,-10703.9228951421,-21879.7577438651,-13671.6606533481,-5309.4596825685,-7229.4127319573,-3847.3527292333,-24376.6056350233,2763.9531718154,6356.3926526081,9078.2577611129
560377551724,21761,-2,0,356.5743553963,3842.6316628660,7643.2847716929,-2616.3955124436,-10133.9393051682,-7757.2960909239,-10706.9404839542,-21881.1205259093,-13671.8310011036,-5309.9220550478,-7236.9932070780,-3847.1823814778,-24375.9242440012,2762.5417189839,6356.6725096350,9079.8882324872
560377581606,21762,-2,0,352.2548230242,3837.5699009877,7631.3847642001,-2624.8277263419,-10134.3773422538,-7775.5598038551,-10709.1671724728,-21880.2566194349,-13670.6142314213,-5311.7107064807,-7244.6466883797,-3843.7145878833,-24372.5659596781,2764.8414136835,6358.3516517966,9084.0495848006
560377581606,21762,-2,0,351.4639227307,3837.7280810464,7622.1738177051,-2626.6163777748,-10132.9658894223,-7782.7387449806,-10706.6727946241,-21877.8109123735,-13667.4993010347,-5312.3434267155,-7239.4875849267,-3840.8430114330,-24368.8061413598,2767.3966300163,6360.0794647454,9088.0284216617
560377581606,21762,-2,0,354.4206730587,3840.9768560981,7629.4987711925,-2622.9295656375,-10131.5301011972,-7765.2050938588,-10703.7038765993,-21878.1394401877,-13666.9882577681,-5305.5538518883,-7229.3397257764,-3842.2057934772,-24369.8403955897,2766.7760774783,6358.4854964616,9076.5664512545
560377581606,21762,-2,0,355.6739458314,3842.4248120200,7643.3821132675,-2616.7605433483,-10131.6761135591,-7747.2455733481,-10701.2094987506,-21878.8451666034,-13667.4141271569,-5299.5916804451,-7226.0544476342,-3845.1138730179,-24373.7218908763,2764.8535813803,6356.5508326668,8956.6903021549
560377581606,21762,-2,0,354.4206730587,3839.0300246064,7642.5182067930,-2619.4617720430,-10133.4282619016,-7747.4767595877,-10703.7647150834,-21881.5098922076,-13668.7647415042,-5300.5650961909,-7231.4325696300,-3844.6149974482,-24373.5758785144,2764.7805751994,6355.0420382607,8839.1138477548
560377581606,21762,-2,0,353.9339651857,3835.9394296134,7633.6844588996,-2623.6596274469,-10132.2601630066,-7764.1708396288,-10704.1784167754,-21877.9690924322,-13666.6962330443,-5300.6867731592,-7235.8859466671,-3839.1395338778,-24368.5141166360,2768.9297598160,6360.5783403152,8829.5135349615
560377581606,21762,-2,0,357.3409202962,3837.9227641955,7629.7056220385,-2622.6375409137,-10126.5900162871,-7771.1064268179,-10700.1874122174,-21873.9172493901,-13660.1013413663,-5297.2189795646,-7230.5321600651,-3832.2769528697,-24362.5154421023,2775.4151422226,6366.2119839442,8886.9085608753
560377581606,21762,-2,0,362.6217007173,3844.9556929592,7636.6290415307,-2615.6289475437,-10124.6066817050,-7754.8990546497,-10695.4055073660,-21871.3863684510,-13658.3248576302,-5292.1450499895,-7221.2847104796,-3831.4738848794,-24362.0409019262,2776.6075765112,6367.7451137439,8946.3477598554
560377614168,21763,-2,0,364.9578985073,3851.0760444611,7649.0157568965,-2607.9024600612,-10126.3588300475,-7738.2901484864,-10695.4055073660,-21874.1606033266,-13661.8899927993,-5290.3320631628,-7218.0967739120,-3836.7911683910,-24366.7011298094,2772.8477581930,6362.7685257433,8979.4803983043
560377614168,21763,-2,0,360.1881613527,3847.4257354143,7648.4195397522,-2613.3170851474,-10133.4525972953,-7744.8485370740,-10702.9981501835,-21879.8064146524,-13669.3487909517,-5295.8683652173,-7226.8696833213,-3842.9236875898,-24372.4686181035,2766.3867111800,6357.2322236889,8988.8738602516
560377614168,21763,-2,0,355.2359087458,3839.9669372618,7635.3270979707,-2620.4716908793,-10139.9866504892,-7767.6751363138,-10709.2036755632,-21881.6680722663,-13674.5078944047,-5305.8093735216,-7239.0008770538,-3844.2621342403,-24374.0504186905,2763.6976501821,6356.0884601875,8991.9766229414
560377614168,21763,-2,0,354.4571761491,3840.4901482252,7625.3617542727,-2625.2657634275,-10139.2809240735,-7782.5440618315,-10708.8143092649,-21878.7113219384,-13671.5633117735,-5308.0117266466,-7237.7111011906,-3840.5874897998,-24371.2396807244,2767.1411083830,6358.6315088235,8996.7463600960
560377614168,21763,-2,0,359.2634163942,3847.0120337223,7636.9210662545,-2617.0769034657,-10134.2678329824,-7768.2713534582,-10702.9008086090,-21876.4116272388,-13667.9373381203,-5302.9012939809,-7226.1639569056,-3839.3220493302,-24369.5848739565,2768.7107412732,6359.9577877772,8999.6301042431
560377614168,21763,-2,0,365.3594325025,3854.2518133319,7652.2280288578,-2607.6226030342,-10133.0753986938,-7751.0905655442,-10699.4573504081,-21875.5598884612,-13669.1054370153,-5299.7863635943,-7221.7470829589,-3841.0133591886,-24373.3811953652,2765.7661586420,6356.7941866032,8998.1213098370
560377614168,21763,-2,0,367.4401086592,3853.2297267988,7655.2942884571,-2606.0894732345,-10135.4115964838,-7748.5353492113,-10702.6209515820,-21877.8960862512,-13672.0621873433,-5302.4875922890,-7227.8796021577,-3843.9701095165,-24376.1310948472,2760.7652352478,6352.1461264169,8999.1068932797
560377614168,21763,-2,0,367.5009471433,3851.3802368817,7649.1982723488,-2610.3116640321,-10135.5941119361,-7766.1176711205,-10704.8476401006,-21877.8474154639,-13671.3077901402,-5306.7584538738,-7235.9346174544,-3843.1062030421,-24379.2460252339,2761.4344585730,6354.0929579085,9008.8045476476
560377646851,21764,-2,0,366.3328482483,3850.0904610185,7639.1964255604,-2614.7163702820,-10134.6815346744,-7783.0186020076,-10704.6286215578,-21875.5842238549,-13668.5700583551,-5310.0558997128,-7237.9301197334,-3839.9182664745,-24377.1410136835,2763.9531718154,6355.2245537131,9015.4481101129
560377646851,21764,-2,0,367.8781457448,3852.8160251068,7640.0116612475,-2612.8303772745,-10133.8297958968,-7775.8761639725,-10704.1540813817,-21877.0686828673,-13668.6795676265,-5311.8567188426,-7233.3307303343,-3842.6681659565,-24377.7980693120,2762.2375265634,6353.0222005881,9013.8663095259
560377646851,21764,-2,0,367.4522763560,3852.2076402657,7649.9891726423,-2607.9511308485,-10137.1637448263,-7760.4110213105,-10706.9283162573,-21883.4323883057,-13672.8652553336,-5309.2163286320,-7230.0697875858,-3849.9931194439,-24382.7503219189,2758.0761742499,6347.8752648320,9008.8653861317
560377646851,21764,-2,0,362.1228251476,3848.4234865537,7652.1185195863,-2611.1634028097,-10142.8825623330,-7758.3303451538,-10712.4767860086,-21889.7109198663,-13679.4844824053,-5313.2925070677,-7239.6335972886,-3857.2085636599,-24387.3132082275,2753.8418157555,6343.8234217900,9004.6188599405
560377646851,21764,-2,0,360.7722108002,3846.2454688224,7641.1432570521,-2617.5027728545,-10146.1191696879,-7776.7157350533,-10720.7021490609,-21891.9376083849,-13683.0374498776,-5319.2668462078,-7252.2514988940,-3858.5105072200,-24387.1063573815,2752.6980522542,6343.5800678535,9008.1109889287
560377646851,21764,-2,0,359.6771180862,3843.8240971547,7632.0418198285,-2622.7957209724,-10145.3769401817,-7792.6797532850,-10720.1911057944,-21890.2828016170,-13679.4966501021,-5320.8243114011,-7253.0667345811,-3854.8358627794,-24382.7381542221,2754.1581758729,6343.8477571836,9014.0123218878
560377646851,21764,-2,0,360.9303908589,3846.9511952382,7633.8791420488,-2621.1652495982,-10142.0673266459,-7785.9023461546,-10716.5042936570,-21888.9808580569,-13676.4060551090,-5317.7337164081,-7246.4475075095,-3852.3414849307,-24382.7746573125,2756.8594045676,6344.9550175945,9017.1637553649
560377646851,21764,-2,0,362.8528869570,3849.9201132630,7643.6254672039,-2615.2395812454,-10141.3737679270,-7764.9374045287,-10713.2311832116,-21889.7109198663,-13678.4745635689,-5314.8621399579,-7239.7552742568,-3854.6898504176,-24386.2546186039,2753.8053126651,6341.9617641761,9014.0001541910
560377679352,21765,-2,0,361.8064650302,3848.7763497616,7650.6462282708,-2613.3414205410,-10142.5662022156,-7756.5173583272,-10714.8494868891,-21891.3657266342,-13679.0707807133,-5314.0590719676,-7240.3879944916,-3856.6001788188,-24388.3231270638,2751.7854749924,6340.5259759510,9012.6373721468
560377679352,21765,-2,0,361.3197571573,3846.5131581525,7648.0423411507,-2616.0791523262,-10141.7266311349,-7768.4538689105,-10715.5308779112,-21888.1777900666,-13677.4646447326,-5313.9252273025,-7246.1189796952,-3852.0129571165,-24384.9891781343,2756.0685042741,6346.1352841863,9020.0596672088
560377679352,21765,-2,0,361.7212911524,3844.5176558736,7634.3658499217,-2621.5181128060,-10139.1105763179,-7783.9311792693,-10713.1946801212,-21883.4323883057,-13672.5853983066,-5315.2636739530,-7247.4330909521,-3845.1868791988,-24377.5182122850,2762.0063403237,6352.3651449597,9028.5283841975
560377679352,21765,-2,0,362.1836636317,3847.5717477761,7633.5141111441,-2620.1796661555,-10136.7865462248,-7779.7089884717,-10709.1306693823,-21880.2079486476,-13668.9229215629,-5311.9053896299,-7239.6214295918,-3842.8628491057,-24376.1919333313,2765.0725999231,6354.8960258989,9031.4364637382
560377679352,21765,-2,0,361.9646450889,3849.1170452726,7642.9075730914,-2615.2882520327,-10136.8230493152,-7761.2870954818,-10708.2302598174,-21883.2012020660,-13672.0743550401,-5309.3745086907,-7234.5718354103,-3848.0706233459,-24379.0513420847,2760.4002043431,6349.2380468762,9025.2431060554
560377679352,21765,-2,0,359.4946026338,3845.7587609495,7644.3676967101,-2616.2860031722,-10141.4346064111,-7752.1978259550,-10711.5642087469,-21888.6644979395,-13676.8319244979,-5311.9783958109,-7239.9621251028,-3853.6799315813,-24383.2735328823,2755.7034733694,6345.6850794039,9020.4612012039
560377679352,21765,-2,0,356.0754798266,3842.4248120200,7639.7926427047,-2620.3986846983,-10142.8703946362,-7765.2050938588,-10714.5574621653,-21890.6965033090,-13677.6836632755,-5314.4971090532,-7248.1753204583,-3854.9210366572,-24382.2149432587,2753.5376233350,6343.7869186995,9023.2476037764
560377679352,21765,-2,0,353.9826359730,3838.8475091541,7629.9368082781,-2626.9935763764,-10141.6536249539,-7782.6170680124,-10716.0662565714,-21889.2363796902,-13674.1063604095,-5314.3632643881,-7250.6818660038,-3849.4820761773,-24378.5524665150,2760.0351734384,6349.4083946317,9034.4418848535
560377709491,21766,-2,0,357.1705725406,3842.7655075311,7628.1724922388,-2624.8763971292,-10136.3850122296,-7782.3980494696,-10712.1117551039,-21885.4643936751,-13669.7989957342,-5313.1099916154,-7243.7462788148,-3846.2211334288,-24373.0283321574,2764.8657490771,6353.8739393657,9040.1120315730
560377709491,21766,-2,0,362.7920484728,3846.8903567541,7639.7561396142,-2618.3666793289,-10135.5697765425,-7762.8688960688,-10708.4614460570,-21885.6712445211,-13668.9472569566,-5306.1865721231,-7232.1017929552,-3847.3283938397,-24373.8192324508,2765.6809847642,6353.0465359818,9038.7127464384
560377709491,21766,-2,0,364.3981844535,3848.4478219474,7652.2280288578,-2612.8668803649,-10136.2876706550,-7748.5718523018,-10707.6218749763,-21886.9001819002,-13670.0301819738,-5301.9887167192,-7229.1328749304,-3849.6037531456,-24374.4397849888,2764.4277119915,6351.9149401772,9036.7902503403
560377709491,21766,-2,0,363.1327439839,3846.2211334288,7650.6827313612,-2615.3612582136,-10135.4237641806,-7757.3204263175,-10710.2014267027,-21886.0484431226,-13669.4826356168,-5303.5705173062,-7237.2487287113,-3849.5550823583,-24371.9210717465,2765.3037861627,6353.1317098595,9038.5910694701
560377709491,21766,-2,0,362.4148498713,3843.7389232769,7638.6123761129,-2621.3599327473,-10135.6671181170,-7776.3385364518,-10710.2379297932,-21883.8947607849,-13666.6353945602,-5304.3127468124,-7242.5538445261,-3846.3063073065,-24367.8570610076,2768.5768966081,6356.3318141240,9045.2589673291
560377709491,21766,-2,0,364.6537060867,3848.3018095855,7638.5150345383,-2618.9872318669,-10131.6152750750,-7777.3119521976,-10706.5146145654,-21881.0718551220,-13662.0603405548,-5302.4510891985,-7235.7642696989,-3843.2278800103,-24363.4523547577,2769.9761817427,6356.6481742414,9046.3662277400
560377709491,21766,-2,0,369.7154679651,3853.4974161289,7649.1861046520,-2611.6866137731,-10128.8288725025,-7758.1113266110,-10701.0148156014,-21881.1570289998,-13661.9264958897,-5299.4943388705,-7228.4149808179,-3844.6515005386,-24364.9611491637,2771.1199452441,6356.8915281778,9043.4459805025
560377709491,21766,-2,0,372.0638334519,3854.5681734493,7659.0297713818,-2607.0385535867,-10130.9825548402,-7743.8872890250,-10702.3167591614,-21884.9655181054,-13666.3920406238,-5300.3947484354,-7228.6461670575,-3848.5694989156,-24369.2563461422,2767.2019468671,6350.9536921282,9037.1309458514
560377743235,21767,-2,0,366.6613760625,3849.5064115710,7655.4646362127,-2613.6821160521,-10134.6815346744,-7754.2906698086,-10707.6827134604,-21887.4112251668,-13671.0157654165,-5305.9675535803,-7239.6822680759,-3851.4289076690,-24372.5294565876,2763.9653395122,6346.2569611546,9034.1133570393
560377743235,21767,-2,0,358.6793669467,3841.0376945822,7637.4199418242,-2625.4847819703,-10139.6581226750,-7778.7842435132,-10712.8053138228,-21888.5063178808,-13674.4227205269,-5315.4948601927,-7249.9396364976,-3851.6114231214,-24373.8800709350,2762.5903897712,6346.2812965482,9035.8046668977
560377743235,21767,-2,0,358.1926590738,3840.5509867093,7627.6736166691,-2628.1738429682,-10139.2809240735,-7787.0461096560,-10711.0166623899,-21886.2431262718,-13672.5732306098,-5317.9770703446,-7246.8368738078,-3848.8006851553,-24372.7971459177,2764.1113518741,6348.1186187685,9038.8344234066
560377743235,21767,-2,0,360.8695523748,3845.3815623480,7635.8746443277,-2621.6154543806,-10138.8915577751,-7770.0965079816,-10708.2180921206,-21886.1457846972,-13672.9017584240,-5314.0469042708,-7236.6646792638,-3850.2486410772,-24375.2185175855,2764.4155442947,6347.1938738099,9035.8776730786
560377743235,21767,-2,0,363.0719054998,3850.2729764708,7646.3875343827,-2614.1444885313,-10139.5851164940,-7754.1689928404,-10706.9283162573,-21887.2773805017,-13674.7755837348,-5311.3213401824,-7234.5961708039,-3851.4410753658,-24376.0459209694,2761.7751540841,6345.1010299564,9033.0182643252
560377743235,21767,-2,0,361.8308004238,3848.2653064950,7645.4749571210,-2615.0083950058,-10140.5706999367,-7755.3127563417,-10708.0477443651,-21887.5207344382,-13675.0676084585,-5311.5646941189,-7241.3127394502,-3851.3437337912,-24376.7029765979,2762.1888557761,6344.7481667485,9034.7339095772
560377743235,21767,-2,0,357.9858082278,3843.4468985532,7634.9012285819,-2621.8831437107,-10140.7775507827,-7774.5012142315,-10711.2965194168,-21887.0218588684,-13672.5367275194,-5313.1464947059,-7249.0270592359,-3847.4500708079,-24372.4686181035,2764.2451965391,6349.1407053016,9041.5721551917
560377743235,21767,-2,0,359.0809009418,3846.1481272479,7627.3694242485,-2623.7204659310,-10139.1835824989,-7784.3448809613,-10708.3032659983,-21882.8605065550,-13669.9328403992,-5314.7526306865,-7246.3623336317,-3842.0962842058,-24370.8868175165,2768.9419275128,6354.3606472386,9051.9512005817
560377764770,21768,-2,0,362.1836636317,3849.0075360012,7632.0783229190,-2617.9164745464,-10136.3120060487,-7769.4881231404,-10703.4970257533,-21881.6437368727,-13669.8720019151,-5312.4042651997,-7236.3604868432,-3842.1692903867,-24371.5073700545,2769.9396786523,6354.6405042656,9051.9025297944
560377764770,21768,-2,0,361.5387757001,3851.6722616055,7642.3965298248,-2613.3170851474,-10139.0619055306,-7754.0351481753,-10704.5677830737,-21884.2719593864,-13674.3862174364,-5309.7517072923,-7230.9701971507,-3844.9435252624,-24377.4087030136,2765.0239291358,6352.7788466517,9048.5685808649
560377764770,21768,-2,0,357.7911250786,3846.9998660255,7641.8246480741,-2617.4054312799,-10143.3814379028,-7757.4421032857,-10707.2325086779,-21886.4499771178,-13678.4258927817,-5312.7814638012,-7236.8715301098,-3847.7785986221,-24380.1342671020,2761.9576695364,6349.5057362063,9045.9768614416
560377764770,21768,-2,0,351.3544134593,3840.4293097411,7626.6028593486,-2626.3121853543,-10145.5837910277,-7776.8739151120,-10711.0044946930,-21886.0119400321,-13679.2532961656,-5317.9283995573,-7244.4398375337,-3845.9656117955,-24378.1874356103,2763.1379361283,6350.1871272284,9049.3108103711
560377764770,21768,-2,0,348.7870294296,3837.8375903178,7618.6451856264,-2631.2522702644,-10144.2331766804,-7788.8590964826,-10709.3740233188,-21884.2111209023,-13675.9923534171,-5316.2979281830,-7243.5394279688,-3843.0940353453,-24374.2207664460,2766.0703510626,6352.4989896247,9051.6835112516
560377764770,21768,-2,0,349.8334513564,3838.8840122446,7624.3396677396,-2627.7114704889,-10141.3250971397,-7775.6206423392,-10705.5290311227,-21883.5540652739,-13673.6439879302,-5311.0658185491,-7234.7908539531,-3842.9358552866,-24372.4564504067,2765.9486740944,6351.4890707884,9047.4248173636
560377764770,21768,-2,0,355.0533932934,3844.3351404212,7636.5803707435,-2619.6077844048,-10140.5463645430,-7756.5295260240,-10705.0301555530,-21884.6248225943,-13674.6052359793,-5307.5250187737,-7231.4690727204,-3848.4721573410,-24375.2671883728,2763.8801656345,6348.3011342208,9039.4914790350
560377764770,21768,-2,0,353.8244559143,3841.9867749344,7641.4596171695,-2619.9728153095,-10141.5684510762,-7755.8724703956,-10708.3032659983,-21890.6965033090,-13676.7345829233,-5307.0991493849,-7237.2000579240,-3852.2319756593,-24379.5015468672,2761.1180984556,6346.6949982402,9039.6009883064
560377801907,21769,-2,0,350.7460286181,3838.6163229145,7634.5240299804,-2626.0079929337,-10143.5882887488,-7772.7855689795,-10712.9148230942,-21890.1002861646,-13675.4326393632,-5311.1874955174,-7246.5448490840,-3850.0539579280,-24378.2361063976,2762.1280172919,6348.8121774874,9045.2467996323
560377801907,21769,-2,0,352.6806924130,3839.6505771444,7625.3617542727,-2627.5167873397,-10139.5851164940,-7785.3304644039,-10710.7854761502,-21885.7564183988,-13671.2712870498,-5312.4651036838,-7244.3668313527,-3843.3008861913,-24372.5537919813,2766.8977544465,6352.8153497421,9051.0264556232
560377801907,21769,-2,0,357.8032927754,3844.7123390227,7632.2243352808,-2622.3333484932,-10135.1074040632,-7773.8319909062,-10703.2658395136,-21883.2863759438,-13668.6187291424,-5306.8557954484,-7233.2455564566,-3841.4392285774,-24371.2883515117,2769.1122752683,6354.7865166274,9052.9732871148
560377801907,21769,-2,0,363.2665886489,3851.3559014881,7646.8012360747,-2611.9664708000,-10134.6815346744,-7752.9400554612,-10699.7007043445,-21880.8528365792,-13667.4871333378,-5304.2762437219,-7227.1130372578,-3844.1891280594,-24372.0305810179,2768.3213749748,6352.2556356883,9048.2157176571
560377801907,21769,-2,0,363.2300855585,3851.1490506421,7650.6340605739,-2610.1169808829,-10135.5697765425,-7748.0851444289,-10700.4551015475,-21882.4346371662,-13670.0666850643,-5306.1379013358,-7232.4059853758,-3845.4424008321,-24372.9431582796,2768.2118657034,6350.9780275219,9045.7700105957
560377801907,21769,-2,0,358.3751745261,3846.0021148860,7642.5182067930,-2616.7483756514,-10138.0763220880,-7764.8035598636,-10703.8012181738,-21883.6149037580,-13670.5898960277,-5308.1455713116,-7240.5340068535,-3842.9966937707,-24370.9476560006,2770.6332373712,6351.6959216344,9049.8583567282
560377801907,21769,-2,0,356.0024736456,3842.3274704454,7628.8903863514,-2620.7272125125,-10136.5066891978,-7780.3052056160,-10703.5335288437,-21881.6680722663,-13667.5844749124,-5309.8368811700,-7242.1279751373,-3839.2612108461,-24364.9976522542,2774.6242419291,6354.7013427497,9056.6966023427
560377801907,21769,-2,0,358.7523731276,3846.5739966367,7630.1679945178,-2619.1332442287,-10132.5035169431,-7771.7391470527,-10697.9850590925,-21878.1394401877,-13664.7372338558,-5307.0626462944,-7233.6470904517,-3837.2048700830,-24362.4302682246,2776.2668810002,6355.9667832193,9058.5582599566
560377841641,21770,-2,0,364.8483892359,3851.5505846372,7644.9882492481,-2610.1656516702,-10127.5269289425,-7748.4136722431,-10693.6290236299,-21877.3120368037,-13664.2505259829,-5300.1027237117,-7224.7525040742,-3838.8840122446,-24365.1680000097,2773.8211739388,6353.9347778498,9054.6767646701
560377841641,21770,-2,0,365.5176125612,3852.9863728623,7652.9094198798,-2608.1944847849,-10127.3200780965,-7738.1198007309,-10693.6655267203,-21878.8208312098,-13664.9075816114,-5298.6182646993,-7227.6362482212,-3842.1692903867,-24368.4532781519,2771.3389637869,6351.8054309058,9052.5474177260
560377841641,21770,-2,0,366.0164881309,3850.4311565295,7647.9206641824,-2610.3846702130,-10126.1884822920,-7750.3970068253,-10694.2009053805,-21877.4823845592,-13663.6543088386,-5300.6867731592,-7234.3771522611,-3837.6064040781,-24367.8083902203,2771.5093115424,6352.9248590135,9055.8448635651
560377841641,21770,-2,0,367.9998227131,3851.4775784563,7641.2162632330,-2614.2418301059,-10121.4795836215,-7765.0712491937,-10691.5361797763,-21873.5522184854,-13656.8403986178,-5300.7476116433,-7235.2045556451,-3831.8875865714,-24362.9048084007,2775.8045085209,6356.5264972731,9062.4762583336
560377841641,21770,-2,0,369.4356109382,3852.1954725689,7639.1599224699,-2612.8303772745,-10121.9054530103,-7762.6133744355,-10688.5915971452,-21871.0335052431,-13656.8525663146,-5298.5087554279,-7229.3640611701,-3831.6564003317,-24364.1702488703,2774.1983725403,6355.1880506226,9060.2374021181
560377841641,21770,-2,0,368.7420522193,3855.7484400412,7647.4339563095,-2607.3792490978,-10124.7891971573,-7745.7611143357,-10690.3194100940,-21876.1561056055,-13662.5957192150,-5300.8449532179,-7225.4338950962,-3836.9493484497,-24370.1080849199,2766.3745434832,6349.4814008126,9052.5230823324
560377841641,21770,-2,0,367.3671024783,3851.3680691849,7652.5078858847,-2606.0164670536,-10129.0600587422,-7739.5190858655,-10693.7993713854,-21879.8064146524,-13667.5479718219,-5300.7962824306,-7227.3685588911,-3841.6095763329,-24376.7759827788,2765.0604322263,6346.0866133990,9049.1891334029
560377841641,21770,-2,0,366.8438915149,3852.5970065640,7651.4736316547,-2608.3770002373,-10128.3908354169,-7749.7521188936,-10697.2549972831,-21879.3440421732,-13666.3555375333,-5299.9080405625,-7234.3893199579,-3840.1129496237,-24375.5105423092,2766.0460156689,6349.4814008126,9055.0661309684
560377894148,21771,-2,0,368.6812137351,3852.9133666814,7642.4330329153,-2611.7717876509,-10124.7283586732,-7764.7792244700,-10694.9553025836,-21874.0632617520,-13660.1013413663,-5300.3825807386,-7233.9634505691,-3832.7758284394,-24369.9377371643,2771.7283300853,6357.2443913857,9062.9021277224
560377894148,21771,-2,0,371.6257963663,3855.9066200999,7642.9440761818,-2608.3648325404,-10120.0924661837,-7760.3866859169,-10688.4699201769,-21868.3079411547,-13654.9422379134,-5294.1770553589,-7223.3532189395,-3826.9840047517,-24366.3117635111,2777.0456135969,6362.1601409022,9068.7669575910
560377894148,21771,-2,0,371.7231379409,3858.0724701343,7655.2456176698,-2603.9114555032,-10119.1920566188,-7742.0621345015,-10684.5762571936,-21869.2813569006,-13655.4776165736,-5288.4825732458,-7212.9255027623,-3828.9308362434,-24368.5871228170,2776.0721978510,6361.9897931466,9065.5181825393
560377894148,21771,-2,0,369.3626047572,3856.0161293713,7660.0883610054,-2602.9867105447,-10122.9640426339,-7732.0481200163,-10686.9854611645,-21871.6905608715,-13659.2374348919,-5289.0909580869,-7213.5095522098,-3832.2161143856,-24372.2617672575,2773.3709691563,6360.8460296453,9062.1964013066
560377894148,21771,-2,0,367.9511519258,3854.3126518160,7656.3893811712,-2606.8560381344,-10123.9739614702,-7743.9359598123,-10690.6479379082,-21872.8221566761,-13660.0039997917,-5292.1207145958,-7223.0490265189,-3832.0944374174,-24372.8336490082,2773.4804784278,6359.0573782123,9063.4496740794
560377894148,21771,-2,0,366.5762021848,3852.4996649894,7647.8963287888,-2611.4067567462,-10122.3313223991,-7761.6764617801,-10691.1346457812,-21871.2525237859,-13656.4753677131,-5293.4348258527,-7227.6119128275,-3827.4098741405,-24367.1269991982,2774.5147326577,6361.2718990341,9071.0423168969
560377894148,21771,-2,0,370.0439957793,3856.2351479141,7644.5867152529,-2610.0318070052,-10119.9951246091,-7763.8544795114,-10687.2653181915,-21868.7338105436,-13653.2874311455,-5293.6295090019,-7223.4748959077,-3824.7573162331,-24366.8593098681,2776.4128933621,6361.7221038165,9073.1959992346
560377894148,21771,-2,0,373.4752862834,3860.8467050100,7653.7976617479,-2602.3661580067,-10121.3092358660,-7747.2090702576,-10685.1724743379,-21869.9384125290,-13656.2441814734,-5291.6461744197,-7217.2693705280,-3828.6388115196,-24369.8768986802,2773.0424413421,6357.6337576840,9066.1265673804
560377901939,21772,-2,0,372.4410320534,3859.3257429071,7661.7188323796,-2601.4414130482,-10124.4485016463,-7736.1608015424,-10688.9322926562,-21876.0100932437,-13661.7926512247,-5291.7191806007,-7219.1188604451,-3836.7181622101,-24376.9098274439,2767.7981640114,6351.5255738789,9058.6434338343
560377901939,21772,-2,0,370.8470637696,3857.9264577725,7658.5917342962,-2603.0475490288,-10127.7337797885,-7744.6660216216,-10693.6898621140,-21879.4048806573,-13664.8345754304,-5297.7056874375,-7230.4104830968,-3838.6528260049,-24379.6110561386,2766.9585929307,6349.8220963237,9058.4974214725
560377901939,21772,-2,0,369.6789648746,3854.5681734493,7646.0833419622,-2609.5450991323,-10128.6950278375,-7765.3024354334,-10696.4154262023,-21878.2489494591,-13663.4596256894,-5302.7917847095,-7237.6989334938,-3835.3432124691,-24376.2771072091,2769.2096168429,6353.0465359818,9063.2063201429
560377901939,21772,-2,0,370.3603558967,3856.7583588775,7642.1166727979,-2611.4797629271,-10126.2979915634,-7770.1695141625,-10694.9431348867,-21875.9979255468,-13659.8701551267,-5301.4898411495,-7232.1382960457,-3832.8123315299,-24372.5781273749,2774.1740371467,6355.7964354638,9068.3410882022
560377901939,21772,-2,0,374.4487020292,3860.3721648339,7650.3177004566,-2605.2499021538,-10125.6044328445,-7753.8526327230,-10692.7042786713,-21877.3363721974,-13661.1477632931,-5300.1027237117,-7226.4559816294,-3834.4793059947,-24371.9697425338,2773.2857952786,6356.7455158159,9064.0823943142
560377901939,21772,-2,0,372.8669014422,3858.2306501930,7655.2821207603,-2603.3760768430,-10129.2669095882,-7742.1351406825,-10695.3446688819,-21883.3958852152,-13666.5988914698,-5301.7696981764,-7226.9791925928,-3839.7357510222,-24375.1941821918,2769.5016415667,6354.9811997766,9058.1080551741
560377901939,21772,-2,0,368.4500274955,3853.0958821338,7653.3352892686,-2610.0318070052,-10134.4990192220,-7750.0198082237,-10702.1950821932,-21887.5937406191,-13669.9450080961,-5304.7264485044,-7237.2122256208,-3844.6149974482,-24375.1455114045,2765.9851771848,6352.7666789548,9055.9908759269
560377901939,21772,-2,0,364.9213954169,3848.0706233459,7640.9485739029,-2618.1841638765,-10134.0853175301,-7769.0622537516,-10705.8697266337,-21886.9488526875,-13668.7160707169,-5307.8778819815,-7244.1721482036,-3840.3563035601,-24371.4952023577,2770.4142188284,6357.0253728429,9061.9165442797
560377953241,21773,-2,0,362.7920484728,3848.3748157664,7632.5406953982,-2621.4086035346,-10131.9072997988,-7776.6792319628,-10703.7890504770,-21883.3107113374,-13666.3555375333,-5309.5083533558,-7240.5705099440,-3838.2512920098,-24368.7453028757,2773.8211739388,6359.1303843932,9064.4474252189
560377953241,21773,-2,0,363.7532965219,3848.5573312188,7637.8823143035,-2615.4220966977,-10131.8829644051,-7764.1100011447,-10700.4916046380,-21885.6104060370,-13667.1586055236,-5304.9576347440,-7232.3816499821,-3841.3418870028,-24373.5515431207,2771.7039946916,6355.7842677669,9061.7218611305
560377953241,21773,-2,0,362.4635206586,3848.7885174584,7645.8399880257,-2612.9520542427,-10135.6427827234,-7750.4578453094,-10703.7282119929,-21889.6379136854,-13672.5123921257,-5306.0162243676,-7233.0752087010,-3847.1337106905,-24380.1099317083,2767.3114561385,6351.6350831503,9055.6501804159
560377953241,21773,-2,0,361.6361172747,3847.5839154730,7646.0955096590,-2613.6334452648,-10138.4170175990,-7753.4632664246,-10706.9648193478,-21889.9421061059,-13675.5178132410,-5308.6322791845,-7240.8260315773,-3847.8272694094,-24379.1365159625,2766.7760774783,6351.0875367933,9056.3559068316
560377953241,21773,-2,0,360.2611675337,3844.7123390227,7639.3424379223,-2618.6587040526,-10136.6405338629,-7769.5246262309,-10707.5610364921,-21886.7054987510,-13671.5268086830,-5307.5736895609,-7244.5736821987,-3843.2765507976,-24373.4420338493,2771.8013362662,6356.7090127255,9065.3478347838
560377953241,21773,-2,0,362.3296759936,3847.1458783873,7634.8647254914,-2620.7272125125,-10133.3309203270,-7777.6283123150,-10703.3145103009,-21882.1912832297,-13664.8345754304,-5307.0383109007,-7240.8138638804,-3837.8375903178,-24367.1635022887,2777.6174953476,6362.2088116894,9073.1351607505
560377953241,21773,-2,0,361.4901049128,3847.6690893507,7636.4465260784,-2619.1819150160,-10132.7468708795,-7767.7603101916,-10702.4262684329,-21884.0286054500,-13667.2072763109,-5308.2307451894,-7235.3140649165,-3841.2932162155,-24366.6402913253,2775.5246514940,6360.3471540755,9068.7912929847
560377953241,21773,-2,0,359.1052363355,3844.4933204799,7641.3622755949,-2618.5248593876,-10138.0276513007,-7756.9188923223,-10706.5511176558,-21891.8280991135,-13673.5831494461,-5309.5570241431,-7235.8737789703,-3848.8736913362,-24374.2085987492,2770.2682064665,6353.6184177324,9063.0116369938
560377979467,21774,-2,0,354.8222070538,3839.4558939952,7641.7516418932,-2622.6862117010,-10143.0894131790,-7761.3479339659,-10713.9125742337,-21897.0237056569,-13679.2289607720,-5314.0712396644,-7246.6421906586,-3853.8989501241,-24377.9927524611,2765.4619662214,6350.6494997076,9061.0526378053
560377979467,21774,-2,0,350.8190347991,3835.4648894373,7628.6713678085,-2630.1571775503,-10146.5693744704,-7780.8284165794,-10719.2298577453,-21900.2481453150,-13679.8373456131,-5321.0554976408,-7256.4128512075,-3852.8768635909,-24377.2870260454,2766.8734190529,6351.8784370868,9065.0923131505
560377979467,21774,-2,0,352.9483817431,3836.1827835499,7623.8529598667,-2630.6317177264,-10141.9578173745,-7792.1200392311,-10717.4533740092,-21894.4684893241,-13674.9824345808,-5320.5566220710,-7253.8211317842,-3847.2310522651,-24373.7097231794,2770.7914174299,6356.4169880017,9071.8332171904
560377979467,21774,-2,0,358.1439882865,3841.4878993647,7630.2896714860,-2625.2779311243,-10138.4778560831,-7779.7333238654,-10713.3285247862,-21892.4364839546,-13672.1230258274,-5316.2370896989,-7244.5736821987,-3846.7930151795,-24373.7948970572,2771.3146283933,6356.0519570970,9070.1175719384
560377979467,21774,-2,0,359.1904102132,3844.9678606560,7637.9918235749,-2621.9074791044,-10140.5098614526,-7762.1144988657,-10712.9999969720,-21895.6974267032,-13676.9536014661,-5317.0523253860,-7242.1766459246,-3851.7574354832,-24378.0414232484,2766.7760774783,6351.4647353948,9062.0503889448
560377979467,21774,-2,0,357.4991003549,3841.5852409392,7640.6078783918,-2622.3941869773,-10144.4886983137,-7761.2505923913,-10717.1613492854,-21899.6762635643,-13682.9887790903,-5319.8143925648,-7248.3456682138,-3856.7948619679,-24380.5601364908,2763.0770976441,6345.9527687340,9058.1080551741
560377979467,21774,-2,0,352.3034938115,3834.8686722930,7633.0274032712,-2629.4271157409,-10145.5594556341,-7778.1515232784,-10720.4587951245,-21900.2238099213,-13681.0419475986,-5321.6273793914,-7257.0699068359,-3855.5172538015,-24375.7052254584,2765.3889600405,6346.5611535751,9060.4442529641
560377979467,21774,-2,0,357.0002247851,3838.9935215160,7629.0242310164,-2630.2545191249,-10136.3485091391,-7785.3304644039,-10714.1924312606,-21893.6167505465,-13670.7480760864,-5318.2934304620,-7252.1298219258,-3844.4811527831,-24368.3802719710,2776.8630981445,6357.5120807158,9071.2126646524
560377996300,21775,-2,0,364.4468552408,3847.1458783873,7635.0715763374,-2622.2846777059,-10127.7337797885,-7770.9969175465,-10705.3343479735,-21886.4378094209,-13662.0968436453,-5307.9508881625,-7237.7476042811,-3837.7280810464,-24363.2090008212,2782.8982757687,6363.6080968241,9076.4691096799
560377996300,21775,-2,0,365.7731341945,3848.4234865537,7644.7692307053,-2617.9651453337,-10127.1862334315,-7753.2442478818,-10704.6164538610,-21889.3702243553,-13662.5713838214,-5304.5195976584,-7230.4348184905,-3842.2301288709,-24366.7376328999,2780.0510347121,6360.8825327357,9072.7701298458
560377996300,21775,-2,0,360.9790616462,3843.2157123135,7646.3023605050,-2620.6907094221,-10132.6130262145,-7751.5042672361,-10711.0531654803,-21894.0304522384,-13668.9837600471,-5309.2649994193,-7240.0716343742,-3846.9268598445,-24371.5803762354,2775.9748562765,6357.1835529016,9066.6619460406
560377996300,21775,-2,0,354.7735362665,3835.4892248310,7634.0859928947,-2628.2590168459,-10137.9424774229,-7768.7702290279,-10717.4047032219,-21896.6830101459,-13671.3686286243,-5313.4628548233,-7250.8400460625,-3849.1900514536,-24372.5659596781,2774.6364096259,6355.9911186129,9068.5357713514
560377996300,21775,-2,0,350.3688300166,3833.3963809774,7625.1184003362,-2634.1846851987,-10136.6405338629,-7785.0141042865,-10717.1248461950,-21895.6609236127,-13667.7669903648,-5313.4993579137,-7251.3510893291,-3845.0773699274,-24368.7209674820,2778.9316066044,6358.2786456156,9075.0576568485
560377996300,21775,-2,0,352.9362140463,3837.4968948067,7624.3883385269,-2631.3617795358,-10133.2944172366,-7778.8085789068,-10712.2334320721,-21892.2783038959,-13664.9562523987,-5311.3335078792,-7242.1279751373,-3842.1327872963,-24364.3405966258,2780.0023639249,6359.2763967551,9073.8652225598
560377996300,21775,-2,0,356.8663801201,3842.7655075311,7636.4830291689,-2623.1120810898,-10133.0023925128,-7759.3889347774,-10708.8873154458,-21891.7672606294,-13666.6475622570,-5308.4740991258,-7234.2433075961,-3843.7997617610,-24369.5848739565,2778.1528740078,6358.1691363442,9071.3100062270
560377996300,21775,-2,0,355.8199581933,3842.0841165090,7642.1045051011,-2622.1386653440,-10136.1659936868,-7753.7674588452,-10710.7246376661,-21893.9452783607,-13671.0401008101,-5308.6566145782,-7237.2852318018,-3846.0386179764,-24374.4154495952,2773.5778200023,6354.3849826323,9067.3920078500
560378027752,21776,-2,0,351.5855996989,3836.1462804594,7632.4555215205,-2629.0134140490,-10141.4102710175,-7768.7580613311,-10714.8008161018,-21895.9042775492,-13676.0653595980,-5315.9572326720,-7247.5426002235,-3845.3085561671,-24376.9950013216,2770.9374297918,6354.4214857228,9068.8399637720
560378027752,21776,-2,0,349.6266005104,3835.7204110706,7622.0643084337,-2632.6393877022,-10139.7797996432,-7786.1700354847,-10714.8129837986,-21891.9619437785,-13673.7534972016,-5318.9018153031,-7249.7692887421,-3841.5609055456,-24375.5835484902,2773.2979629754,6357.5850868967,9075.6052032055
560378027752,21776,-2,0,351.9141275131,3838.1661181320,7622.5266809130,-2629.6217988901,-10137.8938066356,-7782.7509126775,-10709.4713648933,-21889.5040690203,-13669.7746603405,-5314.9838169261,-7239.8526158314,-3838.2877951002,-24373.7705616636,2775.6341607654,6359.6049245693,9078.5011150494
560378027752,21776,-2,0,359.0078947609,3843.4468985532,7635.2054210025,-2621.6641251679,-10136.7257077406,-7763.6841317559,-10706.6727946241,-21889.2485473870,-13671.5024732894,-5312.7084576202,-7233.1725502756,-3842.0841165090,-24376.0215855758,2772.9816028580,6357.7067638650,9071.1761615620
560378027752,21776,-2,0,357.9371374405,3843.8727679420,7642.3965298248,-2619.0115672605,-10139.6094518877,-7755.2032470703,-10709.7268865266,-21893.2273842481,-13675.8706764488,-5314.5579475373,-7236.3969899337,-3847.7177601380,-24380.7913227304,2770.3533803443,6353.6914239134,9065.3356670869
560378027752,21776,-2,0,355.6982812251,3840.2832973792,7639.8048104015,-2624.0003229579,-10143.1989224504,-7766.8720683235,-10714.7034745272,-21895.9651160333,-13677.4403093390,-5315.7017110387,-7246.1189796952,-3849.8106039916,-24381.8377446572,2767.0315991116,6352.2556356883,9067.4528463341
560378027752,21776,-2,0,355.8686289806,3839.9060987777,7630.4235161510,-2629.1472587140,-10142.7730530616,-7785.5129798563,-10714.9589961605,-21893.8966075734,-13676.8197568010,-5320.9703237630,-7250.9008845467,-3845.1260407147,-24379.4163729894,2769.2947907207,6356.1492986716,9074.1572472836
560378027752,21776,-2,0,357.3165849025,3841.8650979662,7623.7921213825,-2629.6217988901,-10142.7000468807,-7788.4453947906,-10713.7422264782,-21891.7064221453,-13676.9170983756,-5321.5178701200,-7244.6223529860,-3841.7920917852,-24378.7836527546,2771.0591067600,6357.7797700459,9077.1870037925
560378057813,21777,-2,0,359.3364225751,3845.5397424067,7632.7597139410,-2624.3896892562,-10143.2962640250,-7772.7490658890,-10712.6349660673,-21891.9619437785,-13678.4745635689,-5317.8797287700,-7237.1513871367,-3845.4545685289,-24382.2271109555,2766.8977544465,6353.3020576151,9071.1639938651
560378057813,21777,-2,0,357.8884666532,3843.7267555801,7637.4321095211,-2623.4649442977,-10146.9830761624,-7763.5137840004,-10715.6647225762,-21897.7294320726,-13683.0374498776,-5319.1695046332,-7240.8138638804,-3851.4410753658,-24388.1527793083,2764.1600226614,6349.2137114825,9064.4717606125
560378057813,21777,-2,0,354.1286483349,3839.2490431492,7633.3559310854,-2628.1251721809,-10147.8591503336,-7770.9725821528,-10720.4587951245,-21899.9439528944,-13685.3614799707,-5322.7224721055,-7250.1829904341,-3853.6434284908,-24389.1505304478,2762.6512282553,6347.4858985337,9061.6975257369
560378057813,21777,-2,0,351.9993013909,3836.0246034912,7625.0940649426,-2633.3329464211,-10145.7784741769,-7788.1655377637,-10721.2253600243,-21897.8997798281,-13681.1271214763,-5322.3817765945,-7251.8012941116,-3850.2121379867,-24385.0256812248,2766.7517420847,6350.9293567346,9068.7791252878
560378057813,21777,-2,0,351.2814072783,3837.2778762639,7620.4460047562,-2633.9413312623,-10143.9289842598,-7791.0614496075,-10717.1370138918,-21893.8236013925,-13677.1239492216,-5321.1650069122,-7247.1288985315,-3847.1215429937,-24381.2293598160,2771.1077775473,6354.1781317863,9071.0058138064
560378057813,21777,-2,0,356.2701629757,3843.3860600690,7629.1824110751,-2626.3608561416,-10145.0605800644,-7777.1294367453,-10713.6205495100,-21894.2251353876,-13680.8594321462,-5321.4570316359,-7241.7872796263,-3849.5064115710,-24384.3077871122,2767.9198409797,6350.9050213409,9066.7106168279
560378057813,21777,-2,0,355.7712874060,3841.0376945822,7636.6533769244,-2624.6330431927,-10150.1710127300,-7766.8355652330,-10717.3195293441,-21900.8200270656,-13688.4885780542,-5322.3087704135,-7244.2694897782,-3856.2229802172,-24392.4114731963,2761.6169740254,6345.0645268659,9060.7606130815
560378057813,21777,-2,0,352.4251707797,3838.5798198240,7633.9399805329,-2629.1107556235,-10154.3445327403,-7775.9735055471,-10724.1212718682,-21904.3973299316,-13691.6156761377,-5327.5165446537,-7255.8653048504,-3858.7051903691,-24395.7697575194,2757.8693234039,6343.1298630711,9059.6776880643
560378081530,21778,-2,0,351.3179103688,3836.3287959117,7623.9381337444,-2634.1481821082,-10153.1642661484,-7792.8501010405,-10724.7418244061,-21902.8276970414,-13688.9387828367,-5330.5463011627,-7261.9613209587,-3854.6776827207,-24391.5962375092,2762.6147251649,6347.4493954432,9066.5402690724
560378081530,21778,-2,0,352.3764999924,3836.4139697895,7619.7159429469,-2635.8881627539,-10147.6522994876,-7796.2935592414,-10720.2519442785,-21899.6275927770,-13682.1857110999,-5326.3362780619,-7254.9040568014,-3851.1855537325,-24385.8165815183,2768.4795550335,6351.9757786613,9072.3807635474
560378081530,21778,-2,0,357.1705725406,3841.6704148170,7630.8858886303,-2628.7943955062,-10143.9168165630,-7778.5043864862,-10715.8350703317,-21899.0922141168,-13679.6061593735,-5321.5543732105,-7245.8026195778,-3851.5262492436,-24385.7192399437,2769.2826230238,6351.8175986027,9069.6551994591
560378081530,21778,-2,0,359.9934782036,3844.5784943577,7640.3036859713,-2622.6983793979,-10142.2255067046,-7762.0901634721,-10714.8008161018,-21900.0899652563,-13680.6039105130,-5318.7436352444,-7243.2717386387,-3855.1157198064,-24386.4736371467,2767.2506176544,6348.1916249494,9063.3645002016
560378081530,21778,-2,0,360.4071798955,3844.8461836878,7642.4573683089,-2622.5888701264,-10141.9821527681,-7764.4141935653,-10716.5651321411,-21901.6717658433,-13681.2001276573,-5318.5124490048,-7249.6962825612,-3856.5393403346,-24388.5421456066,2764.6710659279,6345.6364086166,9061.4055010131
560378081530,21778,-2,0,357.3895910835,3841.6582471202,7634.6700423422,-2628.1495075745,-10142.3836867633,-7780.6337334303,-10717.8305726107,-21899.1652202977,-13678.5840728404,-5320.4106097091,-7254.8553860141,-3852.1833048720,-24384.9526750438,2766.3137049990,6348.4349788859,9067.3676724564
560378081530,21778,-2,0,361.4901049128,3846.4158165780,7629.3405911338,-2627.1274210414,-10134.9735593981,-7784.6734087755,-10711.8440657738,-21892.9718626149,-13670.7237406927,-5318.1595857969,-7247.3235816807,-3843.9092710324,-24377.3600322263,2773.6508261833,6354.4823242069,9074.7412967311
560378081530,21778,-2,0,369.4842817255,3852.4631618990,7639.9994935507,-2616.7483756514,-10132.0654798574,-7768.7823967247,-10705.3343479735,-21889.6379136854,-13668.3875429027,-5313.9495626962,-7237.0297101685,-3843.1548738294,-24376.3136102996,2773.2127890976,6354.2633056641,9072.0644034300
560378112879,21779,-2,0,370.8713991633,3853.6799315813,7652.1185195863,-2612.7938741840,-10134.3651745570,-7753.8648004198,-10706.2469252353,-21891.5360743897,-13673.3154601160,-5311.9053896299,-7235.7764373957,-3847.8151017126,-24382.9571727649,2769.8058339872,6350.9050213409,9067.7083679674
560378112879,21779,-2,0,367.4036055687,3851.8304416642,7651.2059423246,-2614.1566562282,-10137.9181420293,-7757.8801403714,-10710.8584823312,-21897.0480410505,-13678.9612714419,-5317.7580518017,-7244.0261358417,-3850.3459826518,-24387.0941896847,2766.4597173609,6347.5224016242,9064.1310651015
560378112879,21779,-2,0,361.0277324335,3845.4545685289,7639.6587980397,-2623.6352920532,-10140.7288799954,-7777.3849583785,-10715.3970332461,-21898.0214567964,-13679.7521717354,-5322.9779937388,-7252.3610081654,-3850.7475166469,-24387.1428604720,2765.7418232484,6346.2204580641,9066.3455859233
560378112879,21779,-2,0,359.2390810005,3843.0940353453,7629.7177897353,-2629.4392834378,-10139.6337872813,-7787.4841467416,-10714.6061329526,-21896.6586747522,-13675.1649500331,-5321.2745161836,-7250.1829904341,-3848.4964927347,-24384.5268056550,2769.1122752683,6348.5444881573,9069.4605163099
560378112879,21779,-2,0,362.3783467809,3847.5109092920,7634.5361976772,-2623.6596274469,-10135.8009627821,-7774.7324004711,-10709.6417126489,-21894.7605140478,-13673.1694477541,-5317.9892380414,-7241.5804287803,-3847.4257354143,-24382.4096264078,2770.9739328822,6349.6760839618,9066.2360766518
560378112879,21779,-2,0,365.3107617152,3850.2486410772,7644.3190259228,-2618.3788470257,-10135.1074040632,-7757.1379108652,-10707.7922227318,-21896.0259545174,-13674.2523727714,-5314.4119351754,-7237.7111011906,-3850.3094795613,-24384.7579918947,2768.6377350922,6349.3597238444,9063.8877111650
560378112879,21779,-2,0,364.7267122677,3849.5429146615,7650.2933650629,-2617.7096237005,-10138.5386945673,-7755.8116319115,-10711.1018362676,-21897.8267736472,-13677.0266076470,-5314.7404629897,-7243.0162170054,-3852.3171495371,-24385.7800784278,2765.7418232484,6348.7635067001,9063.5348479572
560378112879,21779,-2,0,362.5121914459,3845.3815623480,7642.3356913407,-2622.6983793979,-10138.4291852958,-7772.0190040796,-10712.8904877006,-21896.2206376666,-13678.1703711484,-5317.7945548922,-7249.8057918326,-3848.7155112775,-24384.7579918947,2768.5768966081,6350.9780275219,9068.2437466276
560378146780,21780,5,0,362.1106574508,3844.3108050276,7632.6867077601,-2625.8376451782,-10135.9226397503,-7783.1889497631,-10708.8873154458,-21891.4752359056,-13673.5588140525,-5318.1717534937,-7246.5083459936,-3842.6803336533,-24382.2149432587,2771.3876345742,6355.5165784368,9076.0310725943
560378146780,21780,5,0,364.9822339010,3847.9732817713,7638.0769974527,-2622.0656591631,-10134.4138453443,-7774.6472265934,-10704.9206462816,-21890.4166462820,-13672.7070752749,-5315.4461894054,-7237.5529211319,-3842.0719488122,-24382.6773157380,2771.2294545155,6354.4579888132,9074.7656321247
560378146780,21780,5,0,365.9434819500,3850.8935290088,7645.7548141479,-2617.1742450402,-10137.4436018532,-7759.2429224155,-10705.4316895481,-21893.4950735782,-13677.5254832168,-5316.7481329654,-7236.9810393812,-3847.3040584460,-24387.4592205894,2765.9851771848,6349.8829348078,9066.9904738549
560378146780,21780,5,0,364.3860167566,3848.3504803728,7647.6773102460,-2618.0138161210,-10141.9578173745,-7758.5980344839,-10711.9900781357,-21898.9583694517,-13684.2420518630,-5320.7999760075,-7246.3866690253,-3853.3757391607,-24391.8882622329,2760.7652352478,6344.6264897803,9061.4541718004
560378146780,21780,5,0,358.0101436214,3841.5000670615,7637.3347679465,-2625.5821235449,-10144.8537292184,-7774.9270836203,-10718.2929450900,-21901.3310703322,-13685.3371445771,-5323.9149063942,-7255.8166340631,-3855.2860675619,-24391.5597344187,2762.3348681379,6342.5944844109,9061.1864824703
560378146780,21780,5,0,355.3089149267,3839.0786953937,7626.0674806884,-2631.8241520151,-10143.3084317218,-7790.1975431331,-10717.9035787916,-21896.8898609918,-13680.9811091145,-5325.9469117636,-7255.3785969775,-3849.3969022996,-24386.0234323643,2769.6111508381,6350.9780275219,9072.2834219728
560378146780,21780,5,0,355.0290578998,3842.4734828073,7625.2400773045,-2628.3563584205,-10139.7189611591,-7782.4102171664,-10713.0973385466,-21896.2693084539,-13677.5619863072,-5322.3939442913,-7247.3965878617,-3846.0142825828,-24381.3510367843,2771.5458146329,6352.0001140550,9074.4736074010
560378146780,21780,5,0,356.6230261836,3845.0895376243,7635.3149302739,-2623.6839628405,-10140.8383892668,-7765.2659323429,-10711.8197303802,-21898.1431337646,-13680.0076933686,-5317.5755363494,-7241.1423916947,-3850.0539579280,-24384.3199548090,2771.0104359727,6351.2457168520,9071.0179815033
560378175797,21781,5,0,358.3386714356,3846.1116241574,7641.3379402012,-2620.8245540871,-10143.0407423917,-7759.9486488313,-10713.7787295687,-21900.1143006499,-13683.7310085965,-5319.8387279585,-7246.2893274508,-3853.2053914052,-24388.8220026335,2767.2992884417,6348.0334448907,9066.8809645835
560378175797,21781,5,0,355.5887719537,3841.3905577901,7634.8647254914,-2626.8718994081,-10144.0019904408,-7772.9437490382,-10717.4777094028,-21902.1949768066,-13684.8747720978,-5324.4989558417,-7254.5755289872,-3852.6213419577,-24388.5056425161,2766.9585929307,6349.1528729984,9068.9008022561
560378175797,21781,5,0,353.9339651857,3840.5023159220,7627.1139026152,-2633.3207787243,-10140.8748923573,-7787.7518360717,-10715.9324119063,-21898.3743200042,-13678.5475697499,-5323.6228816704,-7254.0401503270,-3848.7398466711,-24384.9161719534,2770.1830325887,6351.9757786613,9075.4470231468
560378175797,21781,5,0,355.8807966774,3842.9601906802,7625.8971329329,-2629.1715941077,-10138.2466698435,-7783.4079683059,-10710.6394637883,-21894.8091848351,-13675.0919438522,-5322.2114288389,-7245.3280794018,-3845.5154070131,-24382.4339618015,2774.1131986625,6355.7234292828,9077.8075563305
560378175797,21781,5,0,358.4360130102,3846.5739966367,7633.7331296869,-2623.4771119945,-10138.5386945673,-7766.0446649396,-10709.2280109569,-21895.2837250112,-13677.5863217009,-5319.8508956553,-7239.8404481346,-3848.6911758838,-24385.1595258898,2771.5093115424,6353.1317098595,9072.7822975426
560378175797,21781,5,0,358.7280377340,3846.0994564606,7641.8368157710,-2621.8588083171,-10142.9312331203,-7760.2406735550,-10712.7566430355,-21901.0512133053,-13682.8062636379,-5319.0843307554,-7243.3812479101,-3854.4586641779,-24388.9801826922,2763.7219855758,6348.1916249494,9066.2604120455
560378175797,21781,5,0,353.6176050683,3839.4802293889,7633.8669743519,-2628.9890786553,-10148.4188643875,-7773.6616431507,-10719.9842549484,-21905.8452858535,-13686.7729328022,-5325.4115331034,-7256.1694972710,-3857.4640852932,-24393.6890813627,2760.6678936732,6346.0987810959,9067.4771817278
560378175797,21781,5,0,350.2106499579,3838.1174473447,7620.8840418419,-2635.8273242698,-10147.8226472432,-7792.4729024390,-10721.6633971099,-21904.1174729047,-13685.0086167629,-5330.2664441357,-7259.3209307481,-3853.9232855177,-24390.6228217633,2763.4542962456,6350.0289471697,9075.0941599389
560378249634,21782,5,0,352.8632078653,3840.1129496237,7622.1129792210,-2634.2820267733,-10144.6225429787,-7790.8789341552,-10717.5385478869,-21900.4428284641,-13679.8495133099,-5325.6913901303,-7250.4871828547,-3850.2608087740,-24387.0941896847,2769.0149336937,6351.7202570281,9077.8075563305
560378249634,21782,5,0,357.5234357485,3846.0994564606,7631.5794473492,-2624.2558445912,-10142.3958544601,-7771.6296377813,-10713.4502017544,-21897.9606183123,-13680.6647489971,-5322.1019195675,-7243.2474032450,-3851.8182739673,-24386.7534941736,2770.0856910142,6351.3308907297,9074.0964087995
560378249634,21782,5,0,362.4026821745,3849.9931194439,7642.3600267343,-2618.6465363558,-10142.5783699125,-7759.8269718630,-10712.1969289817,-21898.7636863026,-13683.7675116869,-5321.0068268535,-7242.8702046435,-3853.4487453416,-24390.1969523745,2766.8004128720,6349.0555314238,9068.5236036546
560378249634,21782,5,0,360.6383661352,3844.8461836878,7640.8025615410,-2622.7713855788,-10143.4787794774,-7767.3344408028,-10715.3118593684,-21900.4914992514,-13685.5318277263,-5323.0753353134,-7251.1807415736,-3853.7772731558,-24391.9734361107,2763.8071594535,6346.6463274529,9068.2315789308
560378249634,21782,5,0,360.4923537733,3843.1062030421,7635.2905948802,-2626.7867255304,-10140.6680415113,-7782.7144095870,-10715.0563377351,-21897.2913949870,-13681.3461400192,-5324.7423097781,-7254.1253242047,-3849.3482315123,-24388.3109593670,2767.0802698989,6349.8099286269,9075.1793338167
560378249634,21782,5,0,362.7068745951,3845.5032393162,7631.6889566206,-2626.5677069876,-10137.0785709485,-7784.7707503501,-10709.1185016855,-21892.2174654118,-13675.8706764488,-5322.9414906483,-7246.9463830792,-3844.8461836878,-24382.2392786523,2770.0126848332,6352.0366171455,9079.0608291032
560378249634,21782,5,0,363.1084085902,3848.1314618300,7636.6655446212,-2624.1950061071,-10139.3782656480,-7771.1916006957,-10709.1063339886,-21895.6000851286,-13678.3893896912,-5321.4813670296,-7242.5538445261,-3850.1147964121,-24386.8630034450,2766.0703510626,6348.7635067001,9072.5876143934
560378249634,21782,5,0,357.0610632692,3841.8042594821,7638.3811898732,-2626.4216946257,-10146.2286789594,-7766.0081618491,-10716.8814922585,-21904.7258577458,-13687.0771252228,-5324.6693035972,-7248.1631527615,-3859.9219600514,-24395.1005341942,2759.9134964702,6343.3610493107,9065.9075488376
560378272985,21783,5,0,350.8190347991,3834.6131506597,7630.4235161510,-2633.0895924846,-10151.0957576885,-7774.5498850188,-10723.1113530319,-21907.1593971104,-13690.7152665728,-5329.7797362628,-7258.1771672468,-3861.6741083939,-24398.2032968840,2759.2564408417,6341.6575717555,9064.6542760649
560378272985,21783,5,0,351.1353949165,3834.1629458773,7623.6339413238,-2638.0296773948,-10146.3138528371,-7788.2385439446,-10721.2861985084,-21903.1805602493,-13682.7819282443,-5327.2001845364,-7256.8508882931,-3853.1445529210,-24392.0099392011,2765.3889600405,6350.7590089791,9076.3839358022
560378272985,21783,5,0,354.4815115428,3837.0345223275,7623.1350657541,-2635.7908211793,-10139.2444209830,-7788.3358855192,-10713.9977481115,-21895.9164452460,-13672.8409199399,-5320.7878083107,-7245.9486319397,-3845.7344255559,-24383.7359053615,2774.0280247848,6359.0087074250,9085.9355778082
560378272985,21783,5,0,359.5432734211,3844.0431156975,7632.7475462442,-2627.9669921222,-10135.5941119361,-7771.5444639035,-10710.2014267027,-21894.1277938130,-13671.1617777784,-5318.8166414253,-7238.2221444572,-3845.8317671305,-24382.3122848333,2777.1064520810,6361.0650481881,9084.6579696418
560378272985,21783,5,0,360.0178135972,3844.9800283528,7641.5691264409,-2623.8543105960,-10139.0497378338,-7758.4276867284,-10711.5398733532,-21899.5302512024,-13676.5885705614,-5318.2082565842,-7239.4267464426,-3851.9642863292,-24386.8751711419,2771.5701500266,6355.8694416447,9076.8949790687
560378272985,21783,5,0,355.2237410490,3839.9182664745,7638.7827238684,-2628.7092216284,-10144.6468783724,-7766.0446649396,-10717.3925355251,-21903.8741189682,-13682.9644436966,-5321.7855594501,-7249.5746055930,-3857.3667437186,-24393.4700628199,2765.0482645295,6350.6616674045,9074.0720734058
560378272985,21783,5,0,352.0601398750,3835.9515973102,7626.9192194660,-2634.1603498051,-10145.3161016976,-7783.2011174599,-10718.9013299311,-21902.4748338336,-13682.7697605474,-5326.2389364873,-7256.5345281757,-3853.1688883147,-24393.5552366977,2764.1843580550,6352.0122817518,9079.3163507365
560378272985,21783,5,0,353.3742511319,3837.6185717750,7620.7015263895,-2635.4501256683,-10141.5562833793,-7790.4652324632,-10714.0342512019,-21896.3544823316,-13677.9756879992,-5324.2921049957,-7248.5403513630,-3845.8682702209,-24389.4912259588,2769.2704553270,6356.3196464271,9086.8116519794
560378280530,21784,5,0,356.6108584868,3841.8650979662,7627.8682998182,-2629.0377494426,-10141.2885940492,-7776.7522381437,-10710.1162528250,-21894.5536632018,-13676.9779368597,-5320.5931251615,-7239.4510818363,-3845.8682702209,-24390.7931695189,2769.7936662904,6358.1934717379,9087.7485646348
560378280530,21784,5,0,360.0178135972,3843.7632586706,7636.4100229879,-2624.7547201609,-10143.5274502647,-7761.9928218975,-10711.4790348691,-21897.4130719552,-13681.7841771048,-5321.2136776995,-7238.8792000856,-3848.8006851553,-24394.5043170499,2766.9829283243,6354.6161688719,9082.6624673628
560378280530,21784,5,0,357.8397958659,3842.3883089296,7637.2495940687,-2625.4239434862,-10145.7176356928,-7764.1830073256,-10715.2631885811,-21899.9682882880,-13685.2276353057,-5322.9658260420,-7246.6421906586,-3851.0517090675,-24397.1933780477,2765.2672830723,6353.6062500356,9081.6282131329
560378280530,21784,5,0,354.9560517189,3839.1760369683,7632.8935586061,-2630.8750716629,-10144.2940151645,-7779.6481499876,-10715.2510208842,-21897.6685935885,-13680.9324383272,-5322.8928198610,-7251.5944432656,-3847.4744062016,-24393.2145411866,2769.8423370777,6358.1082978601,9087.6025522729
560378280530,21784,5,0,354.9195486284,3838.9935215160,7625.3130834854,-2632.6637230958,-10140.1326628511,-7786.1457000911,-10712.0874197103,-21892.9475272212,-13674.5200621015,-5320.8121437043,-7245.7417810937,-3842.1814580836,-24386.3884632689,2775.6949992495,6363.9974631224,9094.3921271001
560378280530,21784,5,0,360.1638259591,3844.3473081181,7631.6281181365,-2626.0931668115,-10136.3728445328,-7773.5521338793,-10705.9670682083,-21891.1953788787,-13672.5975660035,-5317.0766607797,-7236.1293006036,-3841.3783900933,-24383.1153528236,2778.7369234553,6364.2286493621,9094.3677917065
560378280530,21784,5,0,360.4801860765,3844.7731775069,7642.5790452772,-2620.8245540871,-10137.4070987627,-7756.9675631096,-10706.0522420861,-21894.8335202288,-13675.3474654855,-5313.4993579137,-7233.4159042121,-3846.7565120890,-24385.7192399437,2777.7513400126,6362.3791594450,9089.7318992169
560378280530,21784,5,0,359.0078947609,3841.3175516091,7643.3212747834,-2624.1706707134,-10141.0695755064,-7757.7219603127,-10711.3816932945,-21898.9340340581,-13680.5552397257,-5318.2082565842,-7242.8823723403,-3850.1878025931,-24387.3862144084,2775.0014405306,6359.9091169899,9086.4952918620
560378305509,21785,5,0,356.4526784281,3840.5266513157,7635.0472409438,-2630.1328421567,-10142.2620097951,-7774.2213572046,-10714.7399776177,-21899.2868972660,-13679.8251779163,-5321.5422055137,-7250.0369780722,-3848.1801326173,-24386.2302832103,2774.8919312592,6361.0772158849,9090.3281163613
560378305509,21785,5,0,356.2944983694,3838.2391243129,7628.4523492657,-2632.0431705579,-10139.9988181860,-7786.6567433576,-10711.9292396516,-21894.8456879256,-13674.6782421602,-5319.8265602616,-7247.4452586489,-3844.3229727244,-24383.5168868187,2776.8630981445,6364.0583016065,9094.7206549144
560378305509,21785,5,0,362.6947068983,3846.4279842748,7632.8935586061,-2624.3166830753,-10136.2024967772,-7775.0852636790,-10704.5677830737,-21891.9132729913,-13672.1960320083,-5316.3952697576,-7238.2221444572,-3842.6073274724,-24382.4582971951,2779.0167804822,6364.2773201493,9093.3822082638
560378305509,21785,5,0,366.1381650991,3849.0927098790,7642.0680020106,-2617.9651453337,-10136.4580184105,-7758.2938420633,-10704.3974353182,-21894.0791230257,-13674.6904098570,-5314.9108107452,-7235.2410587355,-3847.1580460842,-24385.7435753373,2775.3421360417,6360.1403032295,9086.2276025319
560378305509,21785,5,0,363.0962408934,3846.0264502796,7645.9860003876,-2620.0579891873,-10142.0551589491,-7756.8702215351,-10710.2987682773,-21900.6131762197,-13680.9446060240,-5319.5832063252,-7243.9287942671,-3854.4221610875,-24394.2487954166,2765.7904940357,6352.0974556296,9078.4524442621
560378305509,21785,5,0,358.8862177927,3843.2643831008,7637.1887555846,-2627.7723089730,-10145.0484123675,-7774.6958973807,-10716.0297534809,-21902.3653245622,-13683.4633192664,-5324.7301420813,-7254.1253242047,-3855.1887259873,-24396.8161794462,2764.6223951407,6351.1727106710,9080.3627726633
560378305509,21785,5,0,361.0277324335,3843.5442401277,7628.0873183610,-2629.1959295013,-10140.3273460002,-7785.7563337927,-10712.0387489230,-21896.3909854221,-13675.5786517251,-5324.6814712940,-7249.9031334072,-3846.4158165780,-24391.2433743013,2770.2317033760,6358.2421425252,9090.4984641168
560378305509,21785,5,0,367.1602516323,3851.3802368817,7635.7164642690,-2621.8223052266,-10133.4039265080,-7773.6251400602,-10703.4361872692,-21890.8060125804,-13669.4948033136,-5317.0523253860,-7236.6890146575,-3841.1472038536,-24386.2424509071,2774.1618694498,6360.9920420071,9094.3191209192
560378334200,21786,5,0,369.1800893049,3855.2982352587,7646.7525652874,-2614.2661654996,-10131.9803059797,-7755.1180731926,-10701.2825049315,-21890.7208387026,-13672.1716966147,-5313.8035503343,-7232.3329791948,-3843.7510909737,-24388.0797731273,2772.7625843152,6357.9257824078,9088.7584834711
560378334200,21786,5,0,366.7587176371,3854.7020181144,7650.0135080360,-2614.3270039837,-10135.2047456378,-7752.9400554612,-10704.4582738023,-21893.4950735782,-13677.2091230994,-5315.2880093467,-7237.9422874302,-3847.6447539571,-24392.3384670154,2768.9662629064,6354.8230197179,9084.8039820037
560378334200,21786,5,0,361.1007386144,3848.5694989156,7642.3478590375,-2620.6907094221,-10138.5873653545,-7765.6309632476,-10708.9968247172,-21896.0381222142,-13678.0121910897,-5317.3443501098,-7245.7661164874,-3847.3892323238,-24393.0320257343,2769.4773061730,6354.9325289893,9086.9454966445
560378334200,21786,5,0,358.6671992499,3843.9579418197,7630.1679945178,-2628.6727185379,-10139.4026010417,-7782.1060247458,-10708.1085828492,-21893.8236013925,-13675.4569747569,-5318.4881136111,-7245.4497563700,-3841.9381041471,-24388.5056425161,2775.2569621639,6361.1502220658,9094.5503071588
560378334200,21786,5,0,362.0619866635,3848.4964927347,7631.0562363858,-2623.4284412072,-10134.6815346744,-7776.4602134200,-10702.7061254598,-21889.4553982330,-13671.8796718909,-5316.8698099337,-7236.3848222369,-3839.6627448412,-24384.9526750438,2777.7026692253,6364.2043139684,9095.0613504254
560378334200,21786,5,0,363.4734394949,3850.1391318058,7639.3181025286,-2620.6663740284,-10136.6405338629,-7760.5935367629,-10702.7912993375,-21892.1931300182,-13675.7003286933,-5314.0469042708,-7232.5398300408,-3844.9313575656,-24391.0365234553,2772.6530750438,6359.6900984471,9088.5272972315
560378334200,21786,5,0,361.7942973334,3848.3018095855,7644.6718891307,-2619.8633060381,-10140.9965693255,-7756.2496689971,-10707.7800550349,-21896.6343393586,-13680.5552397257,-5316.3100958798,-7238.4776660904,-3850.5893365882,-24395.6724159449,2765.9973448816,6354.8960258989,9082.3339395486
560378334200,21786,5,0,360.1151551718,3846.0386179764,7640.1211705189,-2622.7592178820,-10140.7653830859,-7765.0590814969,-10709.6295449520,-21898.3013138233,-13680.3848919701,-5317.8918964668,-7246.0581412111,-3847.1093752969,-24394.0784476610,2768.6864058795,6357.4269068380,9086.7508134953
560378365526,21787,5,0,359.6406149957,3844.4446496926,7632.8570555156,-2627.9183213349,-10136.0443167186,-7777.0442628675,-10706.9891547415,-21891.8402668103,-13671.7458272259,-5314.1320781485,-7243.6124341497,-3840.8186760394,-24386.7413264768,2775.2447944671,6363.5959291273,9096.1199400490
560378365526,21787,5,0,361.8794712111,3847.5960831698,7633.6357881123,-2625.1319187624,-10129.5345989183,-7773.3209476397,-10700.5402754253,-21886.7420018415,-13665.6376434207,-5310.0315643192,-7233.6835935422,-3836.8398391783,-24382.9450050681,2779.2236313282,6366.3944993965,9099.1131934674
560378365526,21787,5,0,365.2012524438,3850.8570259183,7638.9774070176,-2619.9484799159,-10129.3642511628,-7756.9310600192,-10698.9828102320,-21888.1412869761,-13668.4362136900,-5309.5448564463,-7229.4735704415,-3841.3540546996,-24386.9725127164,2775.0866144084,6360.6026757088,9092.6399787576
560378365526,21787,5,0,365.3107617152,3851.4532430627,7647.5556332777,-2615.5802767564,-10133.7932928063,-7748.3163306685,-10701.7692128044,-21891.4143974215,-13674.7877514316,-5309.3501732971,-7232.1261283489,-3846.0021148860,-24393.2267088834,2769.6354862317,6354.7743489306,9086.0694224732
560378365526,21787,5,0,362.0741543603,3847.7055924412,7643.6376349008,-2620.6542063316,-10137.3705956723,-7758.3546805475,-10705.8332235433,-21893.5072412751,-13676.7345829233,-5314.0104011803,-7240.2663175234,-3847.1945491746,-24395.0883664974,2768.0780210384,6353.7035916102,9087.5052106983
560378365526,21787,5,0,359.4824349370,3843.9944449102,7630.1558268209,-2625.8619805718,-10135.2047456378,-7776.9225858993,-10707.2325086779,-21890.5626586439,-13674.0333542286,-5318.0257411319,-7245.2550732208,-3842.4004766264,-24392.9711872502,2770.0613556205,6356.7333481191,9092.8833326941
560378365526,21787,5,0,359.8352981449,3845.7830963432,7626.5420208645,-2626.8353963177,-10132.7955416668,-7778.9424235719,-10703.8012181738,-21888.2872993380,-13670.6263991181,-5317.6363748335,-7237.9057843398,-3839.6627448412,-24390.5741509760,2769.7814985936,6357.4390745349,9094.4651332811
560378365526,21787,5,0,362.5121914459,3849.0197036981,7637.0914140100,-2621.3355973537,-10132.8685478478,-7762.4795297704,-10700.1630768238,-21888.1047838857,-13669.5069710104,-5312.6354514393,-7231.7124266569,-3839.5167324793,-24391.2190389077,2771.3632991806,6358.4489933712,9093.5038852321
560378398300,21788,5,0,365.7731341945,3852.9985405592,7646.1076773558,-2615.0205627026,-10131.8099582242,-7748.3771691526,-10699.6885366477,-21889.5284044140,-13671.3564609275,-5312.1609112632,-7230.4713215809,-3842.0962842058,-24391.7787529615,2770.0005171364,6356.6238388477,9089.0991789822
560378398300,21788,5,0,364.2521720916,3850.3094795613,7644.0026658054,-2617.5879467322,-10132.4183430653,-7753.7796265420,-10702.0247344377,-21890.3558077979,-13672.6827398812,-5313.9373949993,-7238.3803245159,-3841.8164271789,-24392.1681192598,2769.7693308968,6357.2930621730,9089.7684023074
560378398300,21788,5,0,360.8087138907,3845.8317671305,7635.8259735404,-2623.4162735104,-10129.6197727960,-7769.4272846563,-10701.7327097139,-21888.5184855777,-13668.3875429027,-5313.8887242121,-7241.3735779343,-3838.3729689780,-24388.7489964526,2775.5124837972,6361.1867251563,9096.6553187092
560378398300,21788,5,0,363.6681226441,3847.5839154730,7629.4987711925,-2624.2193415007,-10124.0834707416,-7771.6053023876,-10697.6565312783,-21884.5031456261,-13662.2671914008,-5312.8666376789,-7234.9246986181,-3834.5766475692,-24381.5700553271,2781.2191336071,6365.8469530395,9101.7292482844
560378398300,21788,5,0,365.5297802580,3849.2022191504,7638.3446867828,-2618.7073748399,-10123.5237566877,-7757.1379108652,-10695.3081657914,-21885.8659276703,-13664.3722029512,-5310.9076384904,-7228.4636516052,-3839.6627448412,-24383.1031851268,2779.2723021155,6363.2430659194,9097.3853805186
560378398300,21788,5,0,367.5374502338,3851.4897461531,7650.7314021485,-2614.6311964042,-10127.0767241600,-7746.1748160277,-10699.1774933811,-21892.0592853531,-13668.6673999297,-5312.2217497473,-7231.9557805933,-3847.7785986221,-24389.1870335382,2771.8621747503,6356.5751680604,9087.5417137888
560378398300,21788,5,0,365.3350971088,3847.8029340158,7648.8210737473,-2617.5636113386,-10133.1484048747,-7753.3659248500,-10706.5997884431,-21896.6708424490,-13675.4934778473,-5316.1762512148,-7241.7142734453,-3850.9787028866,-24392.5331501645,2766.3015373022,6352.1704618105,9083.1126721453
560378398300,21788,5,0,362.6460361110,3845.8682702209,7636.5682030466,-2623.9516521706,-10133.8784666841,-7771.8729917177,-10709.2401786537,-21894.3589800527,-13673.3154601160,-5318.5002813079,-7246.9828861697,-3848.7033435807,-24392.0464422916,2769.3677969016,6357.1713852047,9091.3136998039
560378425554,21789,5,0,361.3197571573,3845.3572269544,7629.9733113686,-2626.9692409827,-10131.7126166496,-7780.6215657334,-10706.8918131669,-21892.6555024975,-13670.3343743944,-5315.6165371609,-7240.2541498266,-3844.1526249689,-24388.9436796018,2772.9085966771,6359.5319183884,9097.7017406360
560378425554,21789,5,0,363.3274271330,3848.9101944267,7635.4487749389,-2621.6276220774,-10130.7635362974,-7766.5313728125,-10703.0833240613,-21890.7086710058,-13671.0279331133,-5312.6962899234,-7233.2577241534,-3843.6294140055,-24389.2722074160,2772.5070626819,6358.9600366377,9094.9640088508
560378425554,21789,5,0,367.2210901164,3853.5582546130,7647.6286394587,-2613.6699483552,-10128.0258045122,-7747.0143871085,-10699.5060211953,-21889.7230875631,-13670.5655606340,-5307.5128510768,-7229.0842041431,-3843.5077370373,-24390.0387723158,2771.9716840217,6358.7896888822,9091.9099169483
560378425554,21789,5,0,366.4666929134,3850.7840197374,7652.8607490925,-2613.2319112696,-10127.3809165806,-7745.5177603993,-10700.8444678459,-21888.6036594554,-13670.7237406927,-5304.5926038393,-7233.4402396057,-3843.6415817023,-24390.1239461936,2772.9572674644,6359.4832476011,9093.3943759607
560378425554,21789,5,0,366.0651589182,3849.0927098790,7643.5281256294,-2620.0823245809,-10127.4782581552,-7761.0559092421,-10702.0247344377,-21887.8249268587,-13668.9959277439,-5308.3767575513,-7239.3050694744,-3841.2080423377,-24387.5443944671,2774.8919312592,6362.8780350147,9098.2371192962
560378425554,21789,5,0,365.5784510453,3847.4865738984,7632.3581799459,-2624.2315091975,-10128.0866429963,-7773.1749352778,-10702.8886409121,-21886.9610203843,-13667.7183195775,-5312.1487435664,-7237.6015919192,-3840.1494527141,-24386.3762955721,2776.5832411176,6363.7906122764,9101.0721926559
560378425554,21789,5,0,365.6757926199,3848.7520143680,7636.9088985577,-2621.7492990457,-10130.9582194466,-7766.1906773014,-10702.4262684329,-21889.4310628394,-13669.7138218564,-5311.1874955174,-7231.9192775029,-3844.2986373308,-24388.4691394257,2775.7436700368,6361.3084021245,9097.3853805186
560378425554,21789,5,0,366.1259974023,3849.5550823583,7645.6939756638,-2617.9651453337,-10133.7202866254,-7753.3537571532,-10705.5411988195,-21895.1620480430,-13675.5421486346,-5313.6088671851,-7235.7034312148,-3850.7231812533,-24392.8495102819,2771.7770008725,6356.4778264858,9089.2330236472
560378456944,21790,5,0,361.9281419984,3844.3959789053,7645.0612554290,-2621.5181128060,-10139.3782656480,-7755.9819796670,-10711.9779104389,-21901.6595981464,-13681.0176122049,-5320.3984420123,-7245.3159117049,-3857.2937375377,-24395.9644406686,2768.9419275128,6353.9834486371,9084.0009140133
560378456944,21790,5,0,360.2246644432,3842.2301288709,7640.4496983331,-2626.7988932272,-10137.5044403373,-7771.0455883338,-10712.0630843166,-21900.8200270656,-13677.9270172119,-5319.8387279585,-7251.3632570259,-3852.9863728623,-24391.4015543600,2771.6796592980,6357.9987885887,9090.0847624248
560378456944,21790,5,0,362.5121914459,3844.2134634530,7634.7187131295,-2627.2612657065,-10131.1163995053,-7778.6260634545,-10706.1495836607,-21892.9718626149,-13669.3122878613,-5318.8531445158,-7248.2483266393,-3846.4036488811,-24382.8598311903,2778.5179049125,6364.5815125699,9095.6453998729
560378456944,21790,5,0,368.1823381654,3850.5284981041,7638.1256682400,-2620.0701568841,-10125.9451283555,-7767.8454840693,-10699.5911950731,-21889.9664414996,-13665.6741465112,-5314.9959846229,-7238.5020014841,-3844.7245067196,-24380.0369255274,2782.4845740767,6365.1533943206,9094.1487731637
560378456944,21790,5,0,370.2995174126,3854.9332043540,7648.6507259918,-2614.8502149471,-10124.8378679446,-7750.9688885759,-10699.3721765303,-21893.3247258227,-13668.0346796949,-5313.7305441534,-7234.9003632245,-3848.3748157664,-24383.5290545156,2779.1506251472,6360.7365203739,9087.4443722142
560378456944,21790,5,0,366.4910283070,3850.1269641090,7650.7922406326,-2617.8069652750,-10130.1794868499,-7750.9202177886,-10703.9837336262,-21897.5225812266,-13673.2789570256,-5319.6562125061,-7242.5538445261,-3853.1688883147,-24385.8895876992,2773.8576770293,6354.8230197179,9080.4114434506
560378456944,21790,5,0,362.6460361110,3844.6515005386,7640.5348722109,-2624.3653538626,-10132.0289767670,-7768.3930304264,-10707.8895643064,-21897.8754444345,-13674.6782421602,-5327.4922092601,-7252.6286974955,-3851.3072307008,-24385.3177059485,2772.2272056550,6355.7112615860,9084.1590940720
560378456944,21790,5,0,359.9083043258,3841.7555886948,7631.2874226255,-2629.7556435552,-10132.1749891289,-7785.7319983991,-10709.7390542234,-21897.3157303806,-13672.0986904337,-5330.3151149230,-7253.1884115494,-3847.1945491746,-24385.5610598850,2773.9428509070,6357.9622854982,9089.8900792756
560378489460,21791,5,0,362.9623962284,3845.8804379177,7634.2198375598,-2627.1882595255,-10131.8707967083,-7779.9523424082,-10707.2081732843,-21897.1088795347,-13671.9648457687,-5328.4656250059,-7246.7273645364,-3848.8006851553,-24387.2036989561,2774.0888632689,6358.4368256743,9089.8657438820
560378489460,21791,5,0,369.2165923954,3851.4532430627,7645.4627894242,-2616.5293571086,-10131.0920641116,-7760.0946611931,-10704.5556153769,-21896.8168548109,-13672.8895907272,-5323.8540679100,-7241.1058886042,-3850.1512995026,-24388.5421456066,2772.7990874057,6358.2664779188,9085.1081744242
560378489460,21791,5,0,369.7398033587,3852.8160251068,7653.0432645449,-2613.9619730790,-10132.1019829479,-7753.1347386104,-10706.2104221448,-21899.5545865961,-13673.6074848398,-5321.6760501787,-7243.2230678514,-3853.3270683734,-24390.5133124919,2770.1221941046,6357.1470498111,9082.8328151183
560378489460,21791,5,0,367.0994131482,3850.1269641090,7648.1031796348,-2617.6609529132,-10133.9271374714,-7765.8499817904,-10708.6439615094,-21899.2503941755,-13674.2888758619,-5322.4426150786,-7249.7814564389,-3851.1855537325,-24391.1460327267,2769.7693308968,6358.8140242758,9087.4687076079
560378489460,21791,5,0,364.6902091772,3845.8561025241,7635.3027625770,-2624.5235339213,-10134.1948268015,-7780.6824042176,-10708.5222845411,-21894.7240109574,-13670.4317159690,-5323.7080555482,-7248.9905561455,-3845.4789039226,-24387.7634130099,2773.2979629754,6362.5981779878,9094.3799594033
560378489460,21791,5,0,365.2620909279,3846.4644873652,7636.7020477117,-2623.7569690215,-10134.0001436523,-7778.1028524911,-10704.5921184673,-21891.2440496660,-13671.2226162625,-5320.0577465013,-7241.6412672644,-3844.9921960497,-24387.8485868877,2774.5025649609,6365.0438850492,9097.3488774281
560378489460,21791,5,0,365.7853018913,3846.7443443922,7645.7791495416,-2619.5104428302,-10137.1637448263,-7760.8003876089,-10704.8476401006,-21895.4662404636,-13675.4569747569,-5317.3686855034,-7236.1658036941,-3849.2265545441,-24390.8661756998,2771.3389637869,6362.9388734988,9093.1753574178
560378489460,21791,5,0,363.8506380964,3844.4689850863,7648.3587012681,-2618.9263933827,-10141.4102710175,-7755.7872965178,-10710.5299545169,-21899.6397604738,-13681.8085124984,-5319.9117341394,-7241.4344164184,-3853.8989501241,-24395.2952173433,2768.9905983001,6359.8482785058,9088.9896697107
560378521918,21792,5,0,361.9038066048,3841.1228684600,7642.2505174629,-2625.3387696084,-10145.3161016976,-7767.4804531647,-10716.9666661363,-21902.7425231637,-13683.4389838727,-5322.9293229515,-7249.7936241358,-3855.5780922856,-24396.2199623019,2767.8224994051,6360.2619801978,9091.0095073834
560378521918,21792,5,0,357.4991003549,3836.8763422688,7632.9178939997,-2631.6294688659,-10144.0263258344,-7782.9699312203,-10716.1149273587,-21900.1629714372,-13680.1780411242,-5322.3939442913,-7250.0734811627,-3852.2319756593,-24391.6814113869,2773.1154475231,6364.4841709953,9097.2880389440
560378521918,21792,5,0,358.1926590738,3840.7213344648,7631.5672796524,-2629.3662772568,-10139.3174271639,-7778.8937527846,-10710.8098115439,-21897.1940534124,-13675.5056455441,-5319.9117341394,-7243.7827819052,-3849.4212376932,-24387.1185250783,2776.8144273572,6367.3435797487,9097.6043990614
560378521918,21792,5,0,360.1151551718,3843.0696999516,7642.9197407882,-2623.5987889628,-10139.9744827924,-7762.1510019562,-10709.4713648933,-21901.0268779116,-13676.8440921947,-5318.1960888874,-7238.2343121540,-3854.2274779383,-24389.7102445016,2775.3664714353,6364.3016555430,9089.2451913440
560378521918,21792,5,0,357.1705725406,3840.1859558046,7648.3100304808,-2622.6983793979,-10144.0019904408,-7753.6092787865,-10713.7057233877,-21907.0742232326,-13681.2487984446,-5317.5146978653,-7241.8116150199,-3860.3721648339,-24391.7544175679,2773.2249567945,6361.1623897627,9084.6823050354
560378521918,21792,5,0,355.5035980759,3835.2458708945,7642.1166727979,-2628.1860106650,-10145.0605800644,-7762.9662376433,-10717.1248461950,-21906.7821985089,-13681.2244630509,-5321.1285038217,-7250.0004749818,-3858.8268673374,-24388.2014500956,2774.1497017530,6362.4643333227,9085.4001991480
560378521918,21792,5,0,353.5567665842,3831.7537419063,7631.4699380778,-2633.3572818148,-10142.3958544601,-7780.6945719144,-10713.8152326591,-21900.6253439165,-13675.1162792458,-5322.5764597436,-7248.7228668154,-3852.5848388672,-24382.3366202269,2782.6914249227,6371.9916399351,9098.9793488024
560378521918,21792,5,0,357.7181188977,3838.4581428558,7632.9178939997,-2630.5100407582,-10139.1105763179,-7782.7995834647,-10709.3375202283,-21897.1210472315,-13672.7922491526,-5320.6782990393,-7241.5925964771,-3849.0927098790,-24380.5966395812,2784.6139210207,6373.7072851871,9104.0776137712
560378550916,21793,5,0,360.4193475924,3841.6339117265,7639.7926427047,-2625.5577881512,-10140.3151783034,-7770.3885327053,-10707.7678873381,-21898.5690031534,-13676.1261980821,-5323.0875030102,-7238.2951506381,-3851.9642863292,-24385.8895876992,2779.2966375091,6368.5603494310,9098.0424361470
560378550916,21793,5,0,359.1539071228,3841.9137687535,7644.6353860402,-2624.0124906547,-10144.3670213454,-7761.5547848119,-10711.4790348691,-21902.4991692272,-13683.8648532615,-5327.6138862283,-7243.0283847022,-3859.0337181833,-24393.7742552405,2770.6575727648,6361.3084021245,9090.6931472660
560378550916,21793,5,0,353.0335556208,3836.2192866403,7641.8003126805,-2628.2711845428,-10149.9276587935,-7771.3254453607,-10716.3217782047,-21906.9768816581,-13688.4155718733,-5332.5174680480,-7252.4583497400,-3861.9052946336,-24398.6656693633,2764.7562398057,6357.4269068380,9089.3912037059
560378550916,21793,5,0,350.2714884420,3831.6320649381,7627.1260703120,-2635.6083057270,-10150.2805220014,-7789.8203445316,-10717.1005108013,-21901.8786166892,-13685.0207844597,-5336.7639942392,-7256.1329941805,-3857.9021223788,-24395.1978757688,2768.6864058795,6360.7243526770,9095.0005119413
560378550916,21793,5,0,354.7248654792,3837.6915779559,7626.9070517692,-2630.4370345772,-10142.5418668220,-7789.1876242968,-10709.8120604044,-21896.9506994760,-13676.6250736519,-5331.5075492117,-7247.2627431966,-3850.5406658009,-24388.6759902717,2775.4881484035,6364.6666864477,9099.0523549833
560378550916,21793,5,0,360.6383661352,3845.6614193749,7639.2815994381,-2621.6884605616,-10137.2367510072,-7768.9527444802,-10703.5700319342,-21893.8844398766,-13673.4128016906,-5322.2600996262,-7237.2730641050,-3849.6524239329,-24383.8332469361,2774.6850804132,6367.0637227218,9103.1285334190
560378550916,21793,5,0,366.8073884244,3850.5893365882,7650.2690296693,-2613.2440789664,-10135.2169133346,-7750.5795222776,-10701.3068403251,-21893.8966075734,-13672.5610629130,-5317.2226731415,-7234.8760278308,-3850.8448582215,-24387.4470528925,2774.9527697433,6364.4841709953,9098.2614546898
560378550916,21793,5,0,366.2963451578,3849.3603992091,7650.8165760263,-2613.2440789664,-10136.6648692565,-7752.6236953438,-10703.7038765993,-21894.2859738717,-13674.6539067665,-5319.3885231760,-7242.6390184039,-3851.0395413707,-24389.8684245603,2772.0446902026,6362.4521656259,9097.6165667582
560378639642,21794,5,0,363.8506380964,3842.5829920787,7639.3911087096,-2621.3234296569,-10137.0055647676,-7770.5832158545,-10706.8918131669,-21893.9574460575,-13672.7192429717,-5321.2136776995,-7248.4916805757,-3848.8250205489,-24390.0996107999,2771.7526654789,6362.9267058020,9102.0577760986
560378639642,21794,5,0,362.3175082967,3842.8871844993,7631.0440686890,-2623.9394844738,-10137.6139496087,-7779.3682929607,-10707.4636949176,-21894.0912907226,-13673.3762986001,-5323.4281985212,-7247.1532339252,-3849.0197036981,-24390.0022692254,2772.2637087455,6363.5837614304,9104.2966323140
560378639642,21794,5,0,363.2544209521,3845.2963884702,7634.0251544106,-2620.6907094221,-10137.6626203960,-7767.0910868663,-10704.4217707118,-21895.2107188303,-13674.3010435587,-5320.6904667361,-7239.3050694744,-3850.8205228279,-24389.8075860762,2773.6629938801,6364.0461339097,9101.9482668272
560378639642,21794,5,0,363.6194518568,3845.3450592575,7647.8598256983,-2616.6023632896,-10137.4922726405,-7749.2775787175,-10704.1784167754,-21898.0457921900,-13675.6881609965,-5313.8400534248,-7235.3262326133,-3854.0814655764,-24391.6449082965,2774.3200495085,6363.3525751908,9098.5291440199
560378639642,21794,5,0,361.6726203651,3842.5708243819,7647.8841610920,-2618.9993995637,-10138.6238684450,-7749.7277835000,-10707.2690117684,-21899.5180835056,-13675.6029871187,-5312.8666376789,-7240.1081374647,-3853.6799315813,-24389.4790582620,2775.9748562765,6365.8469530395,9098.9550134087
560378639642,21794,5,0,357.6572804136,3837.3265470512,7637.4321095211,-2627.2977687969,-10137.8938066356,-7765.1929261619,-10708.2545952110,-21896.7316809331,-13672.0743550401,-5315.9694003688,-7243.9166265703,-3849.4577407837,-24386.2424509071,2778.5909110934,6369.0348896071,9102.7635025143
560378639642,21794,5,0,355.5157657727,3836.1462804594,7630.9223917208,-2630.3031899122,-10136.8960554962,-7773.4912953952,-10705.4803603354,-21894.5536632018,-13666.7814069221,-5313.4020163391,-7237.9666228239,-3845.8561025241,-24382.2514463491,2779.8685192598,6369.7406160228,9105.4160604217
560378639642,21794,5,0,358.8497147022,3841.0376945822,7636.7385508021,-2623.0390749089,-10134.9492240045,-7761.2140893008,-10699.3721765303,-21892.2174654118,-13666.1000159000,-5309.8125457764,-7229.0111979622,-3844.3716435117,-24383.2857005791,2781.0852889421,6370.0691438371,9104.8563463679
560378650782,21795,5,0,365.7001280135,3847.9367786808,7651.6439794103,-2612.0516446778,-10131.6761135591,-7742.2811530443,-10694.1644022901,-21890.3679754947,-13664.8102400368,-5305.2618271646,-7222.8786787634,-3844.9556929592,-24383.5412222124,2781.9856985070,6370.9452180083,9100.1717830910
560378650782,21795,5,0,367.4279409624,3848.3991511601,7657.1559460710,-2610.5671856654,-10131.7491197401,-7741.5997620223,-10694.5902716789,-21890.4288139789,-13666.4528791079,-5303.5461819126,-7226.9061864118,-3845.6005808908,-24384.9283396502,2780.7810965215,6370.0691438371,9100.4394724211
560378650782,21795,5,0,363.5951164632,3844.2621342403,7649.8066571900,-2617.1742450402,-10133.4160942048,-7758.9022269045,-10697.9972267893,-21891.0006957295,-13666.5988914698,-5307.5858572578,-7235.3262326133,-3844.3594758149,-24384.3807932932,2780.4525687073,6371.1885719448,9104.8441786710
560378650782,21795,5,0,362.9137254411,3843.2157123135,7638.2838482987,-2622.0048206789,-10132.5886908208,-7772.1406810478,-10697.5226866132,-21889.7595906536,-13662.7782346674,-5312.8909730726,-7234.0486244469,-3841.8042594821,-24382.0445955032,2783.9812007860,6372.8433787127,9108.8351832290
560378650782,21795,5,0,366.4180221261,3845.4424008321,7642.8223992136,-2620.2891754269,-10132.2723307034,-7764.6088767144,-10696.3180846277,-21890.9276895486,-13662.5713838214,-5311.2361663047,-7227.6119128275,-3842.6681659565,-24382.2636140460,2783.7135114558,6372.5635216858,9108.2389660846
560378650782,21795,5,0,367.7808041702,3849.7862685979,7655.4159654254,-2613.4509298124,-10133.6959512317,-7748.6570261796,-10696.6101093515,-21894.0912907226,-13665.5768049366,-5309.6300303240,-7224.9958580106,-3847.5474123825,-24384.7093211074,2782.0587046879,6369.3025789372,9103.9559368030
560378650782,21795,5,0,363.8506380964,3844.9435252624,7654.3452081049,-2615.2395812454,-10137.4436018532,-7749.8616281650,-10701.5623619584,-21897.4860781362,-13669.5069710104,-5313.4141840360,-7231.6637558696,-3850.8813613120,-24387.0576865942,2780.3673948295,6367.9762999835,9101.1208634432
560378650782,21795,5,0,357.2557464184,3838.2999627971,7642.3356913407,-2624.5357016181,-10141.6049541666,-7766.3610250570,-10707.2446763747,-21899.5667542929,-13669.7868280374,-5318.7679706381,-7240.6921869122,-3850.2973118645,-24385.8287492151,2781.6328352991,6368.0979769517,9103.7369182602
560378660782,21796,5,0,351.7924505449,3833.2138655251,7629.4622681020,-2633.3572818148,-10142.4201898538,-7784.3570486581,-10708.4492783602,-21898.7150155153,-13668.7039030201,-5320.9703237630,-7242.2861551960,-3848.2774741919,-24383.7480730584,2785.0276227127,6370.0691438371,9107.5575750626
560378660782,21796,5,0,351.0380533419,3835.1850324104,7627.9048029087,-2632.8462385482,-10143.3571025091,-7779.7454915622,-10706.6241238368,-21898.5811708502,-13670.6507345118,-5321.8220625406,-7237.4920826478,-3848.8980267298,-24382.3731233174,2785.6481752507,6368.5481817342,9105.1240356980
560378660782,21796,5,0,353.8122882175,3839.3828878143,7639.9143196729,-2625.7889743909,-10145.0240769739,-7762.1144988657,-10707.4271918271,-21901.5379211782,-13674.0090188349,-5319.2668462078,-7234.7178477721,-3853.7529377622,-24385.3420413422,2781.8640215388,6363.0483827702,9098.2614546898
560378660782,21796,5,0,352.7902016844,3838.1174473447,7646.1076773558,-2625.2049249434,-10146.1435050816,-7755.1302408894,-10708.9603216268,-21904.4703361125,-13676.1992042631,-5318.9748214840,-7239.5849265013,-3857.9994639534,-24389.1505304478,2777.4958183793,6359.3980737233,9091.1920228357
560378660782,21796,5,0,354.4085053618,3837.4360563226,7641.4961202599,-2626.6528808653,-10143.8316426852,-7765.0712491937,-10710.1527559154,-21903.4969203667,-13674.8850930062,-5321.5057024232,-7246.4110044190,-3854.7750242953,-24388.7976672399,2778.6274141839,6361.5274206674,9094.1974439510
560378660782,21796,5,0,355.0412255966,3837.8010872273,7635.1810856088,-2630.2666868217,-10139.2200855893,-7776.8617474151,-10707.2081732843,-21898.0701275837,-13669.6408156755,-5319.9969080172,-7244.4763406241,-3849.5429146615,-24383.4073775473,2781.6206676023,6363.9852954256,9101.5710682257
560378660782,21796,5,0,358.2169944674,3841.3905577901,7637.6632957607,-2625.6064589385,-10137.9303097261,-7772.4692088621,-10702.1342437091,-21895.6365882191,-13667.8278288489,-5317.0766607797,-7235.9102820608,-3846.7808474826,-24382.0932662905,2781.1704628199,6362.5495072005,9102.2037884605
560378660782,21796,5,0,362.0376512698,3845.5519101035,7649.0522599870,-2617.9043068496,-10137.5287757310,-7753.1104032168,-10700.0657352492,-21896.0502899111,-13671.2226162625,-5315.8963941878,-7231.8949421092,-3849.5429146615,-24386.3032893912,2778.5787433966,6360.0672970486,9097.3002066408
560378678245,21797,5,0,359.9448074163,3843.7024201864,7651.6926501975,-2617.3932635831,-10140.3516813939,-7746.6980269911,-10702.7304608534,-21899.0435433295,-13675.2744593045,-5316.0180711561,-7235.7764373957,-3854.0449624859,-24390.3794678269,2773.7603354547,6357.3417329603,9092.7494880290
560378678245,21797,5,0,358.6915346435,3841.7799240884,7647.9206641824,-2621.3599327473,-10141.3737679270,-7757.2352524397,-10704.9328139784,-21898.2161399455,-13673.1329446637,-5316.4439405449,-7241.5925964771,-3850.9421997961,-24389.7589152889,2774.4173910831,6359.7509369312,9096.2659524109
560378678245,21797,5,0,359.5676088148,3840.6361605871,7638.5028668415,-2625.0832479752,-10136.8230493152,-7772.0798425637,-10701.5136911711,-21893.8722721797,-13667.1707732204,-5317.1253315670,-7240.3636590980,-3844.6515005386,-24384.5146379582,2781.9978662038,6366.8690395726,9105.6959174486
560378678245,21797,5,0,363.9236442774,3844.5784943577,7637.5416187925,-2621.6519574711,-10131.5787719845,-7768.6728874533,-10696.2815815373,-21889.9907768932,-13663.1067624816,-5312.3069236251,-7231.4325696300,-3841.4513962742,-24381.3510367843,2785.2953120428,6369.8257899006,9108.6405000798
560378678245,21797,5,0,365.2864263215,3846.9390275413,7650.0013403392,-2615.3247551232,-10130.6418593292,-7749.7764542873,-10694.4685947107,-21893.0083657053,-13663.6056380513,-5307.2573294435,-7224.8863487392,-3844.0917864848,-24383.9184208139,2784.1393808447,6364.9343757778,9102.1307822795
560378678245,21797,5,0,364.1548305170,3845.4302331353,7654.4912204668,-2615.7019537247,-10132.9172186351,-7741.4050788731,-10697.8633821243,-21897.0358733537,-13667.8886673330,-5308.3159190671,-7229.4248996542,-3850.4554919232,-24385.6949045500,2781.5963322087,6365.3724128634,9100.0379384260
560378678245,21797,5,0,360.8817200716,3841.5609055456,7648.2248566030,-2622.0899945567,-10136.5918630756,-7752.7088692216,-10704.2270875627,-21901.3189026354,-13671.0035977197,-5311.2361663047,-7238.2951506381,-3852.2076402657,-24385.4880537041,2780.8662703993,6362.6590164719,9101.3033788956
560378678245,21797,5,0,355.5279334695,3836.5843175450,7637.4807803083,-2628.3320230269,-10137.1880802199,-7772.6152212239,-10705.8697266337,-21900.8686978529,-13668.3997105996,-5312.6962899234,-7240.3271560075,-3848.9345298203,-24381.1685213319,2782.9226111624,6363.2552336162,9107.4724011848
560378708113,21798,5,0,358.8010439149,3839.0908630905,7634.3658499217,-2626.2270114765,-10135.5819442393,-7773.3817861238,-10702.3167591614,-21895.8069359746,-13666.3433698365,-5311.9418927204,-7233.4767426962,-3844.9800283528,-24379.7570685004,2786.4999140283,6367.0393873282,9111.2565548967
560378708113,21798,5,0,360.5653599542,3843.3495569786,7646.6917268033,-2619.3887658620,-10136.4458507137,-7756.7850476573,-10699.1896610780,-21897.1697180188,-13669.7016541596,-5309.7517072923,-7226.5654909008,-3847.0120337223,-24382.2757817428,2783.8108530304,6364.0096308192,9105.2700480598
560378708113,21798,5,0,357.6572804136,3842.1936257804,7653.8950033225,-2618.6465363558,-10141.5441156825,-7747.7444489178,-10702.9251440026,-21902.1949768066,-13674.5443974951,-5310.1410735906,-7229.2302165050,-3851.8426093610,-24389.1261950541,2779.8076807757,6361.3327375182,9100.9383479909
560378708113,21798,5,0,357.0245601788,3840.5509867093,7650.9017499041,-2621.7249636520,-10142.7487176680,-7756.0306504543,-10707.9260673968,-21903.3387403080,-13677.0996138280,-5314.3510966913,-7239.8161127410,-3853.5947577035,-24390.2821262523,2779.0897866631,6361.9046192689,9100.6828263576
560378708113,21798,5,0,354.6153562078,3837.7280810464,7639.5127856778,-2626.8840671049,-10141.6657926508,-7773.5399661825,-10709.6903834362,-21900.9782071243,-13674.6052359793,-5317.9162318604,-7244.2938251718,-3849.8106039916,-24386.7778295673,2781.9248600229,6365.0317173524,9106.1461222311
560378708113,21798,5,0,357.6937835040,3839.7965895063,7637.1887555846,-2626.5068685034,-10138.5751976577,-7776.3263687549,-10705.8940620274,-21896.7681840236,-13669.4826356168,-5316.9549838114,-7236.7133500511,-3847.4622385047,-24384.7701595915,2782.9834496465,6367.4044182328,9109.2123818305
560378708113,21798,5,0,361.0033970399,3844.2986373308,7645.7669818448,-2619.6564551921,-10137.6139496087,-7761.8711449293,-10702.6574546725,-21896.7316809331,-13670.7359083896,-5316.5656175131,-7231.5420789014,-3848.9953683044,-24387.0820219879,2779.2357990250,6364.2529847557,9102.0212730081
560378708113,21798,5,0,362.5486945364,3846.0994564606,7653.0554322417,-2616.5293571086,-10140.3638490907,-7748.8517093287,-10703.4848580565,-21899.8709467135,-13676.2113719599,-5318.3907720365,-7234.3163137770,-3854.2639810288,-24391.9247653234,2774.5877388386,6360.8581973421,9095.7670768411
560378756957,21799,5,0,361.9889804825,3845.1868791988,7652.7634075180,-2617.9043068496,-10143.5274502647,-7755.6534518528,-10707.4028564334,-21902.5965108018,-13678.3285512071,-5321.8463979343,-7242.9675462181,-3857.4154145059,-24393.7377521500,2771.9108455376,6356.9645343588,9093.4795498384
560378756957,21799,5,0,360.1638259591,3840.8795145235,7642.6033806708,-2625.8619805718,-10141.6171218635,-7773.1019290969,-10707.8530612159,-21900.6253439165,-13675.4934778473,-5325.5940485557,-7246.3988367222,-3852.1102986911,-24389.6372383207,2776.0600301542,6360.4323279533,9100.5246462989
560378756957,21799,5,0,358.2656652547,3839.3220493302,7633.6114527187,-2626.5555392907,-10135.8496335694,-7776.1681886962,-10702.0977406186,-21895.1985511334,-13667.6696487902,-5323.3795277339,-7240.8990377582,-3846.4888227589,-24382.7016511316,2783.1903004925,6366.9420457536,9108.4214815370
560378756957,21799,5,0,358.7888762181,3840.4901482252,7637.9309850908,-2622.8322240629,-10134.3165037697,-7761.6642940833,-10698.9706425351,-21895.6852590064,-13666.7935746189,-5319.1451692396,-7233.3428980312,-3848.8493559425,-24384.4659671709,2782.6914249227,6365.3480774698,9106.8153455564
560378756957,21799,5,0,361.1007386144,3841.0498622790,7647.1906023731,-2619.4617720430,-10139.8771412178,-7751.0905655442,-10704.8841431911,-21903.9106220587,-13674.6052359793,-5321.3718577582,-7237.7841073715,-3858.1211409216,-24391.7909206583,2774.9162666529,6357.3539006571,9097.2637035503
560378756957,21799,5,0,365.9313142532,3844.1282895752,7647.4461240063,-2620.3135108206,-10145.2187601230,-7757.8679726745,-10713.4867048449,-21909.4834272036,-13681.4921523810,-5328.0275879203,-7249.6719471675,-3863.5722690983,-24398.0694522190,2769.1001075715,6352.6206665930,9091.8734138578
