timestamp,sequence,battery,flags,EEG-ch1,EEG-ch2,EEG-ch3,EEG-ch4,EEG-ch5,EEG-ch6,EEG-ch7,EEG-ch8,EEG-ch9,EEG-ch10,EEG-ch11,EEG-ch12,EEG-ch13,EEG-ch14,EEG-ch15,EEG-ch16
560564779056,26282,-2,0,1951.3092041016,4992.4668449372,9971.0503477995,-2006.6235538587,-9459.1796778519,-7036.1653710154,-9820.4994350092,-22318.8290837210,-12782.2750217720,-5407.2149588440,-7267.1690951989,-3051.3541707733,-24790.7088609985,4872.6393666249,7649.9526695519,10783.8038247847
560564779056,26282,-2,0,1949.6300619400,4992.2478263944,9963.5307111629,-2009.7384842453,-9457.4883679935,-7047.6760122099,-9821.0348136694,-22316.2860350850,-12778.4787003632,-5407.1054495726,-7271.0992612727,-3047.0589737948,-24788.0806384847,4875.5474461656,7653.1892769068,10791.3964676022
560564779056,26282,-2,0,1949.2528633385,4991.1649013772,9956.4004408246,-2012.5248868178,-9452.3779353279,-7054.4777547339,-9818.2240757033,-22312.5748875540,-12772.5408643136,-5402.6034017481,-7267.3394429545,-3041.1941439261,-24785.0630496726,4876.6668742733,7655.9878471760,10798.5267379405
560564779056,26282,-2,0,1950.8589993191,4993.9026331623,9959.4910358177,-2008.4852114726,-9451.5140288535,-7044.3177278867,-9814.5981020501,-22312.9155830650,-12772.6747089787,-5400.2428685645,-7260.3916880686,-3042.2162304593,-24787.5817629150,4874.6957073880,7654.5277235573,10795.3631367665
560564779056,26282,-2,0,1949.2771987321,4994.8030427272,9966.3292814322,-2004.9687470907,-9453.6555434943,-7030.3735473277,-9814.5494312628,-22316.6632336865,-12776.1546702700,-5397.8945030776,-7257.4714408310,-3048.1418988120,-24793.8602944756,4869.1837407272,7650.3298681534,10790.6907411865
560564779056,26282,-2,0,1947.0991810008,4990.8728766534,9969.9917581759,-2007.1954356093,-9455.4806980178,-7028.1346911122,-9818.3092495811,-22319.4253008653,-12777.8946509157,-5396.3248701875,-7260.9027313351,-3051.6218601034,-24796.1234860847,4867.8209586830,7648.7967383537,10789.8146670152
560564779056,26282,-2,0,1945.8580759249,4988.0743063841,9962.5207923266,-2012.2206943972,-9452.9133139881,-7040.2172140574,-9820.3777580410,-22317.4784693737,-12773.7454662991,-5395.7286530432,-7268.5318772431,-3048.0810603279,-24791.8647921967,4871.0453983411,7651.5344701388,10794.2558763556
560564779056,26282,-2,0,1949.5935588495,4989.3154114601,9957.0088256658,-2013.0846008716,-9446.6712855179,-7047.0554596719,-9816.4232565735,-22312.4288751921,-12765.8851341515,-5391.0805928568,-7263.9568232377,-3041.9728765228,-24785.1847266409,4878.3581841317,7656.0365179633,10801.4104820875
560564889939,26286,-2,0,1945.5782188980,4981.8931163981,9950.9128095575,-2027.7223401496,-9460.0679197200,-7061.8148759181,-9838.2399369770,-22331.8850224120,-12777.7243031602,-5404.9761026286,-7279.8965060757,-3058.6547888670,-24785.6227637265,4874.8173843562,7651.7048178944,10806.2775608167
560564889939,26286,-2,0,1948.6444784973,4985.6772701100,9949.8663876307,-2025.4104777533,-9455.6267103796,-7063.0438132973,-9834.3584416905,-22329.6583338934,-12772.1271626216,-5402.2140354498,-7272.5228818010,-3053.2523314777,-24781.4249083226,4879.6357922981,7655.1482760953,10812.4100800154
560564889939,26286,-2,0,1954.5214760628,4994.0486455242,9960.0872529620,-2014.6177306713,-9451.4531903694,-7046.8607765227,-9826.9726497190,-22326.2270433893,-12770.3020080982,-5398.8922542171,-7262.9834074918,-3052.8507974825,-24781.6804299559,4880.5970403471,7656.1703626284,10809.9157021667
560564889939,26286,-2,0,1956.3953013736,4996.6525326443,9970.0525966600,-2007.9985035996,-9453.3635187706,-7033.0626083255,-9825.1474951956,-22328.3077195461,-12771.3240946313,-5398.0526831363,-7261.1825883620,-3056.3915972580,-24783.0797150905,4879.0395751538,7654.1018541685,10806.7764363864
560564889939,26286,-2,0,1952.9640108695,4992.6980311769,9971.0260124058,-2011.1256016831,-9454.3125991228,-7036.2992156804,-9827.5080283792,-22327.4316453748,-12774.0618264165,-5399.2937882123,-7268.1668463384,-3056.5254419230,-24784.3938263474,4876.4721911241,7653.3596246623,10807.0076226260
560564889939,26286,-2,0,1948.0604290498,4984.9350406038,9956.0719130104,-2019.0589400117,-9454.4707791815,-7051.4723336186,-9829.9780708343,-22327.2126268320,-12772.6625412819,-5402.6764079291,-7274.7982411069,-3053.4713500205,-24783.1648889683,4880.5118664693,7656.8274182568,10816.6566062066
560564889939,26286,-2,0,1947.1113486976,4986.2613195575,9949.5500275133,-2022.7214167554,-9451.9885690296,-7057.2154865191,-9826.3520971810,-22326.0688633306,-12768.2091642447,-5400.4375517136,-7270.3691994634,-3048.3730850517,-24780.8286911783,4883.8458153988,7659.9180132499,10821.9373866278
560564889939,26286,-2,0,1949.3745403067,4988.9990513427,9957.1426703308,-2017.4284686374,-9449.8592220856,-7043.8918584979,-9822.5801111659,-22323.5501500883,-12766.7125375354,-5396.5195533367,-7260.7810543669,-3050.0278918196,-24782.7390195795,4881.0837482200,7657.0829398901,10817.6056865588
560564924767,26287,-2,0,1949.6422296368,4991.5542676755,9965.6113873196,-2011.9895081576,-9450.2364206871,-7029.7286593960,-9822.0203971121,-22325.3874723086,-12770.0343187681,-5395.1324358988,-7259.6859616528,-3053.5321885046,-24786.7908626215,4876.0949925226,7652.9094198798,10810.5605900983
560564924767,26287,-2,0,1952.8301662044,4992.1504848198,9968.4951314666,-2010.9309185340,-9451.1733333424,-7028.6822374693,-9822.5801111659,-22325.7038324260,-12770.3506788855,-5394.9620881433,-7265.6603007929,-3054.0310640743,-24788.2144831498,4875.1945829577,7650.5610543930,10808.2608953988
560564924767,26287,-2,0,1951.4187133730,4990.2523241154,9964.2364375786,-2015.4816371458,-9446.9389748481,-7040.3023879352,-9820.3534226473,-22321.6154862935,-12766.0189788165,-5391.8836608471,-7267.7288092528,-3047.9593833597,-24783.8949507776,4879.5871215108,7653.0432645449,10815.5980165830
560564924767,26287,-2,0,1957.2835432416,4994.7178688495,9959.6492158764,-2012.3667067591,-9440.9646357080,-7043.5511629869,-9813.9653818153,-22312.9520861555,-12758.7061930259,-5388.5132088272,-7259.9536509829,-3038.4199090505,-24776.2658048697,4886.5227086999,7659.8571747657,10824.3587582956
560564924767,26287,-2,0,1963.2213792912,5002.7728841462,9968.6898146158,-2002.4987046357,-9435.4405013504,-7027.7818279044,-9804.9247830758,-22307.1480947710,-12753.9242881745,-5381.5046154571,-7246.6786937491,-3035.0129539401,-24772.7858435783,4891.1220980989,7661.5241492305,10823.6043610925
560564924767,26287,-2,0,1962.9536899611,5003.2352566255,9979.3973878200,-1998.2400107476,-9436.2800724312,-7011.3919402839,-9804.5110813839,-22310.1048450990,-12756.1388089963,-5378.3531819800,-7242.6268507071,-3039.3933247963,-24774.0269486542,4888.7007264312,7661.4876461400,10822.7647900118
560564924767,26287,-2,0,1958.5489837112,4998.5506933487,9979.5312324850,-2001.8294813104,-9438.7744502799,-7013.9349889199,-9810.5462590080,-22314.2053589283,-12759.0712239306,-5382.1738387824,-7250.5845244293,-3043.1653108114,-24776.2293017792,4886.6808887586,7659.0662744722,10819.9905551361
560564924767,26287,-2,0,1954.5214760628,4993.2577452307,9968.9696716427,-2008.9597516487,-9440.5265986224,-7029.5339762469,-9813.8680402407,-22314.9597561313,-12759.8621242241,-5385.5442908024,-7257.7512978580,-3042.1188888847,-24776.0954571141,4888.8345710962,7660.9522674798,10823.8842181195
560564959611,26288,-2,0,1955.8234196229,4994.4501795194,9961.6690535490,-2011.8921665830,-9438.4215870720,-7039.3168044925,-9811.7265255999,-22312.4410428890,-12755.3357410060,-5383.5609562202,-7255.0500691633,-3037.7871888157,-24772.9683590306,4893.6894821286,7665.2961352456,10831.6593763893
560564959611,26288,-2,0,1959.8144241808,4998.3316748059,9966.5848030654,-2005.5284611446,-9437.1683142992,-7031.0427706529,-9807.4191609245,-22310.3603667322,-12755.3965794901,-5381.9061494523,-7247.2870785902,-3038.0183750553,-24774.1607933193,4894.3830408475,7666.4642341406,10832.2799289273
560564959611,26288,-2,0,1961.0190261663,5003.1622504446,9975.5280602303,-1999.5662897014,-9437.8983761086,-7017.8408196000,-9806.3727389978,-22311.0782608448,-12757.7571126737,-5379.8863117797,-7243.6002664529,-3040.7561068405,-24777.4704068551,4889.6011359961,7663.2641298762,10826.9383100220
560564959611,26288,-2,0,1961.4935663424,5003.4907782588,9981.9039333655,-1997.5951228160,-9440.6726109842,-7016.0886712575,-9810.6801036731,-22313.3292847570,-12762.0888127427,-5381.7723047872,-7247.9806373092,-3043.3599939606,-24781.3032313544,4884.5393741177,7659.0297713818,10824.9184723494
560564959611,26288,-2,0,1957.2592078480,4999.7796307278,9974.7736630273,-2004.0074990417,-9442.9601379870,-7032.5637327558,-9813.8193694534,-22313.7673218427,-12762.1131481364,-5385.5807938928,-7256.8387205963,-3041.5713425276,-24780.2446417308,4885.5249575604,7660.7332489370,10828.2524212789
560564959611,26288,-2,0,1956.7968353687,4995.8859677445,9961.6325504585,-2009.3126148565,-9442.2179084808,-7045.0842927866,-9814.0018849057,-22310.4942113973,-12760.0568073733,-5389.5596307539,-7258.0554902785,-3037.7141826348,-24775.5722461508,4887.0580873601,7663.4953161158,10832.8761460716
560564959611,26288,-2,0,1959.0478592810,5000.9598973196,9966.4631260972,-2006.3071937413,-9441.7068652142,-7040.1928786638,-9810.7044390667,-22309.8736588593,-12760.0933104638,-5386.6028804260,-7250.5480213388,-3037.5316671824,-24776.8863574076,4889.0900927295,7666.8292650453,10836.8306475391
560564959611,26288,-2,0,1958.6341575890,5001.1424127720,9974.7736630273,-2002.2796860929,-9444.4080939089,-7025.9201702905,-9811.5683455412,-22315.3734578233,-12764.5101844105,-5386.2378495213,-7247.2262401061,-3042.5690936671,-24781.0842128115,4884.7340572669,7663.5196515094,10830.8198053085
560564990263,26289,-2,0,1955.6652395642,4998.5993641360,9977.2437054823,-2002.7907293594,-9450.1877498998,-7024.1680219480,-9816.5692689354,-22321.6641570807,-12770.2898404014,-5392.1513501772,-7254.4781874126,-3048.0932280247,-24786.8882041961,4877.7011285032,7659.6138208293,10826.3299251809
560564990263,26289,-2,0,1952.1366074855,4992.4668449372,9970.2959505964,-2010.0913474532,-9452.7551339294,-7040.3875618129,-9822.5801111659,-22321.1409461174,-12773.3195969103,-5396.1301870383,-7263.8108108758,-3047.4240046995,-24787.7034398832,4877.2022529335,7659.4921438611,10827.1451608680
560564990263,26289,-2,0,1950.1897759939,4989.4735915188,9960.1724268397,-2016.5523944662,-9452.0494075137,-7054.0153822546,-9823.9063901196,-22318.9872637797,-12770.5696974283,-5398.9044219139,-7266.6458842355,-3044.0535526795,-24783.8949507776,4880.9377358581,7662.3272172208,10831.7323825703
560564990263,26289,-2,0,1954.1077743708,4993.1725713529,9959.2598495780,-2014.7515753364,-9448.4112661636,-7048.9414526795,-9819.5138515665,-22315.0570977059,-12768.5620274525,-5398.2717016792,-7259.8319740147,-3042.9219568750,-24781.6925976527,4885.0625850811,7664.2010425315,10831.1848362132
560564990263,26289,-2,0,1957.0401893052,4995.2897506001,9969.7484042394,-2008.9719193455,-9450.1390791125,-7033.7805024381,-9819.1001498746,-22318.1963634862,-12771.2875915409,-5394.8890819624,-7254.9040568014,-3047.8863771787,-24785.2333974282,4882.6047103229,7660.2100379736,10825.5755279779
560564990263,26289,-2,0,1954.8013330897,4993.1604036561,9974.6641537559,-2009.1909378883,-9455.2373440813,-7029.9476779389,-9823.3588437626,-22324.4505596532,-12777.7851416443,-5398.1986954982,-7260.5985389145,-3054.7611258837,-24789.5285944067,4877.1049113589,7654.6980713128,10817.4231711065
560564990263,26289,-2,0,1952.1122720919,4990.5321811424,9966.5726353686,-2014.5568921872,-9459.0580008837,-7044.3785663709,-9830.0754124089,-22326.0080248465,-12779.3547745345,-5403.6133205844,-7272.1213478059,-3056.1847464120,-24791.5362643824,4877.8836439556,7657.1924491615,10820.4894307059
560564990263,26289,-2,0,1952.9518431727,4991.2135721645,9957.6172105069,-2017.9030088135,-9456.3567721890,-7057.4953435460,-9828.8343073329,-22322.8200882789,-12775.4732792480,-5401.8368368483,-7273.0217573708,-3050.6849474480,-24785.0995527631,4880.0738293837,7657.8738401836,10826.4759375427
560565153742,26294,-2,0,1956.4804752513,4998.7210411042,9967.3513679653,-2008.4608760789,-9448.6911231906,-7036.2870479836,-9822.7991297087,-22323.6353239661,-12768.7445429049,-5393.0517597421,-7259.8319740147,-3052.7291205143,-24784.7466895552,4882.3735240832,7653.8219971416,10829.4326878707
560565153742,26294,-2,0,1956.2127859212,4998.6236995296,9971.9142542739,-2007.9376651155,-9452.4144384184,-7034.8147566680,-9826.5832834207,-22328.3928934238,-12773.0762429738,-5393.6723122801,-7266.0861701817,-3059.3240121923,-24788.1536446657,4877.6281223223,7650.4150420311,10826.3055897872
560565153742,26294,-2,0,1953.2438678964,4995.1315705414,9965.0395055689,-2014.1066874048,-9454.5924561497,-7048.5155832907,-9831.1340020324,-22329.3541414728,-12775.1325837369,-5397.3226213270,-7275.5648060068,-3058.2410871751,-24788.1171415752,4877.1292467525,7651.3762900801,10830.3696005261
560565153742,26294,-2,0,1954.3024575200,4995.4722660525,9954.2102553965,-2019.0346046181,-9452.9619847754,-7061.0726464119,-9831.3651882721,-22326.3122172671,-12771.7986348074,-5399.5371421487,-7276.7207372049,-3053.5565238982,-24782.7390195795,4881.1810897946,7655.3429592444,10835.1393376807
560565153742,26294,-2,0,1959.4250578825,5002.1766670019,9959.5762096954,-2011.3811233164,-9448.2409184081,-7055.7310275067,-9825.3665137384,-22323.4771439074,-12769.2434184746,-5396.1301870383,-7268.7995665732,-3051.9138848271,-24780.3541510022,4883.6511322496,7656.3893811712,10836.0275795488
560565153742,26294,-2,0,1962.2601312422,5007.0315780343,9973.1675270466,-2003.8736543767,-9449.1169925794,-7038.0635317198,-9822.3975957136,-22324.9129321325,-12769.9004741030,-5393.1856044072,-7262.3020164698,-3055.8927216882,-24781.4735791099,4880.8768973740,7651.5953086230,10828.9946507851
560565153742,26294,-2,0,1962.9050191738,5006.7273856137,9978.5578167392,-2002.0606675501,-9449.4455203936,-7031.4564723449,-9825.3056752543,-22328.8552659031,-12772.8328890374,-5395.8746654050,-7266.7797289006,-3058.6061180798,-24783.7367707189,4879.3072644839,7648.1275150284,10823.5921933957
560565153742,26294,-2,0,1960.6053244743,5002.8702257208,9973.7394087973,-2006.1490136826,-9449.0074833080,-7040.9716112604,-9829.3696859931,-22329.4271476538,-12772.8328890374,-5398.1865278014,-7275.2484458894,-3057.5110253657,-24784.3573232569,4879.2707613934,7648.7358998696,10825.7702111270
560565182225,26295,-2,0,1959.7657533935,5001.0329035006,9964.7596485420,-2010.4077075706,-9447.0241487258,-7053.8693698928,-9828.3719348536,-22325.4239753990,-12768.2213319415,-5398.8679188235,-7275.4187936449,-3052.2789157318,-24782.4591625525,4880.7917234963,7651.6804825007,10832.8153075875
560565182225,26295,-2,0,1962.8198452961,5005.1820881172,9963.6888912216,-2007.3536156680,-9444.6271124517,-7052.3849108804,-9824.4661041735,-22321.8588402299,-12767.3330900734,-5398.5150556156,-7268.7022249986,-3049.9305502450,-24784.2356462887,4879.5019476330,7651.7413209848,10832.4867797733
560565182225,26295,-2,0,1965.3872293257,5009.2339311592,9972.3644590563,-2001.1115871979,-9446.0142298895,-7037.3334699104,-9822.1177386866,-22322.8687590662,-12769.6571201666,-5396.4222117621,-7262.7522212522,-3053.7998778347,-24788.3604955117,4873.7587947326,7647.6164717619,10827.3520117140
560565182225,26295,-2,0,1965.0221984210,5010.7305578685,9982.2811319670,-1997.4734458478,-9447.1944964813,-7028.6335666820,-9823.3831791562,-22325.1197829785,-12772.3461811645,-5394.3415356053,-7262.9225690077,-3056.8052989500,-24790.6115194239,4871.3982615489,7645.3046093655,10823.7260380608
560565182225,26295,-2,0,1964.2191304307,5008.5282047435,9977.8034195362,-1999.8339790315,-9447.7663782320,-7037.2361283358,-9825.4881907066,-22324.7304166801,-12771.3240946313,-5396.0328454637,-7270.8315719426,-3054.4691011600,-24788.2753216339,4873.1747452851,7646.9350807398,10826.0865712444
560565182225,26295,-2,0,1964.2069627339,5007.4452797263,9967.6068895986,-2005.1390948463,-9445.0286464469,-7051.3384889536,-9825.4273522225,-22321.4208031443,-12767.1627423179,-5396.3005347938,-7272.9852542803,-3049.1518176483,-24781.0963805084,4880.8525619804,7653.1649415131,10834.8594806538
560565182225,26295,-2,0,1967.9424456585,5012.7017247538,9970.5879753202,-2002.0606675501,-9440.5752694097,-7050.5597563569,-9820.9009690044,-22316.8579168357,-12761.2370739651,-5392.2365240550,-7264.6990527439,-3045.4406701173,-24776.0467863268,4885.3789451985,7655.7566609364,10838.8869883021
560565182225,26295,-2,0,1968.2466380791,5015.3786180548,9977.0611900300,-1996.8163902194,-9442.3274177522,-7037.7836746928,-9820.4507642219,-22319.5226424399,-12763.7801226011,-5392.4433749010,-7261.1947560589,-3049.5168485530,-24777.1418790409,4883.0914181958,7652.4713827942,10831.1848362132
560565267700,26298,-2,0,1959.5467348507,5000.5461956277,9974.7979984209,-2007.5726342108,-9457.1476724825,-7043.6971753488,-9835.9767453680,-22338.9422865693,-12780.8148981532,-5403.4673082226,-7279.5193074742,-3067.6710522128,-24792.4610093410,4869.2567469081,7643.0535854533,10809.8183605921
560565267700,26298,-2,0,1954.9108423612,4996.5430233729,9966.8524923955,-2014.2161966762,-9457.6587157491,-7057.9090452380,-9840.0772591973,-22338.0662123981,-12779.7319731360,-5403.5768174940,-7285.4693112206,-3064.4952833421,-24790.3803331843,4872.9922298328,7646.9350807398,10816.7052769939
560565267700,26298,-2,0,1958.6584929826,4997.7232899647,9959.1625080034,-2015.2017801188,-9453.2053387119,-7065.4286818746,-9836.6216332996,-22333.3816491212,-12774.9500682846,-5404.6354071176,-7282.3665485308,-3058.6791242607,-24783.1040504842,4879.6844630854,7654.5520589509,10822.7282869213
560565267700,26298,-2,0,1959.1330331587,4997.9058054171,9960.8538178618,-2013.2671163240,-9453.0593263500,-7058.1645668713,-9835.7698945220,-22335.5596668525,-12776.7022166271,-5403.7349975527,-7275.3701228576,-3061.3925206522,-24785.3672420932,4878.4068549190,7651.7778240753,10820.5381014932
560565267700,26298,-2,0,1955.1663639944,4997.0418989426,9966.6943123368,-2012.1111851258,-9458.8146469472,-7046.7269318577,-9838.1547630993,-22340.8526149705,-12781.6544692340,-5406.4118908537,-7276.1731908479,-3067.2816859145,-24789.8936253114,4873.6857885517,7645.5844663924,10813.2131480057
560565267700,26298,-2,0,1950.2019436907,4991.9314662770,9965.1246794467,-2015.4086309648,-9463.4992102241,-7048.0775462050,-9842.7419848015,-22343.9675453572,-12786.7892372933,-5410.4272308053,-7284.1673676606,-3070.3844486044,-24792.6800278838,4868.6605297638,7640.6322137855,10808.2973984893
560565267700,26298,-2,0,1944.5074615775,4984.9958790879,9954.7456340567,-2023.3663046870,-9464.8498245714,-7063.1168194782,-9845.1755241661,-22343.1158065796,-12787.8113238264,-5412.4592361747,-7291.0421163655,-3068.8878218951,-24793.5074312678,4873.6249500675,7645.3776155464,10816.7904508717
560565267700,26298,-2,0,1945.0428402377,4984.4239973373,9948.2602516501,-2026.7245890102,-9460.1530935978,-7071.8775611907,-9841.9145814176,-22338.0540447012,-12781.5571276594,-5409.0644487611,-7286.5279008442,-3061.7088807696,-24789.4190851353,4878.4311903126,7651.8629979531,10826.9626454157
560565298750,26299,-2,0,1950.3357883557,4993.2699129275,9951.8740576065,-2019.0467723149,-9454.8723131766,-7061.4011742262,-9835.2588512554,-22333.4668229990,-12778.6855512092,-5405.3046304428,-7276.8180787795,-3058.4601057179,-24787.0828873453,4880.5483695598,7655.4889716063,10828.0212350393
560565298750,26299,-2,0,1952.7814954171,4996.2023278619,9963.3968664978,-2012.7195699670,-9455.5293688051,-7044.5489141264,-9833.4823675193,-22335.2311390383,-12780.0483332534,-5403.1022773179,-7270.5395472189,-3060.1879186667,-24789.9909668859,4878.2973456476,7653.9071710193,10825.1618262859
560565298750,26299,-2,0,1951.5525580380,4996.3970110110,9968.9331685523,-2012.5005514241,-9458.0967528347,-7042.2613871237,-9836.6946394805,-22338.4920817869,-12782.7738973417,-5403.3699666480,-7275.4431290385,-3063.2541782661,-24793.1424003631,4874.8538874467,7650.7557375422,10821.1708217279
560565298750,26299,-2,0,1948.5714723164,4988.5123434698,9958.4811169814,-2019.0954431022,-9458.7416407663,-7054.7089409735,-9840.2962777401,-22337.7376845839,-12782.5183757084,-5408.3222192549,-7284.1186968733,-3061.3925206522,-24791.6092705634,4876.6425388796,7654.1383572590,10825.0766524081
560565298750,26299,-2,0,1948.4984661355,4986.2978226480,9949.9272261148,-2024.6074097630,-9454.7749716020,-7067.1443271266,-9836.8163164488,-22331.1427929058,-12776.5197011747,-5406.8377602425,-7281.4783066627,-3055.3938461185,-24785.0630496726,4883.4077783132,7660.4168888196,10833.8495618175
560565298750,26299,-2,0,1948.6566461942,4987.0765552447,9950.7181264083,-2024.0355280123,-9451.7452150931,-7060.0748952725,-9833.3971936415,-22332.3595625881,-12772.6260381914,-5401.9950169070,-7274.1290177817,-3054.3109211013,-24779.6119214960,4885.1842620493,7661.1347829321,10834.2754312063
560565298750,26299,-2,0,1947.4763796023,4987.1495614256,9957.1305026340,-2019.7890018211,-9452.9376493818,-7046.4105717403,-9833.4336967320,-22336.1315486032,-12774.3051803530,-5401.8976753324,-7271.8414907789,-3060.1757509699,-24781.2180574766,4886.0116654333,7661.5484846241,10831.6837117830
560565298750,26299,-2,0,1944.9576663600,4986.8697043987,9962.7033077789,-2019.2292877672,-9456.3081014017,-7043.0887905076,-9836.6946394805,-22340.3902424913,-12778.1015017617,-5404.1608669415,-7277.5481405889,-3064.7629726722,-24782.8850319413,4887.0945904505,7661.2442922036,10830.3939359197
560565335043,26300,-2,0,1940.7111401688,4981.9174517917,9956.0840807072,-2025.7268378707,-9457.9994112601,-7055.8040336876,-9840.7951533099,-22341.3028197530,-12778.2961849109,-5406.8499279393,-7285.8586775190,-3063.5218675962,-24781.3153990512,4889.8079868421,7664.3348871966,10835.6260455536
560565335043,26300,-2,0,1938.6547994057,4978.6686767400,9944.2084086080,-2033.2708099009,-9457.4762002967,-7070.9284808385,-9842.8271586793,-22337.3361505887,-12776.3493534192,-5410.7800940131,-7288.5477385168,-3059.0563228622,-24780.3784863958,4891.9981722702,7666.4764018374,10841.5395462096
560565335043,26300,-2,0,1940.7719786529,4980.0801295715,9942.2859125100,-2031.4821584679,-9458.3766098616,-7070.0645743641,-9838.7023094563,-22336.2653932683,-12778.6003773314,-5411.6318327907,-7283.2547903989,-3058.9224781971,-24781.9602869828,4888.6398879471,7663.3493037539,10841.1623476080
560565335043,26300,-2,0,1941.4898727654,4981.5889239775,9952.3972685699,-2027.2599676704,-9460.9683292849,-7055.0131333941,-9837.4247012899,-22338.0053739140,-12781.7274754149,-5410.7070878322,-7277.4873021048,-3063.9477369850,-24789.2609050766,4881.0229097359,7656.9855983155,10835.9910764583
560565335043,26300,-2,0,1942.5606300859,4983.9737925548,9960.1967622334,-2022.0765288238,-9461.6253849133,-7047.7611860876,-9838.0087507374,-22339.4289944422,-12785.0614243444,-5410.8165971036,-7278.5823948189,-3067.0504996749,-24792.5948540060,4875.7908001020,7650.5245513025,10829.3475139930
560565335043,26300,-2,0,1942.6336362668,4981.2360607696,9956.9844902721,-2025.3009684819,-9460.6398014707,-7056.6071016779,-9839.6148867180,-22337.8471938553,-12784.8424058016,-5412.5079069620,-7285.7370005507,-3065.1036681832,-24792.5461832188,4876.1314956131,7652.3253704323,10833.7278848492
560565335043,26300,-2,0,1943.6435551031,4978.1698011703,9949.0389842468,-2031.6890093139,-9457.4883679935,-7068.9451462564,-9839.4323712657,-22334.2942263830,-12777.7243031602,-5409.8066782673,-7285.5666527952,-3059.7863846716,-24787.1315581325,4875.7786324052,7652.6173951561,10840.8946582779
560565335043,26300,-2,0,1949.2406956417,4983.0612152931,9952.0565730588,-2026.7002536165,-9449.7862159046,-7064.0658998304,-9833.9447399985,-22329.3906445633,-12771.3605977218,-5405.6939967412,-7277.2439481683,-3054.8341320646,-24783.5664229634,4881.7773069389,7656.3528780807,10842.5738004395
560565402549,26302,-2,0,1949.1920248544,4988.5366788634,9958.5176200718,-2021.1882869557,-9447.8515521098,-7056.3150769542,-9832.4846163798,-22328.1373717905,-12771.3727654186,-5400.2915393518,-7278.3633762760,-3052.3154188223,-24785.7079376043,4881.1202513105,7655.2456176698,10841.2475214858
560565402549,26302,-2,0,1951.6620673094,4991.4569261009,9954.5387832107,-2020.4582251463,-9445.6613666816,-7062.4597638498,-9829.8685615629,-22324.2558765040,-12767.8563010368,-5401.5934829118,-7275.1267689211,-3049.8453763672,-24782.3861563716,4882.8845673498,7657.2046168583,10844.9951721073
560565402549,26302,-2,0,1954.5458114565,4996.0441478032,9960.9268240428,-2015.2261155125,-9445.0286464469,-7049.3794897651,-9828.1164132204,-22325.4604784895,-12769.4624370174,-5398.0040123491,-7267.2177659862,-3052.0964002795,-24784.6980187680,4880.9499035550,7655.0874376111,10841.8680740238
560565402549,26302,-2,0,1954.8378361802,4997.7476253584,9969.8092427235,-2011.1012662895,-9448.6546201001,-7038.5137365022,-9830.5864556754,-22329.9016878299,-12773.6481247245,-5397.7728261094,-7268.8239019669,-3059.7620492779,-24791.0860596000,4875.7299616179,7649.6363094345,10834.1172511476
560565402549,26302,-2,0,1951.0293470746,4993.3915898958,9965.8912443465,-2015.1287739379,-9453.8867297340,-7045.8386899896,-9838.2399369770,-22336.0342070286,-12780.1456748280,-5404.7692517826,-7280.8334187311,-3064.8603142467,-24794.5416854977,4871.8971371187,7642.4695360058,10826.5611114205
560565402549,26302,-2,0,1948.1456029276,4988.4150018952,9955.4391927756,-2022.4415597285,-9457.5735418713,-7063.4210118988,-9842.8758294666,-22338.5042494837,-12781.7639785054,-5409.3564734849,-7288.5964093041,-3065.0915004864,-24793.9819714439,4872.1526587520,7645.8278203289,10833.9955741793
560565402549,26302,-2,0,1950.5183038081,4990.2158210250,9951.6185359732,-2024.4979004916,-9456.6001261255,-7073.2281755381,-9842.3039477159,-22337.1536351364,-12779.1114205980,-5409.8310136610,-7287.2214595631,-3063.1568366915,-24791.7917860157,4874.4766888451,7648.8332414442,10836.4534489376
560565402549,26302,-2,0,1951.7594088840,4994.4136764289,9955.6582113184,-2020.5677344177,-9456.7218030937,-7060.8049570818,-9838.9456633928,-22336.5209149016,-12779.4886191995,-5409.2712996071,-7279.4341335965,-3064.0815816501,-24790.7088609985,4872.7732112899,7648.4925459331,10832.0974134749
560565425089,26303,-2,0,1951.3822102825,4994.9247196955,9964.0052513390,-2016.0170158060,-9458.5469576171,-7045.7900192023,-9836.3052731822,-22337.7741876743,-12782.0438355323,-5408.8089271278,-7274.3115332340,-3066.4786179242,-24796.3425046275,4871.9944786933,7645.9981680844,10828.0577381297
560565425089,26303,-2,0,1949.8247450892,4991.6881123405,9967.3513679653,-2015.9318419282,-9458.1575913188,-7046.3497332562,-9837.4977074708,-22338.2608955472,-12783.1389282464,-5409.5511566340,-7279.8965060757,-3067.7075553033,-24797.0360633464,4871.1184045220,7645.4019509401,10826.5489437237
560565425089,26303,-2,0,1949.1920248544,4988.5245111666,9956.0475776168,-2020.8840945351,-9455.4563626241,-7059.6368581868,-9837.6315521359,-22335.0972943733,-12780.9609105151,-5412.9581117444,-7284.9217648636,-3062.4511102758,-24791.1103949936,4874.6348689038,7649.8553279773,10829.7855510786
560565425089,26303,-2,0,1952.4407999061,4991.1527336803,9951.7158775478,-2019.6429894592,-9450.6501223791,-7067.5823642122,-9833.7378891526,-22330.4979049742,-12775.5584531257,-5412.0090313923,-7281.9285114452,-3057.5840315466,-24786.9855457707,4878.3581841317,7653.0067614544,10834.7621390792
560565425089,26303,-2,0,1954.9960162389,4996.5795264634,9957.0088256658,-2014.1431904952,-9449.6280358459,-7058.1767345681,-9830.1970893771,-22330.2545510377,-12773.5021123626,-5408.6872501596,-7274.3723717181,-3058.7156273512,-24787.0098811643,4878.2243394666,7649.4902970726,10831.9879042035
560565425089,26303,-2,0,1955.5435625959,4998.0031469917,9964.1269283072,-2010.7118999912,-9452.4509415088,-7044.9017773343,-9831.2070082134,-22334.1238786274,-12778.0893340649,-5409.1252872452,-7273.8369930579,-3064.1302524374,-24791.3415812333,4874.2455026055,7648.3100304808,10828.0820735234
560565425089,26303,-2,0,1952.2704521506,4994.5961918812,9964.9299962975,-2013.0480977812,-9454.4221083942,-7045.4128206008,-9834.8086464730,-22338.2852309409,-12780.6202150041,-5409.4416473626,-7280.9672633961,-3065.7242207212,-24794.2009899867,4873.1382421946,7646.1076773558,10826.4394344523
560565425089,26303,-2,0,1948.2551121990,4989.1450637046,9956.3152669469,-2020.8840945351,-9454.9574870544,-7058.9067963775,-9837.2543535344,-22337.4699952537,-12779.1357559917,-5406.8134248489,-7285.3841373429,-3063.2420105693,-24792.9355495171,4873.4180992216,7648.9914215029,10833.3020154604
560565583913,26308,-2,0,1955.8720904102,4975.7727648961,9967.4487095399,-2017.7691641485,-9451.0394886774,-7054.7089409735,-9836.8284841456,-22338.3095663345,-12774.3173480498,-5402.3113770244,-7280.4927232201,-3064.7021341880,-24784.2478139855,4877.7741346842,7653.3231215718,10836.7576413581
560565583913,26308,-2,0,1958.9991884937,4979.9584526032,9981.4537285831,-2011.6001418592,-9454.0327420958,-7043.1252935981,-9837.2421858376,-22341.5096705990,-12776.5683719620,-5401.7151598800,-7280.1033569217,-3070.0802561838,-24788.7741972036,4872.3716772948,7646.6552237128,10830.5277805848
560565583913,26308,-2,0,1957.3808848162,4978.5226643781,9980.8940145292,-2011.7948250084,-9455.1156671131,-7047.1528012465,-9838.3372785516,-22340.7552733959,-12778.8802343584,-5405.9495183744,-7287.4039750155,-3069.9829146092,-24788.6038494481,4868.8552129129,7643.0049146660,10826.6584529951
560565583913,26308,-2,0,1953.9617620090,4971.7817603382,9970.9165031344,-2018.7912506816,-9452.4022707216,-7058.6512747442,-9838.2399369770,-22339.2951497772,-12774.7310497418,-5406.3875554601,-7290.6405823704,-3065.2618482419,-24785.9269561471,4874.7687135689,7648.0545088475,10835.4678654949
560565583913,26308,-2,0,1955.4462210214,4973.1567100792,9965.8669089529,-2020.8962622320,-9449.2265018508,-7066.0979051998,-9835.5387082824,-22334.0265370529,-12770.7278774870,-5403.5403144035,-7287.3066334409,-3060.6867942365,-24780.5975049386,4879.5992892076,7652.5808920656,10842.4886265617
560565583913,26308,-2,0,1957.6120710558,4977.4519070577,9969.7362365426,-2015.7006556886,-9447.3405088432,-7054.9766303036,-9831.2191759102,-22333.5276614831,-12769.8153002253,-5403.3334635575,-7280.8820895184,-3060.7963035079,-24780.0377908848,4879.7087984790,7652.2888673419,10841.8680740238
560565583913,26308,-2,0,1961.0676969536,4983.0247122026,9979.2513754581,-2007.5726342108,-9448.2287507113,-7039.2681337052,-9831.4138590594,-22335.6813438208,-12772.0906595312,-5401.9706815133,-7277.6576498603,-3062.8891473614,-24782.1062993447,4878.3703518285,7651.9725072245,10838.7288082435
560565583913,26308,-2,0,1959.1817039460,4981.8079425203,9982.4636474194,-2007.0250878538,-9450.8691409219,-7039.8886862432,-9833.5067029129,-22337.4334921633,-12775.5219500352,-5402.4695570831,-7283.3886350639,-3064.6777987944,-24784.8075280394,4877.7132962001,7650.7922406326,10837.3660261993
560565615086,26309,-2,0,1955.6530718674,4976.4906590087,9972.2062789976,-2014.4717183095,-9452.3901030247,-7053.9910468610,-9836.8649872361,-22335.1581328574,-12773.6846278150,-5403.6984944622,-7289.6549989277,-3061.8792285251,-24779.8552754324,4879.3802706648,7652.7269044275,10838.9964975736
560565615086,26309,-2,0,1956.8698415496,4977.9507826274,9964.1147606104,-2016.1873635615,-9448.2895891954,-7063.9442228622,-9833.9447399985,-22331.0819544217,-12768.6958721176,-5402.5060601735,-7286.0290252745,-3056.6106158008,-24776.1684632951,4884.8070634478,7657.0829398901,10846.0659294277
560565615086,26309,-2,0,1959.1330331587,4981.9782902758,9966.7186477305,-2013.4739671700,-9447.3161734496,-7054.2100654038,-9831.4746975435,-22331.8850224120,-12768.2091642447,-5399.4276328773,-7276.9397557478,-3056.1604110183,-24777.7502638821,4882.1180024500,7656.0851887506,10844.1921041170
560565615086,26309,-2,0,1960.4714798092,4981.5159177966,9976.7083268221,-2008.1080128711,-9450.4554392299,-7040.3023879352,-9831.9979085069,-22334.1482140211,-12772.2610072867,-5399.5493098456,-7274.5427194736,-3060.3217633318,-24782.3618209780,4878.2608425571,7653.0310968481,10838.4489512165
560565615086,26309,-2,0,1960.0091073300,4979.6299247890,9979.0931953994,-2008.3878698980,-9450.8934763155,-7037.6741654214,-9836.5729625123,-22337.2023059236,-12775.8748132431,-5399.6344837233,-7280.5900647946,-3063.5218675962,-24784.2599816823,4875.6204523465,7651.1086007500,10836.1249211233
560565615086,26309,-2,0,1955.7747488356,4973.8746041918,9971.4032110073,-2015.4694694489,-9453.1931710150,-7050.0852161808,-9839.9434145323,-22337.1049643491,-12773.9766525387,-5401.1676135230,-7288.3165522772,-3063.1081659042,-24783.0553796969,4875.4136015005,7651.1451038405,10839.7995655639
560565615086,26309,-2,0,1957.1740339702,4974.2031320060,9964.2729406691,-2018.2437043246,-9450.0295698411,-7062.0825652482,-9837.4247012899,-22333.3451460308,-12771.4701069932,-5400.6565702565,-7286.3940561792,-3058.1194102068,-24781.0598774179,4877.3726006890,7652.0333457086,10843.1456821902
560565615086,26309,-2,0,1961.2258770123,4981.3942408283,9967.1688525129,-2013.1576070526,-9449.7253774205,-7054.8914564259,-9833.2146781892,-22331.1549606026,-12771.4092685091,-5399.6953222074,-7278.1686931269,-3057.6205346371,-24781.5952560781,4876.3018433686,7649.8553279773,10839.9942487130
560565645193,26310,-2,0,1965.1438753892,4985.4947546577,9979.4095555168,-2005.6744735065,-9451.1124948583,-7040.3510587225,-9831.9614054164,-22333.3329783339,-12773.7819693896,-5397.2374474492,-7273.8856638452,-3061.4533591363,-24785.8904530566,4872.6637020185,7646.2171866272,10834.5796236268
560565645193,26310,-2,0,1965.9834464700,4987.4537538462,9987.5984154787,-2002.5108723325,-9454.6532946338,-7037.4064760913,-9833.7135537589,-22335.2676421288,-12778.0649986712,-5398.5393910093,-7277.5968113762,-3065.0549973959,-24788.9323772623,4869.4514300573,7642.4695360058,10830.7954699149
560565645193,26310,-2,0,1964.2434658243,4984.6430158801,9978.7646675852,-2007.0372555506,-9456.2594306144,-7051.8982030074,-9838.9456633928,-22336.2775609651,-12780.2186810089,-5403.9296807018,-7287.1606210790,-3064.7508049753,-24787.1680612230,4870.9723921601,7644.3068582260,10832.7788044970
560565645193,26310,-2,0,1964.5354905481,4985.9936302274,9972.9850115943,-2009.9940058786,-9452.6821277485,-7064.5891107938,-9835.6117144633,-22332.1040409548,-12774.3173480498,-5401.9706815133,-7286.2237084237,-3059.7498815811,-24781.7899392273,4876.7520481510,7650.0986819137,10841.6003846937
560565645193,26310,-2,0,1965.6792540495,4986.9427105796,9974.2504520639,-2009.0814286169,-9448.2165830145,-7059.9410506074,-9830.7568034309,-22328.5145703921,-12768.6958721176,-5397.9675092586,-7275.9541723051,-3057.0729882801,-24777.5920838234,4881.6191268802,7654.0045125939,10845.2385260437
560565645193,26310,-2,0,1964.4138135799,4985.6042639291,9979.0323569153,-2005.7353119906,-9447.4621858114,-7042.3830640919,-9827.5201960760,-22328.9647751745,-12768.9513937509,-5395.5461375908,-7269.2862744461,-3057.3163422165,-24777.4339037647,4877.8471408651,7651.2789485056,10838.8626529085
560565645193,26310,-2,0,1957.9527665669,4979.9219495128,9983.4005600747,-2008.1080128711,-9452.2440906629,-7040.2050463606,-9830.7933065214,-22333.1382951848,-12773.0640752770,-5396.3857086716,-7274.4575455959,-3064.4466125548,-24787.4844213404,4874.6592042975,7648.9670861092,10835.3826916171
560565645193,26310,-2,0,1953.4872218329,4974.0327842505,9975.1265262351,-2017.0512700359,-9458.5712930108,-7055.7553629003,-9840.1259299846,-22339.6723483787,-12779.8049793169,-5404.0026868828,-7287.7446705265,-3068.2185985699,-24792.5461832188,4869.9746410207,7643.8079826563,10833.2168415827
560565893941,26318,-2,0,1930.6362871994,4954.7591524829,9946.9096373027,-2037.8336962095,-9467.7700718089,-7072.3886044573,-9846.2341137897,-22343.4930051811,-12785.1100951317,-5410.4028954116,-7294.7289285029,-3070.1289269711,-24795.6246105150,4867.8939648639,7643.3456101770,10844.5084642343
560565893941,26318,-2,0,1931.9625661531,4955.0755126003,9941.6653599721,-2039.2938198283,-9465.3121970507,-7078.2047635386,-9844.6523132027,-22341.5096705990,-12782.2871894688,-5408.5534054945,-7289.1804587516,-3068.3767786286,-24794.7728717374,4869.8042932651,7644.3676967101,10847.5138853496
560565893941,26318,-2,0,1933.8120560702,4959.4315480629,9949.1363258213,-2033.1004621454,-9465.5798863808,-7065.7450419920,-9841.8050721462,-22343.8823714794,-12783.6378038161,-5408.8332625215,-7285.3963050397,-3071.8445722231,-24797.2794172829,4867.6749463211,7641.5812941377,10842.8779928601
560565893941,26318,-2,0,1938.6669671025,4963.3860495304,9960.1480914461,-2026.6272474356,-9467.2346931487,-7052.6282648168,-9842.6689786206,-22344.7219425602,-12786.9960881393,-5408.9671071865,-7283.1209457338,-3076.0910984143,-24801.1000740853,4864.3775004821,7639.9873258539,10838.5219573975
560565893941,26318,-2,0,1938.8373148580,4963.2765402590,9965.0516732657,-2025.9458564135,-9467.7457364153,-7054.4290839466,-9844.2264438139,-22345.3668304918,-12786.1686847553,-5407.5191512646,-7287.4161427123,-3074.2416084972,-24799.9684782807,4865.6186055580,7640.3888598490,10841.1136768207
560565893941,26318,-2,0,1940.0175814499,4963.4225526209,9958.5662908591,-2029.7178424286,-9465.1905200825,-7067.4850226376,-9842.7054817111,-22341.9355399878,-12782.6400526767,-5407.9206852597,-7290.2755514657,-3069.2041820125,-24794.6633624659,4871.0575660379,7646.0468388717,10847.4287114719
560565893941,26318,-2,0,1941.1856803449,4964.6028192127,9951.5942005796,-2031.4334876806,-9461.0413354658,-7074.6031252791,-9838.7996510309,-22336.6304241730,-12778.5030357569,-5406.5944063060,-7284.9217648636,-3063.3028490534,-24788.8837064750,4874.0264840627,7650.1960234883,10853.4030506119
560565893941,26318,-2,0,1942.8769902033,4966.4644768266,9957.4468627514,-2028.1725449321,-9459.2040132456,-7061.3160003484,-9835.3318574364,-22336.4965795079,-12776.9820736540,-5404.4772270589,-7277.9983453714,-3064.3492709802,-24789.9544637955,4871.5442739108,7648.6263905982,10850.9938466410
560565923866,26319,-2,0,1944.1545983697,4969.2508793990,9967.5703865081,-2020.9814361097,-9459.8975719645,-7046.2280562880,-9834.9789942285,-22338.7962742074,-12778.6247127251,-5402.4452216894,-7275.7594891559,-3069.0094988634,-24793.6656113265,4869.7921255683,7644.6597214339,10844.3989549629
560565923866,26319,-2,0,1941.5142081591,4967.1823709391,9967.8502435350,-2022.9526029950,-9461.5280433388,-7047.2136397306,-9836.3539439695,-22338.1635539727,-12779.8049793169,-5404.8179225699,-7282.3787162276,-3067.8657353620,-24794.2739961676,4870.5951935586,7644.8909076735,10841.8802417206
560565923866,26319,-2,0,1940.1879292054,4965.3328810221,9960.0142467810,-2026.7975951911,-9459.8245657835,-7060.7806216882,-9836.5607948155,-22335.9368654541,-12777.1159183191,-5404.0878607605,-7284.6054047462,-3063.5948737772,-24792.0838107395,4874.8538874467,7649.7944894932,10849.3268721762
560565923866,26319,-2,0,1942.2321022716,4968.2409605627,9956.3030992501,-2026.5542412546,-9455.6510457733,-7066.7914639187,-9831.5842068149,-22329.7191723775,-12770.3385111887,-5401.0216011611,-7278.1565254300,-3056.1360756247,-24786.6935210469,4879.0274074569,7653.8585002320,10855.6175714337
560565923866,26319,-2,0,1947.7927397197,4975.1887154486,9959.8438990255,-2018.4140520801,-9451.9277305455,-7056.4610893160,-9826.1817494255,-22327.9791917319,-12769.8639710126,-5398.1743601046,-7270.8194042458,-3056.5862804071,-24785.9026207534,4879.2950967870,7652.8242460021,10852.1497778392
560565923866,26319,-2,0,1950.3601237494,4976.3933174341,9972.7903284451,-2014.4838860063,-9455.0913317194,-7043.2226351727,-9830.3552694358,-22335.3771514002,-12774.4876958053,-5398.4663848283,-7271.8293230821,-3066.9774934939,-24793.2397419377,4872.0674848742,7645.3897832433,10842.1966018380
560565923866,26319,-2,0,1943.7773997682,4968.3748052278,9970.9773416185,-2021.5168147699,-9463.4383717400,-7047.9437015400,-9839.9434145323,-22345.3668304918,-12784.5260456842,-5406.3632200664,-7284.9582679541,-3076.9428371919,-24800.9783971171,4864.7425313868,7637.8823143035,10836.9644922041
560565923866,26319,-2,0,1938.9468241295,4962.7046585083,9959.8317313287,-2029.3893146144,-9466.2612774029,-7065.5625265396,-9845.6257289486,-22347.5205128295,-12785.3656167650,-5410.4515661989,-7295.6901765519,-3076.1032661111,-24798.2893361192,4865.5942701644,7640.9364062061,10841.1258445176
560565955113,26320,-2,0,1940.0905876308,4964.2986267921,9952.7988025650,-2031.1049598664,-9461.9660804244,-7074.0799143157,-9842.6568109238,-22342.4709186480,-12779.6102961678,-5407.3609712059,-7290.9326070941,-3070.4087839980,-24792.1203138299,4872.3473419011,7646.7769006811,10850.8965050664
560565955113,26320,-2,0,1945.3226972647,4969.5550718196,9957.2035088149,-2024.0963664964,-9458.4009452553,-7064.3335891605,-9836.4269501504,-22338.3582371218,-12776.3493534192,-5402.6885756259,-7279.3246243251,-3068.3889463254,-24790.6601902112,4874.4158503610,7649.2469431361,10852.5756472280
560565955113,26320,-2,0,1948.8148262529,4976.2473050722,9969.9309196917,-2015.8345003536,-9457.5005356904,-7047.4448259702,-9833.1660074019,-22338.3947402123,-12778.8193958743,-5401.2041166135,-7275.0172596497,-3071.5282121057,-24793.8846298693,4872.8705528645,7647.6164717619,10846.9906743862
560565955113,26320,-2,0,1949.4962172749,4974.4829890329,9974.8101661177,-2015.0314323633,-9460.7614784389,-7044.0865416471,-9834.8938203507,-22339.4533298359,-12781.5084568721,-5401.9220107260,-7279.4706366869,-3075.9694214461,-24796.4155108084,4870.1693241698,7644.0391688959,10844.9343336232
560565955113,26320,-2,0,1944.1424306728,4969.4090594577,9966.1589336766,-2023.5123170489,-9464.5821352413,-7058.7607840156,-9839.9920853195,-22341.7286891418,-12782.5305434053,-5406.3632200664,-7288.7910924533,-3078.3786254170,-24797.2915849797,4870.4248458031,7644.8179014926,10846.7473204498
560565955113,26320,-2,0,1940.0905876308,4964.0066020684,9952.0687407557,-2030.6912581744,-9464.5577998477,-7074.7369699441,-9840.9289979749,-22340.5727579436,-12782.2141832879,-5410.7800940131,-7291.4558180575,-3077.1131849474,-24796.7562063195,4870.1449887762,7646.1198450526,10849.3633752667
560565955113,26320,-2,0,1939.6647182420,4965.8804273791,9950.7059587115,-2029.6935070350,-9463.5235456177,-7071.3908533178,-9839.3958681752,-22341.3879936307,-12782.2750217720,-5410.0378645069,-7285.5544850984,-3076.5413031968,-24796.0626476006,4870.1084856857,7644.3555290133,10846.5404696038
560565955113,26320,-2,0,1943.5827166190,4970.1512889639,9963.2751895296,-2021.6628271318,-9465.1783523856,-7054.9279595164,-9839.0916757547,-22344.0892223254,-12784.4287041096,-5407.1176172694,-7281.3201266040,-3080.9216740530,-24800.4916892441,4869.1959084240,7640.4131952427,10840.2984411336
560566262782,26329,-2,0,1969.5364139423,4989.5222623061,9986.3938134932,-2006.4653738000,-9437.2413204802,-7052.7377740882,-9816.8126228718,-22321.6641570807,-12760.2879936129,-5389.2797737270,-7276.7937433859,-3057.2068329451,-24783.7489384158,4882.0328285722,7657.5453123694,10868.1137960709
560566262782,26329,-2,0,1978.4675034104,4997.7719607520,9996.3469894944,-1996.3783531337,-9434.3089055458,-7038.1122025070,-9811.8968733554,-22320.5812320635,-12761.4195894175,-5388.9755813064,-7269.4079514144,-3057.3406776102,-24784.7831926457,4881.4852822152,7657.2167845552,10865.0110333810
560566262782,26329,-2,0,1982.7383649952,5002.5782009971,10008.3443385618,-1990.0268153922,-9437.3021589643,-7024.3992081876,-9813.4300031551,-22324.4383919564,-12767.2600838925,-5389.3406122111,-7269.9311623777,-3062.3781040949,-24790.5141778493,4876.1923340972,7652.2645319482,10858.7203341235
560566262782,26329,-2,0,1978.5040065008,4998.8670534661,10006.4461778574,-1993.2755904439,-9446.3792607942,-7031.1522799243,-9820.5602734933,-22329.8773524362,-12772.4191873454,-5392.3582010232,-7278.4242147602,-3066.6611333765,-24795.9653060260,4871.4834354267,7648.6872290823,10856.1529500939
560566262782,26329,-2,0,1974.5860081239,4994.3650056416,9993.9012824329,-2001.5374565867,-9448.0340675621,-7049.8053591539,-9824.1619117529,-22329.0621167491,-12775.1569191306,-5397.9675092586,-7286.8077578712,-3064.9698235182,-24796.6101939576,4870.7533736173,7648.4803782363,10860.2412962264
560566262782,26329,-2,0,1973.3449030479,4992.8927143260,9984.4956527888,-2006.3193614381,-9446.3914284910,-7059.1623180107,-9821.7405400851,-22326.1540372084,-12770.9712314235,-5398.5150556156,-7282.8654241005,-3060.3095956350,-24793.7872882947,4872.6880374122,7650.1838557915,10865.1083749556
560566262782,26329,-2,0,1977.1047213662,4997.5407745124,9992.3316495428,-2000.7952270805,-9444.4202616057,-7047.0919627624,-9819.1853237523,-22324.9981060102,-12769.7666294380,-5393.3072813754,-7272.3281986519,-3060.6016203587,-24795.7827905737,4870.9358890697,7648.2613596935,10864.0132822415
560566262782,26329,-2,0,1978.1633109898,5001.0207358037,10001.2992421013,-1995.5996205371,-9444.1282368820,-7032.8435897827,-9819.8545470776,-22328.4172288175,-12771.7134609297,-5393.0152566516,-7272.2430247741,-3066.2595993814,-24797.6566158844,4867.5776047465,7644.2338520451,10856.7735026319
560566272575,26330,-2,0,1973.8194432240,4994.5718564876,10000.2041493872,-1999.7123020632,-9448.0584029558,-7035.1676198759,-9826.6806249953,-22335.1459651606,-12775.4854469448,-5395.6921499527,-7283.3034611862,-3071.7350629517,-24800.3700122759,4863.7204448537,7640.1455059126,10851.2980390616
560566272575,26330,-2,0,1969.4269046709,4988.5731819539,9992.0761279095,-2008.8015715900,-9451.1124948583,-7052.7864448755,-9834.3949447810,-22339.1126343248,-12776.8482289889,-5400.6200671660,-7293.7676804539,-3074.3267823750,-24800.7837139679,4863.1850661935,7638.6367115065,10853.5612306706
560566272575,26330,-2,0,1967.0907068809,4988.2324864428,9979.9814372675,-2013.7294888033,-9451.3193457043,-7066.3534268331,-9834.4436155683,-22335.3284806129,-12774.4755281085,-5402.8224202909,-7293.1227925223,-3071.3335289566,-24795.8436290578,4866.0931457341,7640.3280213649,10854.8023357466
560566272575,26330,-2,0,1970.0961279962,4992.8683789324,9982.4514797226,-2008.4730437757,-9446.4766023688,-7055.8405367781,-9829.6373753232,-22334.0873755370,-12770.5331943378,-5400.9364272834,-7283.8266721495,-3069.1798466189,-24795.3082503976,4869.8529640524,7642.9562438787,10856.0434408225
560566272575,26330,-2,0,1969.8406063629,4992.3330002722,9992.9156989903,-2005.4432872668,-9445.8317144372,-7038.6962519546,-9826.8874758412,-22334.8539404368,-12770.9103929393,-5395.1446035957,-7277.9253391904,-3071.5768828930,-24796.8778832877,4868.5388527956,7641.2649340203,10851.8820885091
560566272575,26330,-2,0,1966.1172911351,4987.1738968192,9994.2298102472,-2008.5947207440,-9448.5572785255,-7036.7615881597,-9832.2412624433,-22338.1027154885,-12775.4976146416,-5397.3226213270,-7285.2502926778,-3073.6088882624,-24799.0072302317,4865.8741271913,7640.3158536681,10849.5458907190
560566272575,26330,-2,0,1963.4403978340,4982.6840166916,9984.1184541873,-2015.6154818108,-9451.6357058217,-7053.1636434770,-9836.0740869426,-22338.7111003297,-12776.5197011747,-5401.9098430292,-7293.6460034857,-3072.5137955484,-24798.8368824762,4867.6627786243,7643.1144239374,10852.3687963820
560566272575,26330,-2,0,1961.6882494915,4980.0192910873,9972.8024961420,-2022.2955473666,-9452.5117799930,-7066.8766377965,-9836.3296085758,-22337.5795045252,-12773.8063047832,-5401.4961413372,-7291.4558180575,-3069.7152252791,-24794.9188840992,4871.9093048155,7646.1806835368,10859.6694144757
560566307347,26331,-2,0,1963.5499071054,4982.0147933663,9975.5280602303,-2019.1927846768,-9450.0660729315,-7061.0118079278,-9831.9857408101,-22337.7741876743,-12772.0176533502,-5399.4276328773,-7284.1795353574,-3068.6323002619,-24792.6313570965,4874.4036826642,7648.0788442411,10858.8420110918
560566307347,26331,-2,0,1966.9933653063,4988.1594802619,9987.6227508723,-2010.7240676880,-9448.3747630732,-7044.8531065470,-9829.9294000470,-22337.4091567696,-12772.0663241375,-5398.8314157330,-7279.7991645011,-3072.3312800960,-24795.1744057325,4872.1161556615,7645.8034849352,10853.4638890960
560566307347,26331,-2,0,1964.7058383036,4985.9206240465,9992.0761279095,-2010.0791797564,-9451.1124948583,-7039.3533075830,-9833.3120197638,-22341.4244967212,-12774.5607019862,-5397.8945030776,-7284.1065291765,-3076.4074585317,-24798.2893361192,4868.5996912797,7642.5547098835,10849.9230893206
560566307347,26331,-2,0,1963.0510315357,4984.1684757040,9986.6006643392,-2013.1332716589,-9452.6699600517,-7052.4944201518,-9836.9258257202,-22340.7796087896,-12774.7675528322,-5400.1333592931,-7291.4679857543,-3073.0978449959,-24795.5394366372,4871.2644168839,7645.1099262163,10854.3642986609
560566307347,26331,-2,0,1962.6373298437,4982.6231782075,9976.7083268221,-2017.1486116105,-9449.7375451173,-7063.8225458939,-9833.9569076954,-22336.1680516937,-12770.1073249490,-5400.2063654740,-7290.0200298324,-3066.3934440464,-24787.7764460642,4878.4798610999,7649.6119740408,10860.6671656152
560566307347,26331,-2,0,1969.0375383726,4989.5831007902,9980.5168159277,-2012.6587314828,-9445.2233295960,-7056.6192693747,-9828.2380901886,-22331.8120162311,-12765.8973018483,-5393.8304923388,-7279.2516181441,-3062.7796380900,-24782.7998580636,4881.3149344596,7653.4813016305,10863.3805620067
560566307347,26331,-2,0,1974.5373373366,4997.0175635490,9995.9576231960,-2002.0728352469,-9441.3661697031,-7036.7372527661,-9823.4805207308,-22329.9138555267,-12764.2424950804,-5389.2189352429,-7272.5472171947,-3064.1545878310,-24784.2478139855,4879.5627861171,7650.8652468136,10857.8685953459
560566307347,26331,-2,0,1977.1412244567,4997.6867868743,10002.7593657200,-1997.8384767525,-9441.6946975174,-7028.6092312883,-9821.5458569360,-22329.2446322014,-12765.5931094277,-5388.7565627636,-7274.8225765006,-3064.9454881245,-24787.7521106705,4879.1004136379,7652.2158611609,10856.4936456049
560566546781,26339,-2,0,1974.1114679478,4988.0134679000,10005.4484267179,-1998.2765138381,-9441.3661697031,-7025.2631146620,-9818.8202928476,-22326.9449375019,-12761.3222478429,-5377.3067600532,-7275.7716568528,-3064.1059170437,-24794.6146916787,4871.0453983411,7645.8278203289,10858.7446695172
560566546781,26339,-2,0,1972.5053319671,4985.8841209560,9997.1743928783,-2003.4964557752,-9441.3053312190,-7040.9472758668,-9821.2294968186,-22324.4870627437,-12758.8887084783,-5379.8863117797,-7279.5923136552,-3060.2609248477,-24790.0883084605,4874.8782228403,7649.9039987646,10863.9889468479
560566546781,26339,-2,0,1974.6590143048,4987.8552878413,9991.8327739730,-2004.0926729195,-9438.6892764021,-7046.5809194958,-9816.4840950576,-22321.5181447189,-12755.6034303361,-5380.9692367969,-7273.7153160897,-3056.6349511944,-24785.3185713059,4879.5019476330,7654.3695434986,10867.7365974693
560566546781,26339,-2,0,1980.4386702957,4993.9026331623,10002.3943348154,-1997.5586197256,-9436.5842648517,-7033.6709931667,-9813.5516801233,-22321.3964677506,-12754.4231637443,-5378.2801757991,-7264.8085620153,-3059.3970183732,-24783.5055844793,4879.4046060584,7652.6173951561,10864.4269839335
560566546781,26339,-2,0,1982.5436818461,4994.4136764289,10013.6616220734,-1993.1174103852,-9436.8276187882,-7022.1238488817,-9815.4863439181,-22324.8885967388,-12757.3312432849,-5379.7402994178,-7265.5386238247,-3064.0937493469,-24784.0774662300,4878.2851779507,7648.6263905982,10856.9803534779
560566546781,26339,-2,0,1981.1200613178,4992.7710373578,10014.4403546701,-1995.8308067767,-9440.9281326175,-7029.0959391612,-9820.5724411901,-22328.2103779715,-12761.6751110507,-5385.2644337754,-7275.0294273466,-3065.4443636942,-24784.9413727044,4876.8007189383,7647.3122793413,10856.8343411160
560566546781,26339,-2,0,1979.7572792736,4988.8530389808,10006.8720472462,-2003.1435925673,-9440.6482755906,-7045.2789759358,-9823.2493344912,-22328.1495394874,-12760.0568073733,-5386.9922467243,-7279.7018229266,-3061.1856698062,-24783.0310443032,4876.1801664004,7648.0301734538,10862.1151215371
560566546781,26339,-2,0,1980.4873410830,4988.8773743744,10000.3988325364,-2004.0318344354,-9438.5919348275,-7053.2488173548,-9819.7815408966,-22323.8543425089,-12756.7228584438,-5386.3108557022,-7274.5183840800,-3056.3307587739,-24781.9724546796,4881.1445867041,7655.1117730048,10870.3648199831
560566629020,26340,-2,0,1984.2228240076,4994.2554963702,10005.5214328989,-1999.8339790315,-9436.3530786121,-7042.1762132459,-9816.0338902752,-22323.1729514868,-12758.2316528498,-5386.2135141276,-7268.4467033653,-3057.4501868816,-24785.2820682155,4879.1977552124,7653.4813016305,10866.4103185156
560566629020,26340,-2,0,1983.3467498364,4993.5984407418,10014.5255285478,-1997.5342843319,-9438.9447980354,-7029.0716037676,-9817.0316414147,-22326.2392110862,-12762.2104897109,-5385.4712846214,-7268.1546786416,-3063.6922153517,-24790.6966933017,4873.6249500675,7648.7358998696,10860.4116439819
560566629020,26340,-2,0,1980.0006332101,4988.9382128586,10015.9734844698,-2000.8682332614,-9443.5320197376,-7031.9310125210,-9821.1199875472,-22330.3762280060,-12765.8364633642,-5389.9124939618,-7277.8888360999,-3067.5128721541,-24794.1279838057,4869.5974424191,7645.5236279083,10857.4548936540
560566629020,26340,-2,0,1976.8248643393,4983.0490475963,10003.2582412898,-2007.9498328124,-9444.4932677866,-7048.7467695303,-9825.7437123399,-22331.4348176296,-12765.6661156087,-5395.2784482607,-7285.5666527952,-3065.1401712737,-24791.3780843238,4872.1891618424,7647.9571672729,10861.5189043928
560566629020,26340,-2,0,1974.3548218842,4981.3212346474,9992.7453512348,-2013.7416565001,-9444.1525722756,-7059.8802121233,-9826.2304202128,-22329.0256136586,-12763.0378930949,-5396.6655656985,-7284.4837277780,-3062.3537687012,-24786.8151980151,4876.4721911241,7651.3154515960,10866.1426291855
560566629020,26340,-2,0,1977.5549261486,4986.0179656211,9998.1843117146,-2010.0791797564,-9444.4811000898,-7052.2145631248,-9824.8067996845,-22328.6119119666,-12762.6363590997,-5397.1401058746,-7278.9717611172,-3064.7021341880,-24785.4280805773,4874.8417197498,7648.0545088475,10862.3341400800
560566629020,26340,-2,0,1978.9298758896,4986.2126487702,10003.9639677055,-2007.0859263379,-9448.2409184081,-7041.2149651969,-9827.7513823157,-22336.3018963587,-12769.9491448903,-5399.8048314788,-7282.0258530197,-3073.2438573578,-24791.5240966856,4872.6028635344,7644.1121750769,10852.6851564994
560566629020,26340,-2,0,1976.5936780996,4983.8521155866,10006.1663208305,-2007.0980940348,-9452.0980783010,-7042.3100579110,-9834.9059880476,-22343.2739866383,-12774.8040559227,-5403.1509481052,-7291.0907871528,-3078.7193209281,-24796.0626476006,4867.9426356512,7640.3158536681,10848.0979347971
560566643783,26341,-2,0,1974.5495050334,4981.2482284665,9997.3934114211,-2013.9485073461,-9452.1467490883,-7057.1424803381,-9838.0209184342,-22344.9774641935,-12774.2686772625,-5405.0126057191,-7298.5982560926,-3078.0622652996,-24796.0626476006,4867.9548033481,7640.9607415997,10851.6022314821
560566643783,26341,-2,0,1971.8361086419,4979.1310492193,9985.2378822950,-2018.0246857818,-9450.0904083252,-7066.4142653172,-9835.2466835586,-22340.8404472737,-12770.9225606362,-5404.1973700319,-7296.3472321803,-3074.1807700131,-24792.1811523141,4871.4834354267,7643.9904981086,10856.7004964509
560566643783,26341,-2,0,1974.1114679478,4982.0269610631,9988.9125267355,-2014.9340907887,-9447.7663782320,-7056.1568968955,-9831.6693806927,-22338.9301188725,-12769.3042569587,-5399.0869373663,-7287.3188011377,-3074.2294408004,-24789.5285944067,4872.9070559550,7641.3866109885,10854.9726835021
560566643783,26341,-2,0,1971.6049224022,4982.1121349409,10000.1919816904,-2009.6168072771,-9448.1557445303,-7037.8323454801,-9829.8807292597,-22340.9256211515,-12770.3263434918,-5391.5794684265,-7281.2471204231,-3075.9450860524,-24792.8990464266,4869.9381379302,7640.8877354188,10851.5657283917
560566643783,26341,-2,0,1970.5219973850,4982.2703149996,10004.1464831579,-2008.8137392868,-9447.1458256940,-7029.1202745549,-9828.8221396361,-22338.6624295424,-12769.7787971348,-5388.0630040447,-7281.3444619977,-3074.6796455829,-24793.9333006566,4871.2400814902,7642.9684115755,10853.2205351596
560566643783,26341,-2,0,1966.5796636144,4977.4397393609,9995.8602816214,-2015.0436000601,-9446.8294655766,-7038.8422643164,-9828.1164132204,-22335.9368654541,-12766.8950529878,-5384.6073781470,-7284.0700260860,-3069.6908898855,-24790.1734823383,4872.0309817837,7645.8764911162,10859.2313773901
560566643783,26341,-2,0,1964.4381489735,4972.9863623237,9985.8827702266,-2020.6042375082,-9444.8461309945,-7049.8905330317,-9826.3034263937,-22332.2013825294,-12763.4394270901,-5382.9890744695,-7281.4661389659,-3063.1081659042,-24785.7322729979,4880.0616616869,7652.9945937576,10870.4986646482
560566643783,26341,-2,0,1967.2975577269,4978.8755275860,9987.2455522708,-2016.4550528916,-9443.0331441679,-7046.6052548895,-9822.0690678994,-22328.8552659031,-12761.7967880190,-5382.2225095697,-7273.3502851850,-3060.6746265397,-24782.3374855843,4881.9476546944,7653.9801772003,10870.5108323450
560566681379,26343,-2,0,1951.9662597300,4968.5451529833,9975.1386939320,-2026.9071044625,-9452.9011462913,-7063.7008689257,-9831.1948405166,-22334.0143693560,-12771.7621317170,-5398.8679188235,-7290.8839363068,-3066.6611333765,-24790.2464885192,4877.0562405716,7649.2834462266,10867.9799514058
560566681379,26343,-2,0,1952.4651352997,4969.6524133942,9969.9795904790,-2025.5564901152,-9451.3193457043,-7064.0537321336,-9828.0799101299,-22331.6538361724,-12768.9635614477,-5399.1234404568,-7284.3133800225,-3065.2618482419,-24786.8395334088,4880.8647296772,7649.7823217963,10872.3359868684
560566681379,26343,-2,0,1951.9054212459,4971.6479156732,9978.9228476439,-2020.8232560510,-9453.7407173721,-7049.4159928556,-9827.2403390491,-22332.6759227055,-12770.8130513648,-5396.3735409748,-7278.9960965108,-3068.8878218951,-24788.0928061816,4878.4555257063,7647.7016456396,10869.6347581737
560566681379,26343,-2,0,1952.2339490601,4971.2098785875,9984.8241806030,-2018.5843998356,-9454.7263008147,-7039.2072952211,-9829.4913629614,-22337.2874798014,-12774.9257328909,-5396.0693485542,-7282.2570392594,-3071.3943674407,-24795.5516043340,4874.3306764833,7644.9152430672,10863.3318912194
560566681379,26343,-2,0,1953.0856878377,4970.6744999273,9983.1693738351,-2020.7380821733,-9456.6244615191,-7045.7413484150,-9833.8108953335,-22337.7863553711,-12776.2155087542,-5397.8579999872,-7290.6649177640,-3072.5502986388,-24796.9873925591,4869.7556224778,7641.7394741964,10863.7820960019
560566681379,26343,-2,0,1951.5403903412,4968.3626375310,9975.5158925335,-2025.0819499391,-9455.2130086877,-7060.3547522994,-9836.0375838521,-22336.8859458062,-12773.5629508468,-5398.2960370728,-7293.7555127571,-3068.4741202032,-24794.7485363437,4870.4370134999,7647.5434655809,10872.3968253525
560566681379,26343,-2,0,1954.6553207279,4971.5384064018,9972.9850115943,-2024.4005589170,-9453.8137235530,-7062.2407453069,-9833.8960692113,-22335.1703005542,-12772.0906595312,-5398.7219064616,-7288.9857756025,-3066.9409904035,-24791.3172458396,4871.2035783998,7646.3875343827,10872.7618562572
560566681379,26343,-2,0,1958.6949960731,4976.3933174341,9981.0521945879,-2017.7813318453,-9453.9962390054,-7046.9702857942,-9831.7423868736,-22336.6304241730,-12772.6990443723,-5396.5317210335,-7283.0357718560,-3069.8003991569,-24793.9941391407,4869.4635977541,7644.3190259228,10863.7090898210
560566894080,26350,-2,0,1966.7865144603,4977.2328885149,9989.9954517528,-2016.3333759234,-9445.5640251071,-7043.0401197203,-9823.2249990975,-22328.8065951158,-12764.2424950804,-5384.7777259025,-7283.6928274845,-3057.8517208767,-24789.5650974971,4876.6060357892,7650.9625883882,10878.8822077592
560566894080,26350,-2,0,1966.5553282207,4978.2306396544,9983.7047524953,-2018.3897166864,-9443.7997090677,-7050.8031102934,-9820.4264288283,-22324.2802118977,-12761.2005708746,-5385.2644337754,-7276.9762588382,-3053.5565238982,-24787.3262412817,4878.7718858236,7653.3474569655,10882.9097154076
560566894080,26350,-2,0,1966.5309928271,4980.0436264810,9988.4258188626,-2013.7659918937,-9445.0529818405,-7038.1852086880,-9817.8955478891,-22324.2193734136,-12762.0523096522,-5383.4027761615,-7269.4079514144,-3054.9801444265,-24788.2023154530,4875.9003093734,7650.8652468136,10879.5879341749
560566894080,26350,-2,0,1964.1704596434,4976.7340129452,9995.9332878024,-2009.9209996977,-9446.5617762465,-7026.4555489507,-9818.3457526715,-22326.6042419909,-12765.7026186991,-5384.9967444453,-7269.7851500159,-3059.1901675273,-24792.4001708569,4873.7344593389,7648.4682105395,10871.4112419099
560566894080,26350,-2,0,1961.3597216773,4975.4442370819,9995.3735737485,-2012.3302036686,-9448.4721046477,-7029.3027900072,-9821.8500493565,-22328.9161043872,-12769.1460769000,-5386.7123896974,-7277.8766684031,-3060.8814773856,-24792.3636677664,4872.3960126884,7646.4970436541,10873.7961104872
560566894080,26350,-2,0,1959.4980640634,4972.2684682111,9987.4159000263,-2017.6231517866,-9448.7397939778,-7045.9603669578,-9823.8698870292,-22325.3266338245,-12767.4791024353,-5388.4036995557,-7283.5954859099,-3058.1437456005,-24788.5065078735,4876.1193279162,7648.5777198109,10879.2837417543
560566894080,26350,-2,0,1963.3065531690,4974.5559952138,9980.8453437419,-2017.7934995421,-9444.4324293025,-7053.7598606214,-9821.2294968186,-22323.0269391249,-12763.5854394519,-5389.2919414238,-7281.6243190246,-3054.1892441330,-24783.8949507776,4879.7331338727,7653.0432645449,10884.5645221755
560566894080,26350,-2,0,1968.0154518395,4980.7736882904,9988.4988250436,-2012.5370545146,-9443.7875413709,-7042.6264180284,-9818.4065911556,-22323.0877776090,-12763.0865638822,-5386.3351910958,-7274.3602040213,-3056.2577525929,-24784.1748078046,4878.3095133444,7651.9238364372,10881.9241319649
560566925074,26351,-2,0,1970.0352895121,4982.1851411218,10000.8733727125,-2008.4487083821,-9444.9434725691,-7027.4289646965,-9818.7837897572,-22324.0976964453,-12765.8851341515,-5383.7678070662,-7271.9753354440,-3060.0540740017,-24788.9567126560,4875.5109430751,7649.0035891997,10876.9962147516
560566925074,26351,-2,0,1968.3074765632,4982.5258366329,10003.0513904438,-2007.9985035996,-9445.7222051658,-7028.1103557186,-9823.6265330927,-22326.8719313210,-12768.2213319415,-5387.7466439273,-7278.7892456648,-3061.6845453760,-24793.5317666614,4872.3838449916,7647.1054284953,10874.5383399934
560566925074,26351,-2,0,1965.6792540495,4977.9142795370,9992.4776619047,-2013.1089362653,-9447.2553349654,-7042.8454365712,-9824.6486196258,-22326.1905402989,-12768.3186735161,-5391.0075866759,-7285.1529511032,-3058.7034596543,-24795.2474119134,4870.7655413142,7649.0765953806,10879.6974434463
560566925074,26351,-2,0,1966.2998065874,4978.9728691606,9985.1892115077,-2016.3455436202,-9445.4058450484,-7053.5043389881,-9823.2980052785,-22323.4893116042,-12766.4083451149,-5389.7056431158,-7281.4904743595,-3054.8828028519,-24794.0793130184,4873.0409006200,7650.0256757328,10884.4550129041
560566925074,26351,-2,0,1968.8306875266,4983.2315630486,9987.3672292390,-2012.3910421527,-9444.6392801485,-7045.7535161119,-9818.9054667254,-22322.2725419219,-12765.4105939754,-5389.7908169936,-7275.2362781925,-3055.0531506075,-24794.6755301628,4873.1990806787,7650.2446942756,10879.8191204145
560566925074,26351,-2,0,1970.5828358691,4986.2004810734,9998.9630443113,-2005.5406288414,-9445.4545158357,-7029.1081068581,-9818.9419698159,-22324.8034228611,-12767.2722515893,-5386.3351910958,-7273.2529436104,-3057.9247270577,-24795.9044675419,4872.2743357202,7650.6583959676,10877.8844566197
560566925074,26351,-2,0,1971.3615684658,4987.9526294159,10006.0324761654,-2003.4234495942,-9445.2598326865,-7027.0395983982,-9821.3633414836,-22326.8840990178,-12768.2213319415,-5385.4347815310,-7276.5503894494,-3059.1293290431,-24797.1212372242,4870.5951935586,7650.1473527010,10878.0426366784
560566925074,26351,-2,0,1969.6580909106,4984.0711341294,9995.9089524087,-2009.4586272184,-9445.6126958944,-7040.9716112604,-9823.8577193323,-22326.1540372084,-12766.3840097212,-5387.3694453258,-7282.7194117387,-3056.7322927690,-24791.3659166269,4874.6470366007,7653.9315064130,10882.1918212950
560566985889,26352,-2,0,1969.3904015805,4982.9030352344,9986.2356334345,-2013.5713087446,-9442.4125916299,-7053.2366496580,-9823.2006637039,-22323.0269391249,-12761.5290986889,-5387.1990975703,-7281.6486544182,-3052.8994682698,-24786.6326825628,4880.6578788312,7657.0707721933,10887.8984711050
560566985889,26352,-2,0,1971.6414254927,4986.9305428828,9990.8593582272,-2009.6533103676,-9442.1327346030,-7048.8197757112,-9820.4629319187,-22322.1995357410,-12760.1298135542,-5384.6560489343,-7274.0560116007,-3054.7489581869,-24786.5718440787,4880.7308850121,7656.2920395966,10886.5356890608
560566985889,26352,-2,0,1975.3890761142,4989.7899516362,10002.0779746980,-2003.3869465038,-9442.4977655077,-7033.0626083255,-9819.9032178649,-22324.0003548708,-12764.2424950804,-5384.4978688756,-7271.4034536933,-3059.1049936495,-24789.9057930082,4875.8638062830,7652.0455134054,10879.0525555147
560566985889,26352,-2,0,1977.5792615423,4991.0310567121,10007.2127427572,-2000.5397054472,-9444.4080939089,-7027.7088217234,-9822.1055709898,-22325.5943231546,-12767.2114131052,-5386.2865203086,-7275.5039675226,-3063.0716628138,-24792.9355495171,4872.2256649329,7649.2226077425,10874.4775015093
560566985889,26352,-2,0,1976.2773179822,4986.7601951273,10003.2825766834,-2006.5870507682,-9443.4955166472,-7037.8566808738,-9821.6310308137,-22325.1684537658,-12766.0676496038,-5384.9602413549,-7279.0569349949,-3058.7399627448,-24789.9301284018,4874.8173843562,7651.2424454151,10881.4495917888
560566985889,26352,-2,0,1976.6666842806,4986.4316673130,9993.6822638901,-2010.1643536341,-9439.8817106907,-7049.7688560634,-9819.1609883587,-22320.7029090317,-12760.6165214271,-5382.9039005918,-7277.4994698016,-3053.2523314777,-24782.7511872763,4879.7087984790,7656.9612629219,10888.0931542541
560566985889,26352,-2,0,1977.5427584518,4988.1473125651,9991.8692770635,-2008.3026960202,-9437.2534881770,-7046.0820439261,-9816.1190641529,-22320.2527042493,-12757.8909573388,-5382.0643295110,-7270.6855595808,-3052.0112264017,-24781.7291007432,4883.7971446115,7659.5773177388,10889.2612531491
560566985889,26352,-2,0,1978.9907143738,4989.3519145505,10002.6011856613,-2005.1512625431,-9439.1029780941,-7029.8868394547,-9817.3480015321,-22326.1175341179,-12761.0545585128,-5380.0566595352,-7268.3615294876,-3058.8859751067,-24786.0608008121,4880.4023571979,7654.6007297382,10882.6298583806
560567182779,26359,-2,0,1967.0785391841,4980.6033405348,9989.8372716941,-2014.7394076396,-9440.4414247446,-7048.6980987430,-9820.9253043980,-22323.1607837900,-12763.9748057503,-5385.6659677706,-7281.6364867214,-3049.1639853452,-24788.2144831498,4879.0395751538,7661.4511430495,10897.3649392332
560567182779,26359,-2,0,1969.0618737662,4983.9737925548,9988.5718312245,-2012.6952345733,-9439.6140213606,-7050.0122099999,-9818.7594543635,-22321.7858340490,-12761.9306326840,-5384.6803843279,-7274.0438439039,-3049.2734946166,-24789.1027250179,4879.4897799362,7659.1027775627,10896.9512375412
560567182779,26359,-2,0,1970.9356990770,4984.4483327309,9996.1036355579,-2009.1179317074,-9442.7776225346,-7038.2217117785,-9818.9176344222,-22325.8985155751,-12767.5521086162,-5386.6758866069,-7273.2407759136,-3054.6272812187,-24794.1036484121,4873.1017391042,7654.2843696208,10886.5843598481
560567182779,26359,-2,0,1969.0740414631,4983.1950599581,10002.6133533582,-2008.6068884408,-9446.9998133322,-7031.8580063401,-9822.8599681928,-22329.3298060792,-12773.2709261230,-5387.9413270765,-7278.1321900364,-3062.6701288186,-24801.0879063885,4867.5654370497,7649.1982723488,10878.5293445513
560567182779,26359,-2,0,1964.8031798782,4976.3811497373,9997.1987282720,-2015.0679354538,-9449.9565636601,-7040.6430834462,-9827.8852269807,-22332.0675378644,-12776.3493534192,-5388.1603456193,-7285.8586775190,-3062.7309673027,-24801.5259434741,4864.3775004821,7647.6043040650,10879.7582819304
560567182779,26359,-2,0,1964.1461242498,4974.8601876344,9987.4645708136,-2020.2270389067,-9447.1458256940,-7053.0906372961,-9825.6828738558,-22328.5024026952,-12771.0442376044,-5388.2333518002,-7284.7514171081,-3055.3086722407,-24794.7972071310,4871.5442739108,7653.4569662369,10888.8353837603
560567182779,26359,-2,0,1968.0032841426,4976.5271620992,9985.5420747156,-2018.8399214689,-9441.2079896444,-7052.3484077899,-9819.2583299333,-22322.2847096187,-12765.8729664547,-5383.4149438583,-7275.2606135862,-3049.7723701863,-24791.5119289888,4876.1071602194,7656.2190334157,10895.1260830178
560567182779,26359,-2,0,1969.0862091599,4979.6055893954,9995.0085428438,-2013.0846008716,-9439.3584997274,-7037.4794822723,-9815.9730517911,-22323.0999453059,-12764.3033335645,-5379.7159640242,-7268.3128587003,-3053.2158283872,-24792.5583509156,4875.3892661069,7655.0387668239,10891.9016433597
560567203795,26360,-2,0,1971.4345746467,4982.2946503932,10005.6309421703,-2007.8038204505,-9439.8330399035,-7026.8084121585,-9817.2506599575,-22324.6695781960,-12767.1140715306,-5382.1860064792,-7271.3669506028,-3056.5011065294,-24796.0018091165,4871.8484663314,7651.3276192929,10884.3211682390
560567203795,26360,-2,0,1968.9645321917,4978.2793104417,10001.6156022187,-2010.8822477467,-9443.0209764711,-7034.9120982426,-9823.4075145499,-22327.6871670081,-12770.3385111887,-5386.4203649736,-7280.5535617042,-3060.1027447890,-24798.4231807842,4868.9768898812,7649.9770049455,10883.2625786154
560567203795,26360,-2,0,1963.3187208658,4975.0670384804,9990.3239795670,-2019.6308217624,-9443.9700568233,-7052.1415569439,-9825.6463707653,-22328.3077195461,-12769.4867724111,-5389.9855001427,-7284.4593923843,-3058.6304534734,-24796.5858585640,4870.9237213728,7652.3010350387,10889.6871225379
560567203795,26360,-2,0,1964.5841613354,4976.1499634977,9982.8895168082,-2021.3342993176,-9441.0863126762,-7056.9234617953,-9823.7968808482,-22326.0323602402,-12766.5543574767,-5388.5862150081,-7279.6653198361,-3055.9900632628,-24794.4443439231,4872.8827205613,7653.9923448971,10892.8993944992
560567203795,26360,-2,0,1966.6405020985,4979.0580430383,9987.9391109897,-2016.0535188964,-9441.0984803730,-7044.9382804247,-9822.2272479581,-22327.7480054922,-12766.1649911784,-5388.0265009542,-7275.2606135862,-3059.2023352241,-24795.5151012436,4872.4203480821,7653.3352892686,10889.1882469682
560567203795,26360,-2,0,1968.2466380791,4981.9661225790,9999.6931061207,-2010.8457446562,-9442.2179084808,-7031.0792737434,-9823.9428932101,-22332.2987241040,-12768.9757291445,-5384.4370303915,-7276.8302464763,-3065.4321959974,-24798.0459821827,4870.1328210794,7649.0157568965,10883.1165662535
560567203795,26360,-2,0,1969.5242462455,4979.6055893954,10002.1874839694,-2012.6222283924,-9443.3495042853,-7033.9508501936,-9827.5566991665,-22334.5375803194,-12770.6548713061,-5385.0454152326,-7285.5179820079,-3064.2032586183,-24797.8026282463,4870.5830258618,7649.3199493171,10883.9804727280
560567203795,26360,-2,0,1970.5463327786,4978.9728691606,9994.2906487313,-2015.8831711409,-9442.7167840505,-7049.7445206698,-9827.5445314697,-22330.6195819424,-12768.3308412129,-5386.7002220005,-7287.4769811964,-3060.3947695127,-24794.1401515026,4873.5154407961,7653.3352892686,10891.5122770614
560567238870,26361,-2,0,1970.2421403581,4979.7394340604,9987.6349185691,-2017.7204933612,-9440.8551264366,-7055.4146673893,-9824.5756134449,-22326.6407450813,-12763.5124332710,-5383.0377452568,-7280.6630709756,-3055.4303492090,-24792.0959784363,4875.7299616179,7656.5110581394,10898.5452058250
560567238870,26361,-2,0,1973.4179092288,4985.2514007212,9994.8746981788,-2011.4176264069,-9438.6892764021,-7043.0157843267,-9820.4020934346,-22325.3874723086,-12762.5998560093,-5380.9327337065,-7272.6323910724,-3055.2965045439,-24791.9986368617,4875.4744399846,7657.0951075869,10895.5276170129
560567238870,26361,-2,0,1976.4476657378,4987.5632631176,10005.4119236274,-2006.2463552571,-9440.7091140747,-7028.6944051661,-9821.5823600264,-22328.4537319079,-12766.7977114132,-5381.2247584302,-7274.2871978404,-3060.9788189602,-24795.9044675419,4873.2842545565,7653.2744507845,10888.2513343128
560567238870,26361,-2,0,1973.3814061384,4984.5213389118,10008.0401461412,-2009.1909378883,-9442.8992995028,-7030.5925658705,-9825.1474951956,-22331.7390100501,-12769.2190830810,-5382.7092174426,-7281.7459959928,-3064.0815816501,-24798.5083546620,4870.8872182824,7650.8530791168,10884.7105345373
560567238870,26361,-2,0,1971.2155561039,4979.1188815224,9998.3911625606,-2015.7614941727,-9444.3472554248,-7046.9946211878,-9828.0920778267,-22330.8386004852,-12768.9270583572,-5386.0431663721,-7286.8564286585,-3061.4411914395,-24796.9508894687,4872.2013295393,7651.7534886817,10887.9714772859
560567238870,26361,-2,0,1972.9555367496,4979.3500677621,9988.8030174641,-2017.8178349358,-9441.0741449794,-7056.9599648858,-9825.2083336797,-22327.1882914384,-12764.6440290755,-5387.0652529052,-7283.6076536067,-3057.8517208767,-24790.0153022796,4875.0485705958,7653.2136123004,10889.8453025966
560567238870,26361,-2,0,1975.8879516839,4983.1585568677,9994.9720397534,-2013.6564826223,-9438.0322207737,-7045.9116961706,-9821.1321552440,-22326.6529127782,-12763.9139672662,-5383.3541053742,-7276.6598987208,-3058.2289194782,-24792.2541584950,4875.9854832512,7654.4790527700,10888.8475514571
560567238870,26361,-2,0,1979.5625961244,4986.9183751860,10008.1131523221,-2006.8547400983,-9439.0786427004,-7031.8458386432,-9822.8112974056,-22331.4591530232,-12767.4060962543,-5385.3252722595,-7277.9618422809,-3064.1910909215,-24795.6732813022,4872.2621680234,7650.1473527010,10881.3400825174
560567270174,26362,5,0,1978.8325343151,4985.8841209560,10009.3055866108,-2006.4167030127,-9440.3075800796,-7031.4929754354,-9826.1939171223,-22333.5154937863,-12768.8053813890,-5386.9557436338,-7284.7514171081,-3065.7972269021,-24797.5836097035,4871.1305722188,7649.4051231948,10879.0525555147
560567270174,26362,5,0,1978.7960312246,4985.5190900513,10004.2924955197,-2009.1544347978,-9437.8618730181,-7043.2104674759,-9824.1740794497,-22330.1937125536,-12764.1329858090,-5384.1206702741,-7285.8830129126,-3060.1392478794,-24793.0815618790,4874.6227012070,7653.8098294447,10886.3653413053
560567270174,26362,5,0,1978.6865219532,4985.6772701100,9996.2739833134,-2010.5902230229,-9432.6175956875,-7052.0442153693,-9820.0979010140,-22324.5844043183,-12758.5115098768,-5382.4658635062,-7278.7405748775,-3053.9945609839,-24787.6426013991,4879.6479599949,7657.4358030980,10893.2035869198
560567270174,26362,5,0,1979.0515528579,4987.8674555381,9996.5538403403,-2008.3148637170,-9429.9163669928,-7042.7724303902,-9814.6954436247,-22322.2847096187,-12757.1243924390,-5380.0566595352,-7271.5738014488,-3053.0941514190,-24785.4280805773,4881.3271021565,7657.8008340027,10891.3419293059
560567270174,26362,5,0,1982.7870357825,4989.9481316949,10008.1739908063,-2002.0484998532,-9430.7072672862,-7026.8084121585,-9815.2064868912,-22325.4361430959,-12759.4240871385,-5377.2824246596,-7269.8946592873,-3058.0585717227,-24788.9202095655,4874.2333349087,7651.3519546865,10883.4207586741
560567270174,26362,5,0,1978.9785466769,4985.2027299339,10010.4980208994,-2004.5793807924,-9436.4625878835,-7026.2000273174,-9819.1123175714,-22328.7335889349,-12764.7048675596,-5377.5501139897,-7276.4530478748,-3061.4655268331,-24793.1910711504,4873.0774037105,7650.4637128184,10883.9561373343
560567270174,26362,5,0,1975.1457221777,4980.1896388429,10000.7151926538,-2011.6123095561,-9437.1196435119,-7038.3920595340,-9822.3489249263,-22329.2081291110,-12764.2059919899,-5378.0854926499,-7281.9041760515,-3058.2775902655,-24791.7066121380,4874.7200427816,7652.9337552735,10889.5532778729
560567270174,26362,5,0,1975.4134115078,4981.2238930728,9995.0207105407,-2013.5834764414,-9434.4062471204,-7048.3452355351,-9819.3435038110,-22324.1341995358,-12759.1198947179,-5375.0435684442,-7276.3435386034,-3051.8043755557,-24788.6890233259,4879.4776122394,7658.2388710883,10899.6646339327
560567515192,26370,5,0,1969.6824263042,4969.1900409149,9996.4930018562,-2016.7957484026,-9436.0367184947,-7045.6683422341,-9815.7662009451,-22322.9539329440,-12757.1487278326,-5375.0192330505,-7272.4012048328,-3047.5091785772,-24787.9711292133,4876.4600234273,7655.1482760953,10898.0828333458
560567515192,26370,5,0,1973.9289524954,4976.0282865294,10007.3344197255,-2008.5095468662,-9433.3354898000,-7029.3271254009,-9812.4079166219,-22322.6862436139,-12757.2947401945,-5372.6221967764,-7266.9379089593,-3048.3365819612,-24786.7300241374,4877.4699422636,7654.7467421001,10893.5199470372
560567515192,26370,5,0,1975.7054362316,4978.3888197131,10016.7765524601,-2002.9489094181,-9434.1628931840,-7018.2910243825,-9814.3547481136,-22326.7745897464,-12759.2902424734,-5371.0525638862,-7272.1578508963,-3053.1671575999,-24789.0297188369,4875.7542970116,7652.2036934641,10886.9980615401
560567515192,26370,5,0,1971.6292577959,4975.7240941088,10014.2943423082,-2007.7794850568,-9436.2435693407,-7024.8859160605,-9819.4286776888,-22329.3054706856,-12761.2979124492,-5374.8975560823,-7282.1110268975,-3055.9048893851,-24789.6746067685,4873.1260744978,7651.4736316547,10886.6208629386
560567515192,26370,5,0,1968.4169858346,4971.6965864605,9998.3181563797,-2014.2161966762,-9438.6892764021,-7041.7868469476,-9821.2659999090,-22330.4735695806,-12762.9162161267,-5380.4825289240,-7285.7613359444,-3054.5299396441,-24789.1148927147,4873.5154407961,7650.7314021485,10891.2932585186
560567515192,26370,5,0,1965.6184155653,4971.8669342160,9991.2365568287,-2016.5523944662,-9437.9105438054,-7047.2379751243,-9819.9883917426,-22330.0963709790,-12762.0279742586,-5381.1152491588,-7279.7991645011,-3053.7025362601,-24788.8107002941,4874.3185087865,7651.1816069310,10895.6857970716
560567515192,26370,5,0,1972.1646364561,4977.7804348719,10001.7129437933,-2009.1422671010,-9437.9227115023,-7033.0139375382,-9817.3236661384,-22329.5853277125,-12762.2956635887,-5378.0611572562,-7274.8712472879,-3054.9558090329,-24789.1027250179,4871.7997955441,7647.8598256983,10889.3220916332
560567515192,26370,5,0,1973.5395861971,4979.4960801240,10009.7801267869,-2004.7010577606,-9440.6239401969,-7022.0021719135,-9818.6864481826,-22330.9481097566,-12767.0045622592,-5378.9372314275,-7278.3998793665,-3058.0707394195,-24791.5971028666,4870.8507151919,7647.4704594000,10887.1805769924
560567587746,26372,5,0,1966.4458189493,4972.2076297270,9994.9477043597,-2015.1166062411,-9442.6316101727,-7043.1739643854,-9816.9708029305,-22326.9084344114,-12762.4295082538,-5372.6952029573,-7266.2930210277,-3046.5966013155,-24789.5407621035,4879.6844630854,7662.4732295827,10903.7529800653
560567587746,26372,5,0,1969.2808923090,4975.7971002898,10007.4560966937,-2008.2783606266,-9443.3373365885,-7027.8548340853,-9816.5692689354,-22328.5997442698,-12764.4858490168,-5371.9286380575,-7267.7653123433,-3051.4271769542,-24794.2739961676,4875.1337444736,7658.7134112644,10895.1869215019
560567587746,26372,5,0,1968.2709734727,4975.7727648961,10011.5079397357,-2009.6046395803,-9444.9191371754,-7027.3802939092,-9819.1244852682,-22332.0797055612,-12768.0874872764,-5372.4883521113,-7275.2849489798,-3054.3839272822,-24794.7972071310,4873.3450930406,7656.7787474695,10892.2910096580
560567587746,26372,5,0,1966.3606450715,4971.7574249446,10002.3091609376,-2013.8024949842,-9442.3274177522,-7039.9738601210,-9820.6454473711,-22328.7214212380,-12765.5444386404,-5375.4329347425,-7279.0691026918,-3049.9548856386,-24792.0959784363,4875.6812908306,7659.3948022865,10898.2410134045
560567587746,26372,5,0,1964.0366149784,4969.3482209736,9990.4213211416,-2019.1562815863,-9440.6482755906,-7050.9612903521,-9815.2916607690,-22324.7182489833,-12761.2127385715,-5375.6154501948,-7272.9122480994,-3043.7250248653,-24787.3627443722,4882.3735240832,7663.9090178078,10906.6488919091
560567587746,26372,5,0,1963.7932610419,4970.9178538638,9992.3194818460,-2017.5136425152,-9440.0763938399,-7042.0910393682,-9812.6512705584,-22324.5357335310,-12760.0811427669,-5374.3986805125,-7267.6801384655,-3046.9007937361,-24786.5596763819,4879.4776122394,7659.6868270102,10901.5871300308
560567587746,26372,5,0,1965.2412169638,4971.4167294335,9999.6444353334,-2013.1089362653,-9441.8528775761,-7028.8039144375,-9816.4597596640,-22329.9503586172,-12764.8873830120,-5374.9218914759,-7274.3115332340,-3052.2667480350,-24793.2884127250,4875.2554214418,7657.0951075869,10896.0508279763
560567587746,26372,5,0,1962.1749573644,4968.1071158977,9998.4641687415,-2015.4694694489,-9444.8826340850,-7028.7065728629,-9823.5170238213,-22334.4767418353,-12769.1339092032,-5377.5257785960,-7285.6883297635,-3057.2068329451,-24797.2672495861,4869.9381379302,7650.7800729358,10890.8673891298
560567620449,26373,5,0,1959.2303747333,4965.8682596823,9992.8305251125,-2020.3973866622,-9445.7830436499,-7041.3853129524,-9826.9239789317,-22338.0297093076,-12768.5863628462,-5379.7646348115,-7290.9934455783,-3057.2676714292,-24798.3136715128,4868.7092005511,7649.3807878012,10895.1747538051
560567620449,26373,5,0,1960.4349767188,4965.7709181077,9984.8971867840,-2021.9426841587,-9441.9258837570,-7050.8639487775,-9821.9108878407,-22332.3595625881,-12763.0865638822,-5380.2148395939,-7284.5810693526,-3051.5123508320,-24792.5218478251,4873.6736208548,7652.0333457086,10902.6457196544
560567620449,26373,5,0,1967.7112594189,4973.4243994093,9991.3217307065,-2014.3987121285,-9434.6130979664,-7038.4407303213,-9813.4056677614,-22325.6308262450,-12757.8787896420,-5375.2139161997,-7272.3647017423,-3047.2171538535,-24788.6403525386,4876.9223959066,7655.2577853667,10902.0738379037
560567620449,26373,5,0,1973.4300769257,4977.9142795370,10007.1275688795,-2005.9786659270,-9432.3742417510,-7019.5564648521,-9810.4124143430,-22325.4361430959,-12758.2438205467,-5369.9574711722,-7267.9113247051,-3049.5411839467,-24790.7453640890,4875.0364028990,7653.2379476941,10896.2455111255
560567620449,26373,5,0,1971.0938791357,4977.0747084562,10010.7657102295,-2005.8813243525,-9435.8907061328,-7014.3486906118,-9811.8603702649,-22327.0179436828,-12762.3443343760,-5371.2594147322,-7274.0560116007,-3052.5952758492,-24794.7363686469,4872.1769941456,7651.4736316547,10891.8286371788
560567620449,26373,5,0,1970.3151465390,4975.2860570232,10005.9229668940,-2008.9354162550,-9436.4139170962,-7027.0517660950,-9813.9775495121,-22326.1783726021,-12763.4272593932,-5374.4595189967,-7278.6432333030,-3050.0157241228,-24795.5881074245,4873.0774037105,7652.8242460021,10895.6249585875
560567620449,26373,5,0,1967.6747563284,4971.1247047098,9996.6755173086,-2014.5933952777,-9436.2314016439,-7039.6088292163,-9812.8459537076,-22323.1729514868,-12759.8742919209,-5371.7339549083,-7273.3381174882,-3045.8543718093,-24790.8670410572,4874.4036826642,7655.4646362127,10900.7840620405
560567620449,26373,5,0,1971.7874378546,4973.8989395854,9998.1599763210,-2010.4320429642,-9431.8145276971,-7036.0436940471,-9807.1393038976,-22321.7736663522,-12756.3943306296,-5367.5360995044,-7264.4678665042,-3043.1774785083,-24787.9224584260,4880.3171833202,7661.2564599004,10902.5848811703
560567864032,26381,5,0,1969.6215878201,4975.2860570232,10000.4475033237,-2012.6830668765,-9432.7514403525,-7028.4023804423,-9809.2078123575,-22322.7227467043,-12759.4970933194,-5366.8790438760,-7261.9734886555,-3042.6786029385,-24789.9909668859,4879.7574692663,7662.0595278907,10905.3834514395
560567864032,26381,5,0,1969.1470476440,4972.2928036048,10009.2934189140,-2012.7195699670,-9438.0322207737,-7019.5808002457,-9814.7927851992,-22328.2225456683,-12763.7922902979,-5366.9155469664,-7271.3182798156,-3049.5655193403,-24794.7972071310,4875.5109430751,7657.5818154598,10899.0440813948
560567864032,26381,5,0,1968.1614642013,4970.3581398099,10006.5556871288,-2016.0900219869,-9440.7212817715,-7026.4433812538,-9820.2804164664,-22330.4735695806,-12766.2014942689,-5371.3324209132,-7281.7824990833,-3050.2955811497,-24795.3325857912,4873.9048070945,7658.7499143549,10899.8836524756
560567864032,26381,5,0,1968.4656566219,4968.1801220786,9996.7971942768,-2020.4460574495,-9439.2368227591,-7040.3632264193,-9817.8103740113,-22326.9206021083,-12762.6728621902,-5373.1332400430,-7278.7405748775,-3045.1121423031,-24792.2784938886,4877.1657498430,7660.9644351766,10908.7782388531
560567864032,26381,5,0,1969.0375383726,4971.2463816780,9993.9742886139,-2019.8620080020,-9434.7834457219,-7044.0865416471,-9813.2718230964,-22322.9539329440,-12757.4772556468,-5368.6676953089,-7266.9865797466,-3042.0337150069,-24789.2365696829,4879.9034816282,7661.6701615924,10912.9395911666
560567864032,26381,5,0,1975.9244547744,4976.6245036737,10003.0148873533,-2011.7461542211,-9432.1795586018,-7029.7043240024,-9809.4146632035,-22323.1486160931,-12756.2726536613,-5366.1003112793,-7264.1758417805,-3043.0801369337,-24787.1072227389,4879.8669785377,7660.7332489370,10905.2374390777
560567864032,26381,5,0,1978.4796711072,4980.7128498063,10012.7247094180,-2006.6357215555,-9431.2548136433,-7016.8309007637,-9811.9942149300,-22327.0544467733,-12760.0081365860,-5365.5892680127,-7269.9676654682,-3047.7525325137,-24791.2807427492,4879.0882459410,7658.1050264232,10898.9589075170
560567864032,26381,5,0,1977.8469508724,4978.9363660701,10018.1515022011,-2005.1634302399,-9433.0312973794,-7020.6758929598,-9816.2285734243,-22329.6096631061,-12761.3587509333,-5365.8569573428,-7276.9154203541,-3049.5776870371,-24791.3902520206,4876.4721911241,7656.7787474695,10896.9512375412
560567892624,26382,5,0,1975.4985853856,4975.1522123582,10005.8864638035,-2012.2937005781,-9434.4062471204,-7036.4938988296,-9817.0559768083,-22329.4271476538,-12760.1298135542,-5368.9840554263,-7277.1587742906,-3046.3410796822,-24789.5529298003,4877.5064453541,7659.6746593134,10903.6191354002
560567892624,26382,5,0,1971.8969471260,4972.9985300205,9996.9432066387,-2015.3234570871,-9434.5279240887,-7045.5831683563,-9814.6346051405,-22327.1274529542,-12758.6575222386,-5371.4419301846,-7270.6003857030,-3043.1896462051,-24787.1558935262,4880.8768973740,7662.0473601939,10907.8169908041
560567892624,26382,5,0,1974.1723064319,4977.6344225101,10001.3479128886,-2011.3202848323,-9435.5743460154,-7036.0558617440,-9813.1501461281,-22328.5389057857,-12759.2294039893,-5369.2274093628,-7266.5728780546,-3047.0711414916,-24788.9688803528,4881.4852822152,7661.1591183258,10904.5317126619
560567892624,26382,5,0,1974.6225112143,4980.0314587842,10009.6706175155,-2005.7231442938,-9437.3873328420,-7020.1891850869,-9814.4885927787,-22328.3928934238,-12761.6751110507,-5367.2805778711,-7270.6490564903,-3048.8962960150,-24792.2419907982,4879.1855875156,7659.5043115579,10898.2166780108
560567892624,26382,5,0,1974.3304864906,4980.7006821094,10011.6296167040,-2003.8736543767,-9437.3143266611,-7020.0431727250,-9816.4232565735,-22327.5898254335,-12763.3907563028,-5367.6942795631,-7276.6355633272,-3047.3388308217,-24794.4443439231,4876.6912096669,7658.2875418756,10898.7520566710
560567892624,26382,5,0,1970.7288482310,4978.4618258940,10004.1099800674,-2008.0106712965,-9437.6550221721,-7035.3014645409,-9815.8757102165,-22325.8498447878,-12762.2956635887,-5369.5072663897,-7274.7982411069,-3043.5181740193,-24795.2352442166,4875.9611478575,7660.0883610054,10907.1234320852
560567892624,26382,5,0,1970.3759850231,4974.8845230281,9995.6169276850,-2011.6244772529,-9437.0344696342,-7044.1352124344,-9811.8482025681,-22321.5789832030,-12762.2348251046,-5370.4806821356,-7264.7598912280,-3039.2959832217,-24793.1180649694,4875.8029677988,7660.0153548244,10911.1874428241
560567892624,26382,5,0,1973.8316109208,4979.8732787255,9999.6809384238,-2004.0318344354,-9434.8199488124,-7035.1067813918,-9808.4534151545,-22318.0990219116,-12760.7747014858,-5368.2418259201,-7259.2479245672,-3038.6267598965,-24794.6511947691,4876.7033773637,7662.5462357636,10911.4672998510
560567954314,26383,5,0,1976.5328396155,4981.9417871854,10013.1749142005,-2000.0895006647,-9435.2944889885,-7020.6393898693,-9810.9112899127,-22323.9273486898,-12763.3664209091,-5365.7839511619,-7265.0519159517,-3042.7394414226,-24797.9243052145,4874.0508194563,7659.8206716753,10904.2153525445
560567954314,26383,5,0,1976.0339640458,4981.5037500997,10016.4723600395,-2002.2310153056,-9439.0056365195,-7021.1626008327,-9815.6445239768,-22328.0521979128,-12765.6904510023,-5367.9254658027,-7274.9320857720,-3046.3532473791,-24800.2970060950,4871.7389570600,7658.2145356946,10901.7331423926
560567954314,26383,5,0,1973.3570707447,4977.6830932973,10007.1762396668,-2008.7285654090,-9438.9326303386,-7036.1532033186,-9817.6643616495,-22326.9327698051,-12765.7147863960,-5371.1620731576,-7276.3070355130,-3043.7006894716,-24797.8147959431,4874.7200427816,7660.1613671863,10906.9044135424
560567954314,26383,5,0,1972.3471519084,4975.9309449548,9997.4785852989,-2012.6830668765,-9437.6671898690,-7045.0477896961,-9813.8680402407,-22322.7349144012,-12760.8598753636,-5371.1742408545,-7265.8306485484,-3039.9043680629,-24794.1523191994,4878.3338487380,7663.4101422380,10915.3731305312
560567954314,26383,5,0,1975.8514485934,4982.3433211805,10003.4529244390,-2005.6379704160,-9435.2458182012,-7038.6475811673,-9809.2199800543,-22320.2162011588,-12760.3244967034,-5368.2904967074,-7258.7368813006,-3039.8313618820,-24792.1811523141,4879.4046060584,7664.6755827076,10913.7791622474
560567954314,26383,5,0,1978.2971556548,4987.4659215430,10013.7102928607,-1998.2156753540,-9435.8055322551,-7023.3284508672,-9810.4489174334,-22322.6497405234,-12762.1131481364,-5368.0958135583,-7263.5917923330,-3044.4064158874,-24791.8039537126,4875.6812908306,7662.1325340716,10902.9134089845
560567954314,26383,5,0,1980.0979747846,4987.2834060906,10018.3096822598,-1998.5198677746,-9438.7379471894,-7022.2455258499,-9816.5692689354,-22326.1662049052,-12765.5931094277,-5370.0061419595,-7273.3016143977,-3047.5456816677,-24796.8413801973,4873.6127823707,7660.9887705703,10903.4852907351
560567954314,26383,5,0,1976.8857028234,4983.5600908628,10011.7269582786,-2005.8448212620,-9441.7677036983,-7037.6498300278,-9821.1929937281,-22328.2225456683,-12767.5399409194,-5374.0823203951,-7277.6454821635,-3046.7426136774,-24797.9364729113,4874.7443781753,7660.3925534259,10908.2671955866
560568200280,26391,5,0,1966.4579866461,4966.0751105283,9995.7994431373,-2020.4460574495,-9442.3395854490,-7048.2357262637,-9817.9807217668,-22326.4703973258,-12767.9293072177,-5381.2369261270,-7270.2475224951,-3043.3964970511,-24795.9288029355,4877.9444824397,7667.1821282532,10930.4975776821
560568200280,26391,5,0,1962.0654480930,4962.1571121513,9987.9877817770,-2023.6339940171,-9447.3648442369,-7056.1568968955,-9818.2240757033,-22329.2933029887,-12772.4070196486,-5386.7488927878,-7263.4579476679,-3047.9715510565,-24802.1221606184,4873.7101239453,7663.4466453285,10929.1834664252
560568200280,26391,5,0,1965.2168815702,4964.4689745476,9995.8724493183,-2018.5600644420,-9445.3450065642,-7043.4659891091,-9819.7450378062,-22331.1914636931,-12772.6017027977,-5385.6538000738,-7273.2894467009,-3052.5831081524,-24801.3434280217,4874.2941733928,7665.9410231772,10922.3330531139
560568200280,26391,5,0,1973.1380522019,4974.0206165536,10011.2524181025,-2010.1765213310,-9439.0056365195,-7026.5163874348,-9818.9663052095,-22330.5952465488,-12766.9558914719,-5377.1729153882,-7283.4738089417,-3048.7624513500,-24795.5394366372,4881.1689220978,7671.6841760776,10922.6615809281
560568200280,26391,5,0,1975.9001193807,4975.8822741675,10014.6958763034,-2009.0327578296,-9434.0777193062,-7027.2707846378,-9817.0073060210,-22324.6330751055,-12761.9671357745,-5371.8312964829,-7282.9019271910,-3042.2649012465,-24791.6336059570,4882.8723996530,7673.3146474519,10927.6746720192
560568200280,26391,5,0,1972.0551271847,4969.6159103037,10002.8445395978,-2015.0557677570,-9436.1218923725,-7041.6773376762,-9812.4322520156,-22320.8732567873,-12762.8310422489,-5373.8389664587,-7268.6657219082,-3037.1179654904,-24792.2419907982,4884.1500078194,7676.9649564988,10939.7815303580
560568200280,26391,5,0,1969.3904015805,4967.5717372375,9993.9742886139,-2017.7569964516,-9438.7987856735,-7048.5885894716,-9810.9721283968,-22323.1242806995,-12764.7778737406,-5378.9493991243,-7259.0654091149,-3039.4176601900,-24792.7286986711,4878.9544012760,7671.1366297206,10936.5570906999
560568200280,26391,5,0,1969.5485816392,4967.5108987534,10000.5448448983,-2016.3333759234,-9438.6041025243,-7038.5015688054,-9815.4133377372,-22327.9548563382,-12764.1816565963,-5375.5667794075,-7267.2177659862,-3046.4262535600,-24793.5074312678,4880.9985743422,7671.1974682047,10931.6170057898
560568212658,26392,5,0,1975.5594238697,4974.6290013948,10013.7467959512,-2010.8822477467,-9434.3454086363,-7023.9976741924,-9819.8788824712,-22329.9868617076,-12760.0446396765,-5368.7528691867,-7280.7360771565,-3049.3586684943,-24790.2829916097,4884.1986786067,7673.8865292026,10925.8495174957
560568212658,26392,5,0,1979.9884655132,4978.1941365639,10016.2898445872,-2010.2130244214,-9433.3719928905,-7024.9224191510,-9820.5237704028,-22328.9647751745,-12759.3024101703,-5368.2296582233,-7286.2358761205,-3047.8012033010,-24786.7056887437,4888.2748570424,7675.6265098483,10928.4169015254
560568212658,26392,5,0,1974.4764988524,4969.5550718196,10004.3168309134,-2017.3311270628,-9439.6748598448,-7042.6750888157,-9821.9352232343,-22328.8552659031,-12763.6219425424,-5374.9827299600,-7275.4066259481,-3047.1684830662,-24789.5407621035,4884.1986786067,7672.9496165472,10932.9676201371
560568212658,26392,5,0,1968.5629981965,4965.8074211982,9994.0107917043,-2021.7358333128,-9445.1624911119,-7053.8206991055,-9820.9861428821,-22330.7777620011,-12768.3186735161,-5382.2468449633,-7263.5066184552,-3050.9526367781,-24794.8945487056,4878.2608425571,7668.0825378180,10931.3128133692
560568212658,26392,5,0,1970.9235313801,4968.0706128072,9997.1987282720,-2018.8764245594,-9442.9601379870,-7044.1717155249,-9822.0203971121,-22333.8561892973,-12767.6616178876,-5382.4171927189,-7270.2231871015,-3055.0409829106,-24793.5926051455,4879.9643201123,7669.1532951385,10924.3528907865
560568212658,26392,5,0,1979.4652545499,4976.5880005833,10014.6715409097,-2011.4054587101,-9435.8055322551,-7026.5042197380,-9823.5048561245,-22334.0022016592,-12761.2370739651,-5374.1066557888,-7283.4494735480,-3054.2622503140,-24788.6646879322,4883.5051198878,7673.2416412710,10921.2257927030
560568212658,26392,5,0,1985.0258919979,4980.4086573857,10022.6657177224,-2008.7529008027,-9430.2205594133,-7023.4014570481,-9822.6652850437,-22330.1937125536,-12758.2194851530,-5370.8943838275,-7289.0466140866,-3050.5267673893,-24784.3816586506,4886.9485780887,7675.2249758531,10922.9901087423
560568212658,26392,5,0,1980.4751733862,4975.5537463533,10010.2059961757,-2011.7339865243,-9432.7149372620,-7036.5425696169,-9818.1754049160,-22327.6384962208,-12759.4849256226,-5377.0999092072,-7277.7914945254,-3046.4749243473,-24786.5596763819,4883.9309892766,7674.0933800486,10929.2078018188
560568243824,26393,5,0,1973.4665800161,4971.8912696096,9998.6953549812,-2013.7538241969,-9436.7181095168,-7047.0919627624,-9812.4565874092,-22325.2657953403,-12762.7337006743,-5381.6506278190,-7258.5056950610,-3045.3433285427,-24790.9887180254,4881.2175928851,7671.8666915300,10933.0527940149
560568243824,26393,5,0,1974.5616727302,4974.3004735806,10002.6741918423,-2011.2716140450,-9435.7811968614,-7038.7327550450,-9810.0473834383,-22325.1197829785,-12762.5998560093,-5377.2337538723,-7259.1384152958,-3047.3631662154,-24790.5506809398,4882.5803749292,7674.6044233151,10930.5705838630
560568243824,26393,5,0,1984.2471594013,4984.4361650341,10017.7012974186,-2004.2386852814,-9429.8798639023,-7019.9945019377,-9810.5827620985,-22324.2437088072,-12757.3920817691,-5368.8502107613,-7271.9753354440,-3045.3433285427,-24785.3307390027,4888.3600309201,7680.0798868855,10926.3970638527
560568243824,26393,5,0,1991.3044235586,4990.5078457487,10028.3480321387,-1997.1449180336,-9425.9983686158,-7016.5875468273,-9811.0816376682,-22321.1774492078,-12753.8634496904,-5363.3990825846,-7278.3512085792,-3041.4374978626,-24782.3009824938,4890.8422410720,7682.2822400104,10929.3173110903
560568243824,26393,5,0,1985.8167922914,4984.6795189705,10019.5872904262,-2003.1192571736,-9430.5855903180,-7029.6556532151,-9810.7409421572,-22319.1454438384,-12758.8278699942,-5366.2828267316,-7269.8946592873,-3038.6145921997,-24786.5596763819,4883.0184120149,7676.2835654767,10934.5007499368
560568243824,26393,5,0,1977.2507337281,4980.0679618746,10004.6331910308,-2008.9232485582,-9436.0245507979,-7044.3177278867,-9808.5629244259,-22317.6974879165,-12763.2934147282,-5372.2084950844,-7253.8576348746,-3039.2959832217,-24790.0153022796,4879.6479599949,7672.4385732807,10940.5359275610
560568243824,26393,5,0,1974.9632067254,4975.6632556247,10003.3555828644,-2010.6875645975,-9436.8032833945,-7038.1122025070,-9810.1203896192,-22322.3333804060,-12763.3542532123,-5369.3612540278,-7255.0257337696,-3043.1531431146,-24791.7796183189,4879.1004136379,7673.0226227282,10933.6855142497
560568243824,26393,5,0,1980.0006332101,4980.2869804175,10017.3849373012,-2005.5892996287,-9429.5756714817,-7019.3861170965,-9811.9820472331,-22324.0855287485,-12757.5989326151,-5359.1403886966,-7268.2641879130,-3045.7448625379,-24788.4578370862,4885.6831376191,7679.8487006458,10932.9189493498
560568485100,26401,5,0,1979.1367267356,4971.5384064018,10021.6314634924,-2002.9489094181,-9424.2097171828,-7014.7380569102,-9806.4457451787,-22317.4541339800,-12745.8327697873,-5355.2345580164,-7280.5048909169,-3038.3225674759,-24778.1761332709,4891.7913214242,7687.1493187396,10932.0915459659
560568485100,26401,5,0,1979.2462360070,4973.8867718886,10021.5097865242,-2002.0119967628,-9424.3435618479,-7018.4127013507,-9803.0144546746,-22312.6113906445,-12744.0441183543,-5353.1782172533,-7275.0294273466,-3033.1877994166,-24775.4992399698,4890.9152472529,7687.5508527348,10937.2871525093
560568485100,26401,5,0,1971.6414254927,4968.4356437119,10010.1329899947,-2005.1634302399,-9429.5148329976,-7031.4564723449,-9800.7877661560,-22315.1666069773,-12750.3956560959,-5359.8339474155,-7257.2037515009,-3035.3658171479,-24783.9801246554,4884.3568586654,7680.6030978489,10941.5945171846
560568485100,26401,5,0,1963.7567579514,4961.2567025864,9998.7561934653,-2009.5681364898,-9436.5842648517,-7036.0680294408,-9801.4326540876,-22318.1111896084,-12755.5669272456,-5366.5140129713,-7248.9418853582,-3039.9530388502,-24788.3848309053,4880.1590032615,7674.9572865230,10937.3601586902
560568485100,26401,5,0,1968.0519549299,4964.3229621858,10007.6751152365,-2007.5239634236,-9431.3521552179,-7021.2234393168,-9804.0852119950,-22318.4032143322,-12751.0527117243,-5358.9578732442,-7260.2213403130,-3041.0116284738,-24782.9215350318,4885.0504173843,7679.8365329490,10931.7751858485
560568485100,26401,5,0,1978.2119817771,4972.6456668126,10022.8117300843,-2003.9953313449,-9424.1975494860,-7008.8123885574,-9805.0221246504,-22315.1057684932,-12744.5308262272,-5349.2358834827,-7275.1754397084,-3037.3004809428,-24776.7160096521,4891.6574767591,7687.2831634047,10933.1258001958
560568485100,26401,5,0,1977.6157646328,4972.6456668126,10020.0374952086,-2003.6181327434,-9425.4386545619,-7014.2391813404,-9805.0951308314,-22312.9520861555,-12746.6480054744,-5351.7180936346,-7276.8667495668,-3033.1756317198,-24776.4604880188,4891.5114643973,7688.3174176346,10937.1898109347
560568485100,26401,5,0,1966.2876388906,4965.2598748411,10004.8887126641,-2009.5924718835,-9434.7104395410,-7030.9575967752,-9803.5985041221,-22314.8502468599,-12756.5038399010,-5360.4544999535,-7261.0000729097,-3034.9277800623,-24786.3771609295,4882.8967350466,7681.6860228661,10941.3389955513
560568518243,26402,5,0,1955.8112519261,4956.9736733047,9994.6556796360,-2015.0557677570,-9443.4590135567,-7041.4218160429,-9803.8905288459,-22318.9020899019,-12763.5246009678,-5365.8447896460,-7249.7327856517,-3040.8412807183,-24793.4100896932,4876.7763835447,7676.0767146307,10938.2970713456
560568518243,26402,5,0,1963.8297641324,4963.6659065573,10005.3754205370,-2010.2495275119,-9437.2413204802,-7026.7110705840,-9803.5376656380,-22320.1310272811,-12759.0955593243,-5360.1624752297,-7258.0311548849,-3040.6222621754,-24788.6281848418,4881.4366114279,7678.7536079318,10932.7851046848
560568518243,26402,5,0,1980.9497135622,4977.0260376689,10025.9631635614,-1999.4689481268,-9423.6013323417,-7009.4572764890,-9800.7390953687,-22313.8889988109,-12746.0031175428,-5346.9483564800,-7267.9599954924,-3034.1733828593,-24778.3221456327,4891.2316073703,7687.5508527348,10933.6976819465
560568518243,26402,5,0,1988.9438903749,4981.3212346474,10032.6797322077,-1994.7478817595,-9418.6734151284,-7009.2504256430,-9796.8089292949,-22308.4257029374,-12740.3451385201,-5341.2538743668,-7269.0307528128,-3027.9800251764,-24774.3554764685,4894.9792579918,7690.7631246960,10939.0636362454
560568518243,26402,5,0,1979.1610621293,4977.2572239085,10021.5219542210,-1999.4081096427,-9425.6576731047,-7023.6083078941,-9795.7868427618,-22308.2918582723,-12746.7818501395,-5352.1196276297,-7254.4173489285,-3030.1580429077,-24780.9382004497,4885.5371252572,7682.2700723136,10940.2195674436
560568518243,26402,5,0,1964.5111551545,4964.0917759461,10002.5160117836,-2009.3491179470,-9438.2269039228,-7039.2559660084,-9797.9526927963,-22313.5118002094,-12757.9882989134,-5363.0705547704,-7244.5493468051,-3038.8457784393,-24792.6556924902,4876.3626818527,7673.5214982979,10937.9077050473
560568518243,26402,5,0,1963.2092115944,4961.0255163467,10004.4871786689,-2011.2716140450,-9437.9957176832,-7030.7264105355,-9800.7147599751,-22319.0967730511,-12755.7981134853,-5360.3571583789,-7253.0545668843,-3041.2063116229,-24791.8526244998,4878.9665689728,7675.1032988849,10934.4034083622
560568518243,26402,5,0,1973.4787477130,4970.8935184701,10022.6292146319,-2005.1025917558,-9426.0348717062,-7012.9250700836,-9797.8918543122,-22313.0494277301,-12743.7155905401,-5347.1917104164,-7264.9180712867,-3033.4311533531,-24781.8142746209,4890.3677008959,7685.0078040988,10936.8977862109
560568548530,26403,5,0,1982.5923526333,4976.3446466468,10030.5868883541,-1999.5541220045,-9417.6513285952,-7007.2062525768,-9795.1297871334,-22306.6248838076,-12737.0355249843,-5341.9352653889,-7266.9622443529,-3025.7046658705,-24774.3676441653,4897.8873375325,7692.4179314639,10941.6675233655
560568548530,26403,5,0,1975.5350884760,4972.0007788810,10022.1060036685,-2003.4599526847,-9423.8568539749,-7021.0409238645,-9792.6719123751,-22307.1237593773,-12742.6204978260,-5348.2624677369,-7253.7846286937,-3025.9723552006,-24778.7845181120,4893.9450037619,7686.1393999033,10945.0379753855
560568548530,26403,5,0,1962.5521559660,4961.6825719752,10003.5624337104,-2010.5293845388,-9435.2336505044,-7034.8269243649,-9794.7890916223,-22312.6965645222,-12751.9774566829,-5360.5640092249,-7243.0162170054,-3033.2851409912,-24788.0198000006,4884.5758772082,7676.5269194132,10940.5967660451
560568548530,26403,5,0,1959.0356915841,4957.5698904490,10001.0558881648,-2013.3887932922,-9435.4770044408,-7029.5583116405,-9797.4173141361,-22315.4464640042,-12752.2451460130,-5360.8803693423,-7251.0347292117,-3036.7407668889,-24788.1049738784,4885.6466345286,7676.3565716576,10933.5516695846
560568548530,26403,5,0,1968.5995012870,4964.5298130317,10017.5552850567,-2007.3657833649,-9424.1853817892,-7011.7569711886,-9797.2347986837,-22312.3680367080,-12742.8151809752,-5348.4328154924,-7264.1636740837,-3031.9588620375,-24778.5289964787,4894.2613638793,7687.1736541332,10934.8414454479
560568548530,26403,5,0,1976.9100382170,4971.0638662257,10025.9753312582,-2002.0363321564,-9416.2277080669,-7004.6875393344,-9794.1563713875,-22306.9655793186,-12735.7214137274,-5341.9717684794,-7269.8338208032,-3025.9115167165,-24772.0557817689,4900.4912246526,7692.9168070337,10938.7959469153
560568548530,26403,5,0,1975.6324300506,4972.4996544508,10020.8283955021,-1999.3229357649,-9417.0551114509,-7013.8254796485,-9791.1266148786,-22305.0187478270,-12738.6051578744,-5345.0866988661,-7257.7269624643,-3023.4536419583,-24771.8124278325,4895.3199535028,7687.7820389744,10942.7626160796
560568548530,26403,5,0,1966.0442849541,4966.4888122202,10006.7747056716,-2004.3968653401,-9426.2538902491,-7025.9810087746,-9791.3578011183,-22310.6158883655,-12745.3460619143,-5351.9249444806,-7242.7241922816,-3030.7907631425,-24782.0089577701,4888.4087017074,7678.0478815160,10943.5291809795
560568580274,26404,5,0,1965.0830369051,4961.6947396720,10005.3754205370,-2007.0494232475,-9427.4341568409,-7020.7975699280,-9794.3388868399,-22315.4586317010,-12746.9521978950,-5352.3386461725,-7248.8445437836,-3036.1810528351,-24782.1306347383,4888.4087017074,7676.6607640782,10936.2528982793
560568580274,26404,5,0,1976.9952120948,4971.3315555558,10022.1668421526,-1999.4811158236,-9417.0672791477,-7003.5924466204,-9794.2415452653,-22313.1467693047,-12737.0598603779,-5343.2372089490,-7262.7035504649,-3033.5284949277,-24773.3455576322,4896.4028785201,7683.3773327245,10934.2938990908
560568580274,26404,5,0,1985.5856060518,4978.2063042607,10033.3124524425,-1994.3585154611,-9409.1704439096,-6995.4279220522,-9793.3654710940,-22308.4378706342,-12730.5136394872,-5334.8049950507,-7269.5904668667,-3029.4644841888,-24768.1377833919,4899.7124920559,7688.3295853314,10937.3844940839
560568580274,26404,5,0,1986.3765063453,4977.3302300895,10031.2439439826,-1995.5022789625,-9410.2046981396,-7005.1134087232,-9789.9585159836,-22307.3184425265,-12733.2757066660,-5340.0979431687,-7261.4381099953,-3027.5906588781,-24771.2283783850,4895.6241459234,7684.7644501623,10940.8401199816
560568580274,26404,5,0,1978.0781371120,4971.8669342160,10015.7788013206,-1999.0309110411,-9419.7076693583,-7018.4127013507,-9790.4452238565,-22311.1025962384,-12742.5353239482,-5352.8983602264,-7248.1753204583,-3034.7330969131,-24781.5222498972,4887.2527705092,7674.4584109533,10937.5305064457
560568580274,26404,5,0,1973.4787477130,4965.9777689537,10012.1041568801,-2002.7663939658,-9426.0835424935,-7020.4812098106,-9795.6529980967,-22318.7439098432,-12748.4974953915,-5357.9479544079,-7251.3997601164,-3042.7029383322,-24782.9458704255,4881.1689220978,7667.4863206737,10928.0153675302
560568580274,26404,5,0,1981.6797753716,4973.4365671061,10025.5251264758,-1998.1791722635,-9419.6833339647,-7007.6442896624,-9798.1352082486,-22317.2229477404,-12742.0121129849,-5352.0344537520,-7265.7333069738,-3040.4032436326,-24780.1594678530,4887.7638137758,7674.4584109533,10926.9202748161
560568580274,26404,5,0,1990.3675109032,4978.7903537082,10035.9406749562,-1991.7789637347,-9410.0465180809,-6998.7010324975,-9795.4096441603,-22312.6113906445,-12733.7745822357,-5344.4539786313,-7273.3867882755,-3034.3924014021,-24772.6276635196,4894.4073762411,7679.7635267681,10929.3294787871
560568712650,26408,5,0,1980.2926579338,4975.6510879279,10025.2209340552,-1998.5685385619,-9427.0082874521,-7019.7998187885,-9806.7986083866,-22322.5523989488,-12750.0184574944,-5368.4608444629,-7276.0515138797,-3046.0977257458,-24785.0143788854,4884.1256724257,7670.3578971239,10919.0964457590
560568712650,26408,5,0,1985.0015566043,4979.6542601827,10030.6477268382,-1996.0376576227,-9423.4066491925,-7018.0963412333,-9806.5430867533,-22320.9340952714,-12746.3438130538,-5365.4675910445,-7280.7360771565,-3042.5204228798,-24784.5520064061,4884.8557342351,7673.4971629043,10922.6859163218
560568712650,26408,5,0,1979.1488944325,4976.9530314880,10022.3615253018,-1999.3229357649,-9428.4197402835,-7032.4055526971,-9805.0586277409,-22320.8367536968,-12752.5493384335,-5372.3058366590,-7270.4665410379,-3044.0657203763,-24790.3681654874,4878.4555257063,7668.0703701212,10926.4457346400
560568712650,26408,5,0,1970.7045128373,4970.6014937464,10008.7823756474,-2003.9831636481,-9434.9294580838,-7041.6043314952,-9805.3871555551,-22324.9007644356,-12759.0955593243,-5380.1418334130,-7257.7512978580,-3048.3244142644,-24796.0748152974,4873.1504098914,7662.5584034604,10925.3019711387
560568712650,26408,5,0,1970.0109541184,4968.5573206801,10011.9946476087,-2004.5428777019,-9434.4670856045,-7033.6466577730,-9808.2952350958,-22327.1031175606,-12756.9783800771,-5376.2603381265,-7261.9126501714,-3052.5952758492,-24794.6876978596,4874.1238256373,7663.0451113334,10921.4691466395
560568712650,26408,5,0,1977.6401000264,4973.2418839570,10024.6125492140,-2001.8051459168,-9425.3656483810,-7018.4248690475,-9808.1492227339,-22324.3167149881,-12748.8260232057,-5367.5360995044,-7272.7540680407,-3047.2779923376,-24785.3550743964,4880.3536864106,7670.9054434810,10922.1383699647
560568712650,26408,5,0,1983.1277312936,4976.5514974928,10029.6621433956,-1999.2986003712,-9419.1722906981,-7013.5091195311,-9805.0464600441,-22319.1454438384,-12743.0828703053,-5362.5595115038,-7277.0979358065,-3039.3081509186,-24781.9602869828,4886.4253671253,7676.4782486259,10924.1217045469
560568712650,26408,5,0,1978.4310003199,4973.9476103727,10021.7774758543,-2002.1458414278,-9424.0393694273,-7025.4456301144,-9805.7156833693,-22320.0945241906,-12748.5339984820,-5368.3756705852,-7270.0528393460,-3040.9142868992,-24788.8107002941,4881.3636052469,7673.2903120583,10929.9500313250
560568833909,26412,5,0,1985.9506369565,4977.2450562117,10030.6963976255,-2001.3427734375,-9421.1677929771,-7020.0188373313,-9807.3583224404,-22322.2360388314,-12743.9954475670,-5367.7672857440,-7278.7405748775,-3041.4374978626,-24776.7525127426,4898.4348838895,7682.7689478833,10932.9919555308
560568833909,26412,5,0,1978.2971556548,4969.8105934529,10017.3727696044,-2006.8060693110,-9429.5878391785,-7034.9607690299,-9805.7156833693,-22324.8885967388,-12753.2307294556,-5378.4626912514,-7267.4367845290,-3044.8201175794,-24785.6592668170,4890.1000115658,7674.8842803421,10933.3326510418
560568833909,26412,5,0,1964.9491922401,4958.7744924345,10000.6421864729,-2015.4329663585,-9440.6117725001,-7044.5854172169,-9810.0838865288,-22331.8971901088,-12761.7116141412,-5388.6957242795,-7263.0929167632,-3053.1306545094,-24795.1744057325,4882.3856917801,7666.7684265612,10928.6845908555
560568833909,26412,5,0,1967.2610546364,4961.1106902245,10007.8819660825,-2014.3865444317,-9438.1052269546,-7035.9341847757,-9812.7729475266,-22333.9048600846,-12759.9959688892,-5384.7777259025,-7271.5007952679,-3056.4402680453,-24792.9963880012,4884.5758772082,7669.0924566544,10925.5818281656
560568833909,26412,5,0,1975.9731255617,4966.7808369440,10020.4511969006,-2010.8944154435,-9429.1984728802,-7024.7885744859,-9813.3326615805,-22330.9967805439,-12752.1721398320,-5377.7447971389,-7284.9095971668,-3053.0576483285,-24785.3185713059,4890.4772101673,7674.5070817406,10924.7909278721
560568833909,26412,5,0,1981.8987939144,4970.8935184701,10024.1015059475,-2007.4631249394,-9425.7306792857,-7026.4190458602,-9811.6778548126,-22327.3708068907,-12749.6047558024,-5376.7835490898,-7286.8199255680,-3049.9183825482,-24781.0963805084,4892.7647371700,7676.9649564988,10928.3073922539
560568833909,26412,5,0,1975.4255792046,4968.0584451104,10015.1825841763,-2008.6920623186,-9430.2205594133,-7036.9319359152,-9810.2785696779,-22327.3829745875,-12754.0703005364,-5381.9669879364,-7273.2772790040,-3050.8796305972,-24786.8030303183,4884.8435665383,7670.9297788746,10931.5074965184
560568833909,26412,5,0,1965.5940801717,4959.6749019994,10004.3776693975,-2012.8534146320,-9436.1097246756,-7040.0225309083,-9807.2244777754,-22328.8796012968,-12758.4020006054,-5384.2910180296,-7259.8441417115,-3052.2424126414,-24791.6822767443,4878.6867119459,7667.0482835881,10930.5949192567
560568862557,26413,5,0,1966.0564526510,4960.9525101658,10009.8166298774,-2009.1057640105,-9427.9573678043,-7026.8570829458,-9801.8585234764,-22324.8642613452,-12751.5637549909,-5376.7957167867,-7262.1073333206,-3048.4704266262,-24786.7178564406,4883.8944861861,7673.5458336915,10929.1469633347
560568862557,26413,5,0,1976.0704671362,4969.5672395164,10025.9874989550,-2002.5230400293,-9419.9996940821,-7011.9151512473,-9801.6638403273,-22322.8444236726,-12744.3604784717,-5367.8889627123,-7272.7419003438,-3044.5889313397,-24779.6362568896,4890.1121792626,7678.5224216921,10929.1347956379
560568862557,26413,5,0,1984.5878549123,4977.5735840259,10032.3025336061,-1999.1769234030,-9420.6567497105,-7015.3464417513,-9803.2821440047,-22320.1675303715,-12745.2852234302,-5368.9353846390,-7279.2637858409,-3043.6763540780,-24780.1716355498,4890.7692348911,7680.1772284601,10930.9112793741
560568862557,26413,5,0,1979.1245590388,4974.1666289155,10018.9302347977,-2004.8227347289,-9429.4904976040,-7032.3690496066,-9806.5065836628,-22324.0855287485,-12755.3965794901,-5379.8011379019,-7273.4232913659,-3045.8787072030,-24789.6746067685,4882.1788409341,7672.3412317061,10929.1591310316
560568862557,26413,5,0,1968.6116689838,4964.9313470269,10005.1320666005,-2010.8092415657,-9440.5022632287,-7042.7359272998,-9809.0861353893,-22331.4348176296,-12763.7071164202,-5388.1116748320,-7263.4214445775,-3052.7899589984,-24799.8468013125,4873.0409006200,7662.7287512160,10925.8981882830
560568862557,26413,5,0,1968.0641226268,4965.1138624792,10009.8531329678,-2011.4176264069,-9439.0543073068,-7035.4109738124,-9810.1933958002,-22331.5443269010,-12762.4903467379,-5384.3275211201,-7267.0717536243,-3052.8142943920,-24797.8026282463,4877.6524577159,7665.2596321551,10923.5254874025
560568862557,26413,5,0,1974.4278280652,4970.1391212671,10018.9302347977,-2006.9155785824,-9428.3710694962,-7018.6560552872,-9806.7256022056,-22325.9228509688,-12753.9972943555,-5373.5226063413,-7276.1488554543,-3045.8178687188,-24786.5961794723,4887.3987828711,7674.7017648897,10926.4335669432
560568862557,26413,5,0,1978.8933727992,4972.5604929349,10026.9609147009,-2003.0097479022,-9421.6423331532,-7015.0665847244,-9803.3794855793,-22317.2959539213,-12746.4776577189,-5367.5847702917,-7277.3656251366,-3040.6952683564,-24782.5443364303,4894.2613638793,7682.9271279420,10932.8946139562
560568897839,26414,5,0,1974.5860081239,4969.2143763086,10020.4998676879,-2005.0417532717,-9425.5603315301,-7025.6281455667,-9802.2113866843,-22319.6321517113,-12750.1036313721,-5373.1697431334,-7267.9599954924,-3040.4275790263,-24786.0486331153,4890.0878438690,7678.0478815160,10935.5593395604
560568897839,26414,5,0,1962.3818082104,4959.9304236327,10003.6232721945,-2012.5127191210,-9435.2823212917,-7039.4871522480,-9804.7300999267,-22324.2923795945,-12758.9982177497,-5383.5487885234,-7258.1893349436,-3047.2414892471,-24793.3005804218,4881.8624808167,7668.7882642338,10931.2154717946
560568897839,26414,5,0,1962.9050191738,4960.1859452660,10004.7792033927,-2012.2571974877,-9436.5720971549,-7036.3843895582,-9806.9567884453,-22328.8796012968,-12759.5092610163,-5383.5731239170,-7261.8883147778,-3051.3663384701,-24793.4587604805,4881.6434622739,7668.4354010259,10925.7278405275
560568897839,26414,5,0,1972.5783381481,4968.6424945579,10020.0131598150,-2007.0007524602,-9427.5558338091,-7022.1603519722,-9806.8107760834,-22326.2513787830,-12750.5660038514,-5373.4374324635,-7272.2308570773,-3047.9715510565,-24784.2964847728,4890.9517503434,7676.0402115403,10927.9058582588
560568897839,26414,5,0,1982.8843773571,4977.2572239085,10028.9929200703,-2001.0872518042,-9418.7585890061,-7016.3685282845,-9803.8540257554,-22320.4352197016,-12743.6912551464,-5369.4585956024,-7279.2881212346,-3041.8755349482,-24775.5114076666,4898.2767038308,7682.1605630422,10931.6413411834
560568897839,26414,5,0,1981.8257877335,4976.7218452483,10024.6612200013,-1999.7001343664,-9420.5594081359,-7025.7133194445,-9801.7125111146,-22320.2527042493,-12746.5506638998,-5372.6830352605,-7271.0140873950,-3043.0071307527,-24776.9228604981,4894.4925501189,7676.9892918924,10933.3691541323
560568897839,26414,5,0,1969.6094201233,4967.1945386360,10010.7170394422,-2008.0836774774,-9431.1209689782,-7039.5479907322,-9804.0365412078,-22324.9129321325,-12755.4574179742,-5382.5875404744,-7260.3308495844,-3048.7624513500,-24788.5916817513,4887.4839567489,7670.3578971239,10934.2695636972
560568897839,26414,5,0,1966.4214835557,4963.8727574033,10007.8941337793,-2009.0814286169,-9435.2823212917,-7037.2969668199,-9807.2244777754,-22329.6096631061,-12758.7670315101,-5386.2986880054,-7263.9081524504,-3053.2766668713,-24791.5484320793,4883.8336477020,7668.5814133878,10928.7697647332
560569184399,26422,5,0,1944.7143124235,4936.9334766373,9986.4546519773,-2040.2550678773,-9455.9430704970,-7058.2984115363,-9841.2575257891,-22361.1605009680,-12785.4142875523,-5413.0432856222,-7300.4720814033,-3084.4259707380,-24821.7729909875,4852.7938531067,7640.3888598490,10883.1652370408
560569184399,26422,5,0,1955.9937673784,4944.5869579389,10001.1775651331,-2034.2077225563,-9447.9610613812,-7045.3763175103,-9838.0939246152,-22355.3930126739,-12777.0185767445,-5403.4673082226,-7309.3788354777,-3078.0866006933,-24814.3263605318,4859.8997880513,7647.8354903047,10886.1584904593
560569184399,26422,5,0,1957.6120710558,4945.5603736848,9999.5470937588,-2032.5894188788,-9446.6591178211,-7049.6350113984,-9835.7820622188,-22352.2415791968,-12777.8703155221,-5406.3510523696,-7309.3058292968,-3076.1032661111,-24812.8297338226,4860.7636945257,7648.0058380602,10888.7867129730
560569184399,26422,5,0,1946.9044978517,4937.2985075420,9985.2500499918,-2039.6101799457,-9456.8678154556,-7063.7617074098,-9836.4026147568,-22355.4416834612,-12787.1907712884,-5414.8319370552,-7296.4324060581,-3079.8752521263,-24821.9311710462,4852.2098036592,7641.1919278393,10889.2004146650
560569184399,26422,5,0,1935.7588875618,4929.2799953357,9976.0269358000,-2046.1685685332,-9464.9349984492,-7070.7459653862,-9840.6613086448,-22361.7080473250,-12795.9271776073,-5421.3416548555,-7291.6383335099,-3088.4291429928,-24831.0082728761,4843.9844406069,7632.3946830364,10884.2116589676
560569184399,26422,5,0,1937.4380297234,4928.2822441962,9979.0688600058,-2045.8035376285,-9463.0611731385,-7061.0969818056,-9842.9001648602,-22364.2267605674,-12794.7712464091,-5418.0807121069,-7302.2729005331,-3090.2664652130,-24828.9032613257,4846.7830108761,7635.3636010612,10880.8898777349
560569184399,26422,5,0,1944.1789337633,4932.8086274143,9988.8273528578,-2044.1000600733,-9456.4662814604,-7050.9126195648,-9844.0804314521,-22362.1339167139,-12787.3367836503,-5409.4051442721,-7313.8808833022,-3087.0420255550,-24820.9455876035,4851.5040772434,7639.7683073111,10880.9628839159
560569184399,26422,5,0,1944.1789337633,4933.4900184364,9990.7985197431,-2045.4628421175,-9455.6753811669,-7055.4755058734,-9845.3458719216,-22361.7202150219,-12787.6531437677,-5409.4051442721,-7317.0323167793,-3084.8761755205,-24821.8703325620,4854.4364921778,7642.4086975216,10885.9029688260
560569188648,26423,5,0,1936.6958002172,4927.1263129980,9977.0003515459,-2049.4781820691,-9464.2536074271,-7069.1641647992,-9844.5793070218,-22363.9104004500,-12793.9925138125,-5419.5651711193,-7305.6068494626,-3086.0077713250,-24826.2507034183,4849.2773887248,7636.2275075356,10887.2292477797
560569188648,26423,5,0,1927.6795368714,4921.2249800389,9966.7429831241,-2054.1749130427,-9471.2743684939,-7076.2700997438,-9845.8204120977,-22367.2686847731,-12800.1858714953,-5426.2695720687,-7297.4301571976,-3092.8338492427,-24831.4706453553,4844.5076515702,7630.5938639066,10884.5888575691
560569188648,26423,5,0,1929.5655298790,4921.5413401563,9973.5203902545,-2051.6075290131,-9467.9039164740,-7066.5846130727,-9847.1831941419,-22367.7675603429,-12797.4846428007,-5420.4534129874,-7303.3193224599,-3093.6734203235,-24828.3922180591,4847.1967125681,7633.8304712615,10881.5347656666
560569188648,26423,5,0,1939.7255567261,4929.4868461817,9985.5177393219,-2045.2803266651,-9458.7173053727,-7054.7211086704,-9845.6500643422,-22361.9027304742,-12788.9185842373,-5414.5155769378,-7314.5622743243,-3086.5674853789,-24819.8991656767,4855.0448770189,7642.5668775803,10882.7150322584
560569188648,26423,5,0,1944.0329214014,4935.3030052630,9990.3848180511,-2041.8125330706,-9453.6920465848,-7053.2853204453,-9842.4621277746,-22357.0356517450,-12785.4872937332,-5411.3398080670,-7316.4239319382,-3081.8829221020,-24816.5043782631,4857.8069441977,7646.4240374732,10888.7137067921
560569188648,26423,5,0,1937.7300544472,4929.2191568516,9980.5776544118,-2047.4705120933,-9460.4086152311,-7068.3367614152,-9841.7929044493,-22359.1893340827,-12789.7216522276,-5419.3218171828,-7305.7406941277,-3084.7910016427,-24822.3935435254,4851.3215617911,7639.0869162890,10891.2567554281
