timestamp,sequence,battery,flags,EEG-ch1,EEG-ch2,EEG-ch3,EEG-ch4,EEG-ch5,EEG-ch6,EEG-ch7,EEG-ch8,EEG-ch9,EEG-ch10,EEG-ch11,EEG-ch12,EEG-ch13,EEG-ch14,EEG-ch15,EEG-ch16
561327621437,41781,-2,0,7118.7596970495,9603.0870281769,14052.9719363855,1661.3164857204,-5996.0828142871,-3099.6964302508,-5884.8822330223,-20401.0418843666,-8325.8803957631,-2599.8231093707,-4898.5322254641,460.3283062055,-21470.8866275238,10282.0445108970,12700.3985898504,17304.6428999548
561327621437,41781,-2,0,7119.4897588589,9601.7972523136,14046.2310323455,1659.0897972018,-5992.1526482133,-3100.6211752094,-5884.6388790858,-20396.4911657549,-8320.5996153420,-2595.7712663287,-4899.9801813860,466.1931360742,-21464.8271145060,10288.2622039736,12706.7622952888,17309.8871772855
561327621437,41781,-2,0,7120.7551993285,9605.9342692334,14052.3148807570,1664.7356085276,-5993.4789271670,-3092.0794520397,-5880.5870360438,-20396.8075258723,-8321.9258942957,-2594.4449873750,-4889.9053284166,463.9056090715,-21467.5161755039,10286.8142480516,12705.6793702716,17307.8308365224
561327621437,41781,-2,0,7119.3315788002,9606.7251695269,14058.9949463128,1669.1159793839,-5999.8304649086,-3085.5210634521,-5876.8637208159,-20400.2996548604,-8327.2066747168,-2595.5400800890,-4879.9886555059,458.5639901662,-21472.1642356902,10282.3243679240,12699.3034971363,17303.0245962774
561327621437,41781,-2,0,7116.3383253817,9603.9752700449,14058.2770522003,1668.0087189730,-6002.0693211240,-3087.3948887628,-5878.3238444347,-20400.0197978335,-8329.3116862672,-2597.8154393949,-4882.6898842006,458.0772822933,-21473.4053407662,10282.3973741049,12697.6851934589,17300.7735723651
561327621437,41781,-2,0,7115.4500835137,9602.2839601866,14049.9543475734,1663.7500250850,-5998.9908938278,-3094.5251591011,-5880.8668930707,-20395.4812469186,-8323.6780426382,-2595.0533722161,-4890.8179056784,464.3801492476,-21467.4918401102,10289.4668059590,12703.7933772640,17305.9691789085
561327621437,41781,-2,0,7118.6380200813,9601.6999107391,14048.2265346245,1661.3043180236,-5990.8385369564,-3096.1556304754,-5878.9809000631,-20389.4460692944,-8314.8929655320,-2588.1056173302,-4890.1000115658,471.0237117129,-21459.2543093611,10296.7065855687,12711.9213987417,17315.2044607971
561327621437,41781,-2,0,7121.7042796807,9605.7152506906,14052.8624271140,1666.3660799019,-5988.1373082617,-3088.3926399023,-5872.0818159645,-20388.6795043945,-8312.1308983532,-2585.8789288116,-4879.3802706648,473.4329156839,-21457.7455149550,10298.1058707033,12712.9191498812,17317.9908633696
561327712844,41782,-2,0,7120.7065285412,9608.5503240504,14062.0125351249,1672.7176176435,-5990.5951830200,-3079.4980535247,-5869.0277240620,-20392.3054780478,-8315.9880582461,-2589.5292378585,-4871.6416154854,468.2616445341,-21461.2376439432,10293.2996304583,12709.5365301644,17313.4523124546
561327712844,41782,-2,0,7116.6060147118,9605.3745551796,14062.3897337264,1669.9312150710,-5994.7443676366,-3082.8198347574,-5872.8240454707,-20396.0652963661,-8319.6018642025,-2591.8532679517,-4875.2432537450,464.9763663919,-21463.7563571856,10290.7079110350,12708.6969590836,17312.9047660976
561327712844,41782,-2,0,7116.2288161103,9601.5538983772,14054.9674386644,1666.0983905718,-5991.6902757340,-3091.0938685970,-5874.7952123560,-20391.4415715733,-8315.6108596446,-2589.1885423475,-4884.7218895701,471.8876181873,-21458.4634090676,10297.7773428891,12714.0872487762,17317.9665279760
561327712844,41782,-2,0,7120.1711498810,9604.2429593750,14052.2783776665,1665.1736456133,-5983.0755463834,-3092.1159551301,-5871.1814063996,-20381.4640601785,-8306.0835530322,-2582.5936506694,-4885.7926468905,481.8894649758,-21449.0942825139,10306.3190660588,12723.7362323568,17327.2748160455
561327712844,41782,-2,0,7123.6754465660,9608.7815102900,14057.8268474178,1670.3814198535,-5979.5712496984,-3084.0244367429,-5864.2214838169,-20377.9840988872,-8302.8104425868,-2579.6734034319,-4873.0652360137,484.5420228832,-21449.9581889884,10307.0369601714,12724.8191573740,17330.2193986767
561327712844,41782,-2,0,7122.4343414900,9608.1731254489,14065.0787947243,1674.7374553161,-5985.8011104717,-3078.0622652996,-5862.4084969903,-20382.7416683449,-8309.4905081426,-2584.1146127723,-4865.4239224089,478.8353730732,-21459.2299739674,10295.6114928546,12714.3671058031,17322.0670418053
561327712844,41782,-2,0,7117.8836228783,9604.3037978592,14062.0977090027,1673.0583131545,-5992.5541822085,-3081.8099159211,-5866.2048183990,-20388.7403428786,-8317.3630079871,-2592.4616527928,-4871.2400814902,472.1553075174,-21466.2507350343,10288.7854149369,12709.4635239835,17318.5384097266
561327712844,41782,-2,0,7113.3572396601,9598.3659618096,14053.6411597107,1665.1249748260,-5992.7001945703,-3091.4588995017,-5874.3206721799,-20394.0819617839,-8317.1439894442,-2593.3742300546,-4883.7363061274,471.3765749208,-21466.1655611565,10291.9368484141,12712.3107650401,17320.4244027342
561327745465,41783,-2,0,7116.7763624674,9601.4687244994,14049.1634472799,1663.1659756375,-5984.1219683102,-3094.0627866218,-5875.6956219209,-20387.7790948296,-8308.3467446413,-2587.0348600098,-4888.7615649153,478.5190129558,-21455.8230188570,10300.5880808552,12719.0881721704,17327.2748160455
561327745465,41783,-2,0,7122.9940555439,9609.1587088915,14053.1787872314,1670.4909291249,-5978.3909831066,-3084.6206538872,-5867.2877434163,-20381.6222402372,-8303.3336535502,-2581.0483531729,-4877.9931532270,483.0940669613,-21451.1019524897,10304.7372654718,12722.7749843078,17330.0612186180
561327745465,41783,-2,0,7126.3036690797,9614.5489985841,14064.7502669101,1679.5801986516,-5979.7294297571,-3072.4286216706,-5860.3764916208,-20382.4618113180,-8305.4021620101,-2579.2840371336,-4864.9615499296,479.5532671858,-21456.2853913363,10299.4078142634,12717.5185392803,17326.0093755759
561327745465,41783,-2,0,7124.3325021944,9611.6530867402,14068.7899422553,1678.4851059376,-5985.3752410829,-3072.2826093087,-5862.4571677776,-20387.0612007171,-8310.7316132186,-2582.9708492710,-4866.0931457341,475.2945732978,-21462.5517552001,10293.3848043360,12710.5221136071,17320.1567134041
561327745465,41783,-2,0,7121.5947704093,9607.6012436982,14058.6299154081,1671.8415434722,-5989.0742209171,-3082.9901825129,-5869.5996058126,-20389.8232678959,-8313.5788542751,-2586.7671706797,-4879.6966307822,473.3355741093,-21463.2696493127,10293.1657857932,12711.4346908688,17319.3658131106
561327745465,41783,-2,0,7121.4244226537,9606.1654554731,14051.9863529428,1664.9302916768,-5985.4725826575,-3088.7576708070,-5873.1769086786,-20386.8665175679,-8308.3224092476,-2582.5206444885,-4886.4740379126,479.1639008875,-21456.6260868473,10298.9697771777,12717.7862286104,17325.2306429792
561327745465,41783,-2,0,7127.7516250017,9612.6751732733,14056.8534316720,1671.4156740834,-5980.9827025298,-3082.5886485178,-5865.9006259785,-20381.6465756309,-8301.4598282395,-2574.7211508250,-4876.7277127574,484.8462153038,-21451.6981696340,10302.9972848261,12720.5239603955,17326.3744064806
561327745465,41783,-2,0,7130.4771890900,9617.0190410391,14065.0544593306,1679.2030000501,-5983.4040741976,-3073.4750435974,-5861.0943857334,-20381.8169233864,-8304.3314046897,-2575.2686971820,-4864.1219788488,481.4635955870,-21456.5774160600,10300.6975901266,12717.9930794564,17324.7074320159
561327757927,41784,-2,0,7126.1819921115,9614.3543154349,14068.3762405633,1678.7284598740,-5987.9912958999,-3072.1609323405,-5863.9902975773,-20389.4582369912,-8310.8654578836,-2578.8216646543,-4863.0268861348,475.5865980215,-21462.4665813223,10292.9345995536,12710.4612751230,17317.5649939808
561327757927,41784,-2,0,7120.7795347221,9606.4088094095,14060.3212252665,1669.8582088901,-5992.3594990593,-3082.9293440288,-5870.5000153775,-20391.5389131479,-8313.5545188815,-2582.0582720092,-4875.2310860482,474.1508097964,-21465.0217976552,10290.0508554065,12709.2688408343,17316.2873858144
561327757927,41784,-2,0,7121.9232982235,9605.6909152970,14053.1057810505,1658.3232323019,-5987.8574512348,-3090.3759744845,-5872.6415300184,-20388.3753119740,-8308.6752724555,-2580.2087820921,-4883.0549151053,478.9692177383,-21460.6414267989,10294.6259094120,12715.2553476712,17320.3148934628
561327757927,41784,-2,0,7127.2892525224,9613.6607567160,14057.9120212956,1660.7446039697,-5982.3211491804,-3085.6305727235,-5867.2269049322,-20381.6952464182,-8304.3922431738,-2577.1303547959,-4876.4600234273,482.4856821201,-21457.3196455662,10297.7043367082,12718.0417502437,17323.2959791844
561327757927,41784,-2,0,7129.3820963759,9616.4714946821,14067.7800234190,1665.7211919703,-5985.7281042908,-3078.0622652996,-5863.1142234060,-20383.3257177924,-8307.5558443478,-2577.8604166053,-4864.3166619980,478.2026528384,-21461.5053332733,10293.2996304583,12712.8096406098,17319.6943409248
561327757927,41784,-2,0,7125.1720732752,9616.5688362567,14067.6948495412,1665.0641363419,-5992.4811760275,-3078.9140040772,-5864.1971484233,-20388.7160074850,-8315.1363194685,-2585.2218731832,-4863.4162524331,473.6032634394,-21465.4354993471,10289.5763152304,12708.3075927853,17314.9367714670
561327757927,41784,-2,0,7118.8692063209,9608.3556409012,14061.5744980393,1658.6517601162,-5998.1026519597,-3090.6314961177,-5872.6780331088,-20392.5975027715,-8318.4946037916,-2588.0934496334,-4874.9755644149,470.3058176004,-21466.5792628485,10289.5519798368,12707.1516615871,17312.6735798580
561327757927,41784,-2,0,7114.8660340662,9602.5759849103,14051.2927942239,1649.0514473229,-5998.7232044977,-3101.8744479821,-5879.4189371488,-20391.6970932066,-8316.3044183635,-2587.6189094573,-4885.8778207682,472.4594999380,-21462.9897922857,10291.8151714459,12707.1394938903,17314.5109020782
561327765278,41785,-2,0,7118.0783060274,9605.5327352383,14049.3581304290,1649.6111613767,-5993.5762687416,-3100.4021566666,-5876.2553359748,-20386.9273560520,-8311.8510413263,-2586.0614442640,-4883.5051198878,476.5721814642,-21461.9190349653,10295.7818406101,12711.3008462038,17315.9223549097
561327765278,41785,-2,0,7124.0283097738,9615.7170974791,14061.7935165821,1661.5598396568,-5991.3739156166,-3087.8694289389,-5866.8253709370,-20385.6984186729,-8312.0213890818,-2585.7815872371,-4869.8286286588,476.6938584324,-21465.1799777139,10292.7764194949,12708.3075927853,17312.7709214326
561327765278,41785,-2,0,7124.9652224292,9619.2822326482,14071.2478170135,1667.3881664350,-5994.4523429128,-3082.0654375544,-5864.2214838169,-20389.2270507516,-8315.8907166715,-2588.3003004794,-4865.5821024676,471.5834257668,-21471.9208817538,10286.2058632105,12704.0367312005,17308.9259292365
561327765278,41785,-2,0,7122.8115400915,9617.2258918851,14066.8917815509,1664.4192484102,-5996.7763730060,-3088.1492859659,-5867.4824265654,-20388.5821628199,-8317.9470574346,-2591.4152308661,-4874.2089995150,471.6442642509,-21471.1299814603,10285.8895030931,12704.0854019878,17308.3297120922
561327765278,41785,-2,0,7120.4631746047,9613.3687319923,14056.6587485228,1657.2524749815,-5993.9534673431,-3096.9221953752,-5870.8285431918,-20383.9706057241,-8313.7248666370,-2588.5558221127,-4883.4564491005,477.4482556354,-21463.6955187015,10294.7232509865,12709.9380641596,17314.8515975893
561327765278,41785,-2,0,7120.6091869666,9612.6386701829,14050.7452478669,1654.7094263455,-5989.4879226091,-3095.6202518151,-5866.8862094211,-20380.0161042566,-8307.8235336779,-2582.4354706107,-4880.2320094424,483.8241287706,-21458.2200551311,10301.2938072709,12716.2530988107,17320.3148934628
561327765278,41785,-2,0,7122.8967139693,9617.9681213913,14056.0625313785,1662.6549323709,-5987.3464079682,-3084.2312875889,-5860.2183115621,-20378.1179435522,-8307.4098319859,-2580.8658377206,-4867.7966232894,483.2035762327,-21458.7432660945,10299.2861372951,12714.9146521602,17318.4775712425
561327765278,41785,-2,0,7118.6866908686,9614.5246631904,14060.4915730220,1664.5287576816,-5991.1427293770,-3078.4151285075,-5859.3179019973,-20383.5934071225,-8312.7149478007,-2583.2385386011,-4862.9173768634,477.6307710878,-21465.0339653520,10292.1558669569,12707.5775309759,17312.6005736770
561327775253,41786,-2,0,7113.4180781442,9609.7305906422,14056.8412639752,1658.9072817494,-5994.9998892699,-3082.9658471193,-5865.6451043452,-20388.3144734898,-8316.0123936397,-2584.9420161563,-4870.5100196809,473.0313816887,-21469.8037025066,10288.2135331863,12704.1219050782,17310.4103882489
561327775253,41786,-2,0,7111.7997744668,9604.2794624655,14048.1048576563,1651.5579928684,-5993.2964117147,-3092.3836444602,-5872.0453128740,-20387.6574178614,-8314.0655621480,-2585.6477425720,-4881.5461206993,475.1972317232,-21465.5450086185,10289.8683399542,12705.9835626921,17313.0629461563
561327775253,41786,-2,0,7113.8804506235,9607.2605481871,14042.6415617828,1650.1830431274,-5989.3540779440,-3093.6004141425,-5871.2665802774,-20383.6542456067,-8310.0745575901,-2580.2696205763,-4881.5217853056,480.5875214157,-21460.3250666815,10295.1369526785,12710.8141383308,17320.0593718295
561327775253,41786,-2,0,7117.4942565799,9612.9915333907,14053.6898304980,1659.2723126541,-5991.0453878024,-3083.5863996573,-5865.5234273770,-20383.1310346433,-8310.0867252869,-2577.2763671578,-4869.1715730303,478.9570500415,-21462.4544136255,10295.2221265563,12710.3395981547,17322.1643833799
561327775253,41786,-2,0,7118.6866908686,9614.6828432491,14061.4649887679,1665.4778380338,-5993.1869024433,-3076.0424276270,-5863.7347759440,-20387.5479085900,-8313.6518604561,-2578.4566337496,-4862.0534703889,473.2990710188,-21467.9177094990,10290.1725323748,12704.7667930098,17315.9953610906
561327775253,41786,-2,0,7114.6713509170,9609.0978704074,14058.4230645621,1660.3674053682,-5998.5041859549,-3082.4791392464,-5869.8186243555,-20391.5267454511,-8319.4801872342,-2582.5936506694,-4869.2445792113,468.7240170134,-21470.0957272303,10285.1229381932,12702.6374460658,17315.3626408558
561327775253,41786,-2,0,7113.2598980855,9606.4453125000,14052.8259240236,1653.2249673331,-5996.4113421013,-3092.5053214285,-5877.2409194174,-20393.7412662729,-8315.9393874588,-2582.2042843711,-4881.8868162103,470.0137928766,-21466.2994058216,10286.9115896262,12703.7690418704,17318.3193911838
561327775253,41786,-2,0,7116.6303501055,9605.5449029351,14048.8349194657,1649.6476644672,-5988.8552023743,-3094.1114574091,-5875.0263985957,-20388.6186659104,-8309.2593219030,-2579.0771862876,-4882.9697412276,476.4140014055,-21460.4589113466,10296.1225361212,12712.6636282479,17324.3302334144
561327829693,41787,-2,0,7121.2175718077,9610.3268077865,14056.1720406499,1657.9095306100,-5986.3608245256,-3084.8031693395,-5868.2368237685,-20384.9805245604,-8306.4242485432,-2576.8261623754,-4870.6195289523,477.3022432735,-21459.6923464467,10295.0031080135,12709.1228284724,17317.7110063427
561327829693,41787,-2,0,7122.7385339106,9615.2182219093,14066.5510860399,1663.4458326644,-5988.8186992838,-3076.7116509523,-5866.2778245800,-20391.1373791528,-8310.4639238884,-2579.9410927620,-4862.5158428682,471.1332209843,-21465.1799777139,10290.0265200129,12702.9538061832,17313.5009832419
561327829693,41787,-2,0,7118.0539706338,9610.5336586325,14064.3974037022,1660.6837654856,-5992.5055114212,-3081.4448850164,-5869.9646367173,-20396.5520042390,-8315.2336610430,-2585.3557178482,-4868.6118589765,466.1566329837,-21468.0028833768,10287.7754961006,12700.1674036108,17310.7632514568
561327829693,41787,-2,0,7116.4113315627,9605.8734307493,14054.0791967963,1653.7360105997,-5992.4690083307,-3090.6071607241,-5874.4423491482,-20393.1450491286,-8311.6563581771,-2585.7329164498,-4880.7430527090,470.9750409256,-21462.8316122270,10292.6304071330,12707.4436863109,17315.3383054622
561327829693,41787,-2,0,7120.5726838761,9609.0126965296,14051.0129371970,1653.2127996363,-5984.3653222466,-3093.3692279029,-5871.8871328154,-20386.7935113870,-8304.2218954183,-2578.7243230797,-4881.0594128264,478.8840438605,-21457.4413225345,10298.8846033000,12714.8903167665,17318.9156083281
561327829693,41787,-2,0,7123.3955895390,9612.8090179384,14055.2837987818,1658.7734370844,-5982.7348508724,-3087.9667705135,-5866.7158616656,-20382.7660037386,-8303.8203614231,-2576.4976345611,-4872.2378326297,480.2346582079,-21460.8239422512,10296.1468715148,12713.1016653336,17320.6190858834
561327829693,41787,-2,0,7119.9642990350,9613.1740488431,14058.0823690511,1662.8496155201,-5986.8962031858,-3078.2934515393,-5864.0511360614,-20387.5844116805,-8310.9506317614,-2582.3989675203,-4865.2049038661,473.9196235568,-21468.9276283353,10288.5055579100,12705.9470596017,17312.4302259215
561327829693,41787,-2,0,7112.2256438556,9607.9784422997,14056.3667237991,1661.2069764490,-5991.4590894944,-3080.9338417499,-5867.9569667415,-20392.9503659794,-8316.5721076936,-2586.2926305036,-4869.0255606685,467.9209490231,-21475.5103523165,10282.9814235524,12700.8609623297,17308.3297120922
561327841726,41788,-2,0,7110.5343339972,9603.2938790229,14049.1877826735,1653.5413274505,-5989.5974318805,-3088.3318014182,-5871.7289527567,-20391.2590561210,-8314.3210837813,-2585.8789288116,-4879.2099229093,470.1233021480,-21469.8523732939,10288.0796885212,12704.5477744670,17311.4081393884
561327841726,41788,-2,0,7115.7907790247,9606.0316108080,14043.0430957779,1655.0014510693,-5981.9196151852,-3089.3417202545,-5869.0885625461,-20383.1553700369,-8306.1930623036,-2581.3038748062,-4880.5848726503,480.5145152348,-21460.7387683735,10296.2563807862,12711.9944049227,17319.7551794089
561327841726,41788,-2,0,7122.0328074949,9612.1397946131,14049.7718321210,1661.9370382584,-5979.7537651507,-3080.6539847229,-5861.4594166381,-20379.5780671710,-8304.7694417753,-2577.2398640673,-4870.4978519840,482.1936573964,-21460.9334515227,10293.7254998471,12711.7753863799,17322.3834019227
561327841726,41788,-2,0,7120.8160378126,9612.6265024861,14056.9751086402,1666.8406200780,-5984.6086761831,-3072.8058202721,-5859.0988834544,-20384.9318537731,-8310.8289547931,-2580.0627697303,-4863.0390538316,474.5645114884,-21469.7671994161,10283.8940008141,12703.1606570292,17316.7375905968
561327841726,41788,-2,0,7117.1657287657,9609.8644353072,14057.3644749385,1664.8572854959,-5990.1449782375,-3076.0180922334,-5864.6595209025,-20392.2324718668,-8317.5455234394,-2588.1177850271,-4869.1837407272,466.3878192234,-21476.0578986736,10279.0147543881,12697.6730257621,17308.5000598477
561327841726,41788,-2,0,7116.0097975675,9602.7219972722,14050.3923846590,1656.4007362039,-5991.8971265800,-3086.5066468948,-5872.5685238374,-20395.1527191043,-8318.8109639090,-2590.2227965774,-4883.1157535894,463.8204351937,-21474.0988994851,10279.2337729309,12699.7415342220,17307.2711224686
561327841726,41788,-2,0,7116.5938470150,9600.9820166265,14044.0530146142,1650.2560493083,-5986.5311722811,-3091.8482658000,-5876.1823297938,-20390.8940252163,-8311.5955196930,-2584.5039790706,-4888.6277202502,469.5270850037,-21465.3503254694,10287.7876637975,12706.6406183206,17312.8804307040
561327841726,41788,-2,0,7122.4586768837,9609.5115720994,14047.8980068103,1656.7901025023,-5979.5834173952,-3082.5034746400,-5869.4900965412,-20385.9296049125,-8305.8036960053,-2578.4688014465,-4879.6114569044,474.2724867646,-21460.4345759529,10292.0828607760,12709.8528902818,17314.5595728655
561327876804,41789,-2,0,7122.5073476710,9612.5291609115,14057.0359471243,1663.6891866009,-5983.0755463834,-3072.1731000373,-5865.7911167071,-20388.7038397882,-8310.1597314679,-2580.1844466985,-4868.2224926782,469.9772897861,-21466.8956229659,10286.5465587215,12702.3454213421,17308.6704076032
561327876804,41789,-2,0,7118.8813740177,9609.1465411947,14060.3455606602,1664.2854037452,-5990.0719720566,-3072.5989694261,-5867.8109543797,-20395.2743960726,-8316.9006355078,-2585.5504009974,-4869.7312870842,463.5162427732,-21475.5468554070,10279.1242636595,12694.1078905929,17300.9195847270
561327876804,41789,-2,0,7116.6060147118,9607.0171942507,14053.3613026838,1659.5521696811,-5993.7831195876,-3084.4381384349,-5873.5297718864,-20395.0918806202,-8319.5653611120,-2590.6973367535,-4881.8259777262,463.8447705874,-21474.8046259008,10278.3820341533,12695.4950080308,17299.8853304971
561327876804,41789,-2,0,7118.0052998465,9606.1289523826,14044.7709087268,1655.0866249470,-5991.7632819150,-3094.1357928027,-5875.0750693830,-20389.0445352992,-8315.0024748034,-2588.3611389635,-4889.4551236342,468.9673709498,-21469.2196530591,10279.9760024371,12696.4075852925,17301.4792987809
561327876804,41789,-2,0,7121.8989628298,9609.9374414882,14049.6744905464,1658.2015553337,-5988.7700284965,-3091.4954025922,-5871.4369280329,-20387.6330824678,-8313.3841711260,-2587.7040833351,-4883.4686167973,472.1553075174,-21469.7306963256,10282.2270263494,12699.1818201681,17302.7204038568
561327876804,41789,-2,0,7122.8602108788,9614.4394893127,14056.4397299800,1665.0519686450,-5991.3252448293,-3084.1217783175,-5866.5090108196,-20387.4383993186,-8317.5455234394,-2590.5513243916,-4871.6416154854,469.5149173069,-21474.2327441501,10277.9196616741,12694.4850891944,17301.7104850205
561327876804,41789,-2,0,7120.5605161793,9612.6995086670,14059.1896294620,1667.7288619461,-5993.7344488003,-3079.9725937008,-5865.4625888928,-20390.1274603165,-8321.5243603005,-2591.6220817121,-4867.7236171084,467.0083717613,-21476.3620910941,10272.9309059766,12688.8149424750,17297.6951450689
561327876804,41789,-2,0,7118.6136846876,9610.6918386912,14057.3644749385,1664.6017638626,-5993.9047965558,-3085.7279142981,-5868.9547178810,-20390.5776650989,-8319.8573858358,-2592.2061311596,-4874.3428441801,468.5901723483,-21475.9240540085,10277.5424630725,12695.8965420259,17306.0056819990
561327907773,41790,-2,0,7118.7231939590,9607.9784422997,14046.6934048248,1657.2524749815,-5989.2810717631,-3093.2718863283,-5872.0696482677,-20386.4163127855,-8312.7149478007,-2587.5945740637,-4882.3613563864,475.8907904421,-21467.2119830833,10286.2545339978,12703.6108618117,17315.4356470368
561327907773,41790,-2,0,7120.3901684238,9608.3921439917,14045.3671258711,1657.6296735830,-5984.1463037038,-3089.1957078926,-5868.1394821939,-20380.8191722469,-8308.1763968857,-2582.9343461805,-4877.8106377746,480.5266829316,-21462.5152521096,10291.4866436316,12708.1859158171,17319.9011917708
561327907773,41790,-2,0,7124.0891482580,9615.2912280903,14054.4198923074,1666.0618874813,-5985.7767750781,-3079.4737181311,-5863.3332419488,-20383.7150840908,-8309.7460297759,-2582.2042843711,-4864.7912021741,476.6816907356,-21466.8834552691,10288.3473778513,12704.8397991908,17317.5163231935
561327907773,41790,-2,0,7119.8426220668,9612.5778316988,14056.7195870069,1666.8041169875,-5992.5298468148,-3077.6242282140,-5863.7712790344,-20389.2270507516,-8316.8641324173,-2589.3102193157,-4864.2923266043,470.5978423241,-21473.2471607075,10283.2734482761,12701.1286516598,17311.7001641121
561327907773,41790,-2,0,7114.8660340662,9607.4795667300,14050.1855338130,1661.3773242045,-5996.1558204681,-3088.0032736040,-5871.3152510647,-20394.4469926886,-8320.4292675864,-2592.8145160007,-4876.0219863417,467.3125641819,-21475.2548306833,10281.4117906622,12700.7271176646,17309.3639663221
561327907773,41790,-2,0,7112.9800410586,9604.7540026416,14041.2422766481,1653.9306937489,-5994.2819951573,-3096.7153445292,-5876.3283421557,-20392.4879935001,-8315.4161764954,-2589.7117533109,-4886.3766963380,471.2914010430,-21470.0957272303,10282.5190510731,12701.7735395914,17309.9358480728
561327907773,41790,-2,0,7115.4135804232,9607.3092189744,14036.4117010094,1654.3565631377,-5989.9016243011,-3095.7905995707,-5873.1647409818,-20387.6817532551,-8310.4152531012,-2585.6720779656,-4883.0792504990,476.8277030975,-21464.2187296648,10289.1382781448,12709.6217040422,17317.4433170126
561327907773,41790,-2,0,7118.5771815972,9614.1352968921,14043.8826668587,1662.8009447328,-5990.8507046533,-3083.4282195986,-5867.4459234750,-20387.7425917392,-8312.8609601626,-2585.7329164498,-4870.9115536760,475.1120578454,-21466.6766044231,10283.7479884522,12703.0998185451,17311.4446424789
561327932970,41791,-2,0,7118.6015169908,9614.1352968921,14052.4973962094,1666.5729307479,-5996.3870067077,-3078.6098116567,-5866.9957186925,-20391.3807330892,-8319.2733363883,-2587.7892572128,-4865.5699347708,469.6852650624,-21474.9263028690,10278.9660836008,12699.8267080997,17309.4856432904
561327932970,41791,-2,0,7113.6614320807,9609.8400999136,14048.4455531673,1662.3872430408,-6000.6213652021,-3085.4602249680,-5872.2643314169,-20394.3374834172,-8323.6050364572,-2592.7293421230,-4874.9390613244,467.8357751453,-21477.9682270748,10276.1188425443,12697.6851934589,17308.5974014223
561327932970,41791,-2,0,7113.1503888141,9606.5061509841,14039.3441159438,1655.6098359104,-5997.5916086932,-3094.2087989837,-5877.9831489236,-20391.3320623019,-8319.9425597135,-2591.5855786216,-4885.8413176778,471.9849597619,-21472.6874466536,10281.2292752099,12703.1849924229,17312.5640705866
561327932970,41791,-2,0,7115.6082635724,9607.4430636395,14035.8763223492,1652.8112656411,-5993.3815855924,-3094.1357928027,-5877.0340685715,-20388.6308336072,-8314.7104500797,-2586.3047982004,-4884.0404985480,474.0778036155,-21467.1876476896,10287.0454342913,12707.7965495187,17317.2486338634
561327932970,41791,-2,0,7117.6037658513,9611.0203665054,14043.6636483159,1658.5909216320,-5992.2378220911,-3084.6571569777,-5871.2665802774,-20388.8255167564,-8314.2845806909,-2584.8811776722,-4872.2500003266,473.2625679283,-21468.5504297338,10286.5708941152,12705.7888795430,17311.3594686011
561327932970,41791,-2,0,7116.6060147118,9611.1298757768,14048.1291930499,1662.0952183171,-5997.5064348154,-3082.7103254860,-5873.5784426737,-20395.6029238868,-8319.6748703834,-2589.8090948854,-4869.4392623605,464.8668571205,-21474.6221104485,10280.6452257624,12699.0966462903,17308.7920845715
561327932970,41791,-2,0,7109.4879120704,9603.7440838053,14043.3959589858,1654.5755816805,-6003.7606309824,-3090.1812913353,-5881.8403088165,-20404.4853425675,-8325.0529923792,-2593.8122671402,-4878.0418240143,459.2697165819,-21476.6541158179,10275.9484947887,12695.0934740356,17305.4581356420
561327932970,41791,-2,0,7107.2855589455,9599.6435699760,14034.1850124908,1647.6764975819,-6000.0251480578,-3098.8811945637,-5886.0138288268,-20402.0518032029,-8318.9934793613,-2589.0668653792,-4889.1144281231,463.0417025971,-21469.4630069955,10284.3928763839,12703.2823339974,17313.5009832419
561327966824,41792,-2,0,7113.7831090489,9602.6611587881,14033.3576091069,1647.4574790391,-5988.8186992838,-3095.6932579961,-5881.2319239754,-20394.8241912901,-8308.4440862158,-2581.3282101999,-4884.2473493940,472.2283136984,-21458.9987877278,10295.6966667324,12713.1381684240,17321.5559985387
561327966824,41792,-2,0,7118.8205355336,9605.4962321478,14042.3738724527,1653.8455198711,-5988.0399666872,-3085.7887527822,-5873.6757842483,-20392.9503659794,-8307.0934718685,-2578.5418076274,-4871.0088952506,472.8123631459,-21459.0474585151,10295.0639464976,12713.6978824779,17321.7628493847
561327966824,41792,-2,0,7116.8372009515,9607.0780327348,14050.9034279256,1656.8509409864,-5994.1116474018,-3080.8851709626,-5871.7411204535,-20397.5862584689,-8314.6009408082,-2583.9564327136,-4864.8155375677,466.4486577075,-21466.5062566676,10286.7290741739,12708.1007419393,17314.6569144401
561327966824,41792,-2,0,7113.2355626919,9602.2717924897,14045.3062873870,1652.3610608587,-6001.2054146496,-3087.4678949438,-5876.7177084541,-20402.1978155648,-8323.1304962811,-2591.4030631692,-4871.5321062140,462.0439514576,-21471.5071800618,10282.4703802858,12704.1584081687,17307.8551719161
561327966824,41792,-2,0,7110.8385264178,9598.1104401763,14037.8839923250,1645.9973554203,-6001.2419177400,-3097.2142200989,-5880.4045205914,-20397.2212275642,-8319.6261995961,-2588.4706482349,-4880.4875310757,466.7041793408,-21467.4431693229,10286.8872542326,12706.2755874159,17309.7046618332
561327966824,41792,-2,0,7118.0539706338,9604.3281332528,14038.0421723837,1648.8810995673,-5989.5122580027,-3095.1213762454,-5874.5883615100,-20389.6772555340,-8310.0988929838,-2579.9532604589,-4878.7840535205,475.9029581389,-21458.7797691850,10291.5353144189,12708.0642388489,17311.9921888359
561327966824,41792,-2,0,7122.6168569424,9610.3146400897,14046.0971876805,1656.8022701991,-5984.0489621292,-3083.9757659556,-5865.8032844039,-20385.5037355237,-8306.9596272034,-2578.3227890846,-4867.3950892942,478.0566404766,-21456.5652483632,10293.6403259693,12708.4536051472,17313.3914739705
561327966824,41792,-2,0,7124.6245269182,9611.6652544370,14054.3590538233,1664.2367329579,-5985.7281042908,-3074.0104222576,-5860.8510317969,-20388.5091566390,-8309.5270112331,-2578.4809691433,-4855.9574542806,474.5401760947,-21462.7221029556,10291.7908360522,12705.9348919048,17309.3517986253
561327997773,41793,-2,0,7121.8137889521,9610.9716957181,14058.4473999558,1664.2854037452,-5988.6118484378,-3075.2150242431,-5862.4450000807,-20390.3829819497,-8313.1894879768,-2580.8293346301,-4858.1476397088,471.5104195858,-21464.9852945647,10290.0021846192,12702.1750735865,17307.9281780970
561327997773,41793,-2,0,7121.8016212552,9607.4795667300,14050.6965770796,1658.4570769670,-5986.1783090732,-3082.7346608796,-5865.8641228880,-20386.6231636315,-8310.2084022552,-2580.0506020334,-4868.7213682479,476.7303615229,-21461.1403023686,10294.2852139009,12706.9569784380,17311.7731702931
561327997773,41793,-2,0,7125.0382286101,9608.5989948377,14044.5032193967,1656.9969533482,-5979.0358710382,-3084.9978524887,-5863.7347759440,-20380.1742843153,-8303.5040013057,-2575.1835233043,-4871.1305722188,483.1914085358,-21454.4845722065,10298.9089386936,12712.7853052162,17319.0372852964
561327997773,41793,-2,0,7127.3865940970,9615.8631098410,14052.2905453634,1663.8351989627,-5977.0890395465,-3076.8333279205,-5858.4539955228,-20379.2130362663,-8302.3724055012,-2571.8617420716,-4862.3454951127,483.7146194992,-21457.0397885393,10297.5704920431,12711.6537094116,17318.8547698440
561327997773,41793,-2,0,7126.2306628988,9618.1871399341,14056.9264378529,1667.8140358238,-5984.9128686037,-3070.1897654552,-5857.0547103882,-20384.4938166874,-8310.6586070376,-2578.0794351481,-4857.5514225644,475.6839395961,-21467.5283432007,10286.8507511421,12704.7059545257,17306.6018991433
561327997773,41793,-2,0,7121.2175718077,9615.7414328727,14057.2062948798,1667.5950172810,-5992.0066358514,-3074.6796455829,-5860.6806840414,-20390.2369695879,-8316.6086107840,-2583.1898678138,-4861.6154333033,468.4076568960,-21474.6951166294,10280.2436917672,12699.2913294395,17306.2977067228
561327997773,41793,-2,0,7119.6601066144,9611.7017575275,14051.2076203461,1661.7180197155,-5992.4811760275,-3084.2312875889,-5867.5189296559,-20391.5024100575,-8316.2314121825,-2583.1168616328,-4873.1382421946,469.5879234878,-21471.4585092745,10278.2116863978,12697.6365226716,17306.8087499893
561327997773,41793,-2,0,7121.5704350156,9610.9351926277,14042.3008662717,1657.2281395879,-5985.4482472639,-3089.0861986212,-5867.2634080226,-20386.3068035141,-8309.3566634776,-2579.1866955590,-4878.7232150364,477.4117525450,-21463.6468479142,10288.7245764528,12708.0520711520,17317.0296153206
561328045493,41794,-2,0,7126.1819921115,9617.3597365502,14048.4333854705,1663.8838697500,-5980.0579575713,-3080.7878293880,-5860.2548146526,-20380.5271475232,-8303.6986844549,-2573.2488595094,-4868.7822067320,482.2544958805,-21459.5463340848,10291.3771343602,12710.4126043357,17320.8624398198
561328045493,41794,-2,0,7126.9728924050,9620.9857102034,14060.6132499903,1671.0019723914,-5980.1796345395,-3069.1311758316,-5854.8036864759,-20381.4032216944,-8305.5238389783,-2571.6548912256,-4854.9475354443,479.4315902176,-21463.3183200999,10288.1648623990,12706.5919475333,17317.5528262840
561328045493,41794,-2,0,7126.5105199257,9620.1948099099,14064.3487329149,1674.7496230129,-5983.1972233516,-3066.1500901100,-5855.0835435029,-20382.9120161005,-8308.4562539127,-2575.0983494265,-4854.1322997572,476.7668646133,-21466.2385673375,10286.4613848438,12704.7789607067,17314.6690821369
561328045493,41794,-2,0,7126.3645075638,9618.3453199928,14061.7326780980,1670.8802954232,-5980.3013115078,-3073.2438573578,-5858.0767969213,-20381.1842031516,-8306.1687269099,-2574.5873061599,-4863.0512215284,479.7722857286,-21463.2088108285,10289.6736568050,12708.6726236900,17318.8182667536
561328045493,41794,-2,0,7128.7980469284,9620.2191453036,14057.8025120242,1667.8505389143,-5974.4486493359,-3078.7071532313,-5857.7361014103,-20374.7839946227,-8297.0186188991,-2567.5908804868,-4866.1296488246,489.0684061013,-21456.0663727935,10296.6092439941,12718.9056567181,17328.0900517326
561328045493,41794,-2,0,7131.5601141072,9624.2101498615,14059.5424926698,1670.9776369978,-5968.3891363181,-3070.5182932694,-5850.5814956784,-20369.4302080206,-8292.7477573142,-2563.7093852002,-4858.1963104961,493.4974477449,-21452.7689269545,10297.4244796812,12719.7938985862,17328.9296228134
561328045493,41794,-2,0,7131.3654309581,9627.1790678863,14065.3951548417,1677.1709946807,-5971.3702220397,-3061.8670608283,-5844.9965228366,-20369.4180403238,-8295.4368183121,-2564.1839253763,-4844.6414962353,491.3437654072,-21458.0253719820,10294.1878723263,12718.1877626055,17327.1653067741
561328045493,41794,-2,0,7126.5835261067,9622.4336661253,14066.8431107636,1674.8834676780,-5979.0967095223,-3061.1126636253,-5845.9334354920,-20375.3923794639,-8301.4598282395,-2568.1140914501,-4843.8140928513,484.8097122133,-21464.9366237774,10287.6416514356,12710.4491074262,17319.5239931693
561328075312,41795,-2,0,7122.3491676123,9617.8464444231,14058.7150892859,1669.3349979267,-5983.4162418944,-3072.8301556658,-5853.0028673461,-20378.7749991807,-8306.8379502352,-2574.0275921061,-4857.0768823883,482.3883405455,-21464.6567667505,10287.3374590150,12708.7456298709,17316.4820689636
561328075312,41795,-2,0,7122.5560184583,9615.7536005696,14049.8935090893,1663.9447082341,-5981.4694104028,-3081.9924313734,-5857.1520519628,-20376.8281676890,-8303.8446968168,-2573.8694120474,-4866.8475429372,486.6105313431,-21460.1547189260,10291.4014697539,12713.9412364143,17322.6145881623
561328075312,41795,-2,0,7125.6952842386,9619.7811082179,14052.4122223316,1664.1028882928,-5978.8898586763,-3079.1816934073,-5855.3755682266,-20374.2729513562,-8300.0240400144,-2570.5111277243,-4862.9660476506,488.9467291331,-21459.0474585151,10293.6889967566,12716.8979867423,17325.6321769744
561328075312,41795,-2,0,7129.4551025569,9624.8307023995,14062.0733736090,1674.1290704749,-5978.7560140113,-3070.7129764186,-5851.6765883924,-20376.5239752684,-8304.2097277215,-2573.4192072649,-4854.4851629651,484.6758675482,-21463.3791585841,10289.0166011766,12711.5928709275,17320.8016013357
561328075312,41795,-2,0,7128.2626682682,9623.2854049030,14067.3541540302,1675.4796848223,-5984.9007009068,-3069.1555112252,-5854.4021524808,-20381.0625261834,-8310.0258868028,-2578.0064289672,-4853.0007039527,477.7524480560,-21467.4918401102,10283.6263114840,12706.5797798365,17314.9246037702
561328075312,41795,-2,0,7122.3004968250,9617.7734382422,14062.4140691201,1669.1403147775,-5987.3585756651,-3077.1983588252,-5861.4594166381,-20386.3554743014,-8312.2039045341,-2579.8559188843,-4864.6451898122,475.4649210533,-21469.0858083940,10282.5312187699,12705.3386747605,17314.7542560147
561328075312,41795,-2,0,7122.0328074949,9617.0312087360,14054.1035321900,1664.5652607721,-5984.5965084863,-3085.1560325474,-5864.9028748390,-20381.7925879927,-8307.3976642891,-2578.0550997545,-4874.2455026055,480.7335337776,-21462.6004259874,10290.1847000716,12711.7388832894,17319.6578378343
561328075312,41795,-2,0,7127.5326064588,9622.4823369126,14052.9841040823,1667.2178186795,-5976.6631701577,-3080.6418170261,-5859.0380449703,-20374.3702929308,-8300.9487849729,-2572.8351578174,-4868.2224926782,487.8516364190,-21456.5165775759,10295.5019835832,12716.6181297154,17324.5735873508
561328091899,41796,-2,0,7133.6286225671,9628.7487007765,14065.3951548417,1677.5968640695,-5975.3612265976,-3068.0847539048,-5851.2020482163,-20373.1535232485,-8302.1290515647,-2570.3894507560,-4853.8037719430,486.7687114018,-21461.0064577036,10291.7056621744,12712.8583113971,17322.4564081036
561328091899,41796,-2,0,7131.7061264691,9628.9433839256,14069.9337057566,1679.7383787103,-5980.2648084173,-3063.9842400755,-5850.8370173117,-20378.9210115425,-8308.0790553112,-2576.1447713533,-4850.9565308864,480.7213660808,-21467.1876476896,10283.3342867603,12707.7843818219,17317.5041554967
561328091899,41796,-2,0,7126.9242216177,9623.2610695093,14065.1883039957,1672.3890898293,-5983.7934404959,-3071.3943674407,-5856.5071640312,-20382.7781714354,-8311.4860104216,-2579.5517264637,-4860.3621605305,477.7646157528,-21467.6621878657,10283.2734482761,12707.6748725505,17316.1292057557
561328091899,41796,-2,0,7128.6155314761,9619.6350958561,14056.9142701561,1666.3904152956,-5981.5910873710,-3080.1186060627,-5862.9195402568,-20380.1377812248,-8307.6410182255,-2577.6048949720,-4871.0575660379,480.5875214157,-21460.5927560116,10290.1360292843,12714.3184350158,17324.2085564461
561328091899,41796,-2,0,7131.4871079263,9621.6062627414,14054.2617122487,1664.7234408308,-5978.9263617668,-3082.0654375544,-5861.6175966968,-20377.3513786524,-8302.5549209535,-2575.3295356661,-4870.3640073190,483.8606318611,-21455.2633048032,10295.2586296467,12716.9344898328,17326.1553879378
561328091899,41796,-2,0,7129.9174750361,9623.0055478760,14055.8070097452,1667.8870420048,-5983.8421112832,-3075.9572537493,-5860.0357961098,-20380.9165138215,-8307.2151488367,-2578.7364907766,-4861.9682965112,479.4437579144,-21460.6657621925,10291.1337804238,12712.3351004337,17321.0936260594
561328091899,41796,-2,0,7126.7295384685,9620.7666916606,14062.1707151836,1669.2498240489,-5988.6483515283,-3073.8887452894,-5862.3963292935,-20388.3631442771,-8313.9560528766,-2583.2142032074,-4858.0868012246,471.3522395271,-21468.1488957387,10284.8309134695,12706.4215997778,17313.6713309975
561328091899,41796,-2,0,7119.8547897636,9613.3687319923,14057.7416735400,1660.3187345809,-5992.9678839004,-3081.3475434418,-5869.6604442968,-20394.0211232998,-8318.2634175520,-2587.8500956970,-4867.6141078370,466.3269807393,-21470.6432735874,10282.2635294398,12704.6207806480,17310.6902452758
561328133098,41797,-2,0,7117.4942565799,9609.0370319233,14044.8804179982,1651.3024712351,-5991.8241203991,-3093.8681034726,-5877.6302857158,-20394.5686696568,-8316.1097352143,-2588.5071513254,-4881.0472451295,467.4950796343,-21465.3259900757,10286.7534095675,12709.4270208930,17315.9710256970
561328133098,41797,-2,0,7122.5316830646,9612.2128007941,14043.8339960714,1653.1154580617,-5985.5455888385,-3092.9676939077,-5875.9633112510,-20391.1982176369,-8307.8600367683,-2582.1434458870,-4881.2175928851,472.3621583634,-21457.3318132631,10294.6137417151,12714.9146521602,17321.7750170815
561328133098,41797,-2,0,7129.3455932855,9618.1263014500,14054.0913644932,1661.2434795394,-5984.4626638212,-3084.1096106206,-5869.8551274459,-20390.5046589180,-8305.8523667926,-2577.0573486150,-4868.7578713384,472.7393569649,-21457.0519562361,10296.6579147814,12715.8028940282,17321.3613153896
561328133098,41797,-2,0,7127.0215631923,9619.8176113084,14058.9219401319,1665.7455273639,-5986.2634829510,-3076.7116509523,-5867.4337557782,-20393.9846202093,-8309.3566634776,-2580.3547944540,-4861.0557192494,467.7019304802,-21463.1844754349,10290.9999357587,12710.2665919738,17315.9101872129
561328133098,41797,-2,0,7120.6700254507,9613.6972598065,14054.2860476423,1659.9902067667,-5991.1183939834,-3081.0068479308,-5873.1404055881,-20400.1779778922,-8315.3796734049,-2584.8325068849,-4868.1616541940,463.9907829492,-21469.0128022131,10286.4857202374,12707.4193509172,17308.5974014223
561328133098,41797,-2,0,7117.0075487070,9607.6864175759,14046.2310323455,1650.3777262766,-5992.6636914799,-3093.0528677855,-5877.3747640825,-20397.1847244738,-8316.1340706079,-2584.7838360976,-4879.1855875156,466.3269807393,-21465.5815117090,10287.5808129515,12711.6415417148,17317.2486338634
561328133098,41797,-2,0,7122.8480431820,9612.0546207354,14043.3229528049,1650.8400987558,-5985.7281042908,-3093.5882464457,-5874.1503244244,-20391.0522052750,-8310.0623898933,-2581.4012163808,-4879.3802706648,474.2116482805,-21457.1249624171,10292.8737610694,12715.4743662140,17319.8038501962
561328133098,41797,-2,0,7126.5105199257,9617.2867303692,14050.8912602287,1657.8851952163,-5982.7470185692,-3083.4282195986,-5865.8762905848,-20387.3532254408,-8306.6919378733,-2576.7653238913,-4867.3220831133,474.9417100899,-21458.1227135565,10294.7475863802,12718.0052471532,17323.3446499717
561328159064,41798,-2,0,7124.7948746737,9617.1042149169,14059.2504679461,1661.1583056617,-5988.1251405649,-3077.6363959108,-5864.8177009612,-20392.8651921016,-8312.8974632530,-2581.1821978380,-4861.2869054891,467.6654273898,-21467.9177094990,10285.3541244329,12709.4026854994,17315.9466903033
561328159064,41798,-2,0,7118.3703307512,9610.2294662119,14055.9530221071,1657.1307980133,-5995.7786218665,-3083.5985673541,-5871.6072757884,-20399.5330899606,-8320.5022737674,-2591.4760693502,-4870.1814918667,461.1922126800,-21475.2669983801,10277.9561647645,12701.8830488628,17308.4270536668
561328159064,41798,-2,0,7114.0751337727,9604.3768040401,14044.9534241791,1649.4408136212,-5994.8052061207,-3094.5008237074,-5877.6302857158,-20399.3262391146,-8320.9524785498,-2592.6806713357,-4882.6290457165,463.7230936191,-21473.1254837392,10280.6938965497,12704.2679174401,17310.6659098822
561328159064,41798,-2,0,7117.3482442180,9607.1753743094,14041.6803137338,1647.8955161247,-5989.2689040663,-3097.8104372433,-5876.0484851288,-20392.0621241113,-8314.0533944512,-2588.1664558143,-4883.8336477020,470.0259605734,-21464.7541083251,10288.9192596020,12711.5198647466,17318.7209251790
561328159064,41798,-2,0,7122.6655277297,9617.7612705453,14047.4599697247,1657.7635182481,-5984.7425208481,-3087.9302674230,-5868.5410161890,-20386.6718344187,-8310.8532901868,-2583.7374141708,-4872.0796525710,474.0047974345,-21462.7951091366,10291.9246807173,12715.6082108791,17322.9066128861
561328159064,41798,-2,0,7122.0814782822,9620.5355054210,14055.0404448454,1665.0763040387,-5986.5798430684,-3077.9892591187,-5863.4427512202,-20388.4604858517,-8314.7712885638,-2584.3457990119,-4860.6055144670,472.1796429111,-21466.2142319438,10288.3230424577,12713.3450192700,17319.1711299614
561328159064,41798,-2,0,7116.8858717388,9616.1429668679,14055.8070097452,1660.3065668841,-5993.8196226781,-3080.9338417499,-5868.4801777049,-20392.5609996811,-8319.7600442612,-2588.5436544159,-4863.5257617045,466.1809683774,-21471.5315154554,10279.8543254689,12707.1394938903,17311.3351332074
561328159064,41798,-2,0,7113.6127612934,9609.9131060945,14045.4888028393,1652.8842718221,-5992.7123622672,-3092.3106382793,-5875.4401002876,-20392.5001611969,-8320.2102490436,-2590.3688089393,-4875.7542970116,468.1156321722,-21471.0934783698,10281.9593370193,12709.1593315629,17313.8416787530
561328200303,41799,-2,0,7111.3495696843,9605.3745551796,14034.9880804811,1646.7152495329,-5988.6361838315,-3097.6279217909,-5876.6933730604,-20388.3388088835,-8313.7978728179,-2586.3169658973,-4880.5118664693,472.6420153904,-21464.3039035426,10287.6173160419,12711.5320324434,17317.4798201030
561328200303,41799,-2,0,7110.8750295082,9605.9707723239,14037.9569985059,1647.1289512248,-5988.1738113522,-3093.9532773504,-5874.6735353878,-20388.7525105755,-8314.2967483877,-2586.4873136528,-4875.4622722878,470.1598052385,-21466.1898965502,10284.1495224474,12706.9204753475,17315.4234793400
561328200303,41799,-2,0,7114.7808601884,9608.0879515711,14045.5861444139,1652.1177069222,-5994.2941628541,-3087.4192241565,-5874.0529828498,-20397.2820660484,-8321.2931740609,-2592.6685036388,-4868.9647221844,462.5549947241,-21472.9551359837,10277.9683324613,12698.6586092047,17307.6604887669
561328200303,41799,-2,0,7116.2896545945,9609.4750690089,14050.6357385955,1653.3466443014,-5998.3946766835,-3088.7698385038,-5876.0119820383,-20402.8305357996,-8324.8948123205,-2595.6739247541,-4870.1206533825,457.9677730219,-21475.0723152309,10276.6907242949,12697.0889763146,17305.1661109182
561328200303,41799,-2,0,7118.9422125019,9609.7549260358,14048.9444287371,1651.1442911764,-5995.9368019252,-3096.3989844118,-5879.6744587820,-20400.3726610414,-8321.3783479386,-2592.5346589738,-4878.5650349777,460.9245233499,-21470.1322303208,10280.1341824958,12700.9339685106,17309.0719415984
561328200303,41799,-2,0,7123.3104156613,9611.0568695959,14044.7952441204,1649.5016521053,-5987.7114388729,-3100.2804796983,-5877.9466458332,-20391.9039440526,-8310.7559486122,-2584.7351653103,-4881.5947914866,469.2837310672,-21458.0132042851,10289.5276444431,12708.2467543012,17314.1093680831
561328200303,41799,-2,0,7128.7980469284,9617.5300843057,14048.7132424974,1654.4417370154,-5978.4761569843,-3087.5165657311,-5869.7456181745,-20387.3653931377,-8303.0172934328,-2577.6048949720,-4871.1062368252,474.9417100899,-21450.2380460153,10297.2176288352,12714.7321367078,17320.1567134041
561328200303,41799,-2,0,7133.3609332370,9624.4291684043,14063.4239879564,1663.6526835104,-5978.2328030479,-3075.0446764875,-5862.0191306919,-20390.2248018910,-8303.8081937263,-2574.8428277932,-4857.5270871708,471.7172704318,-21455.6891741920,10293.4821459106,12712.1404172845,17318.1368757315
561328221778,41800,-2,0,7128.9318915935,9619.9027851862,14063.0102862644,1665.4291672465,-5983.8542789801,-3074.1929377099,-5865.1218933818,-20393.6439246983,-8309.4783404458,-2580.3426267572,-4857.6487641390,466.0349560155,-21463.2574816158,10285.7556584280,12707.2246677681,17313.6348279070
561328221778,41800,-2,0,7124.5028499499,9615.9969545060,14054.4563953979,1657.9460337004,-5986.5555076748,-3084.6571569777,-5871.7532881503,-20397.0143767182,-8310.8897932773,-2584.1876189532,-4870.2544980476,464.2098014921,-21464.6445990536,10285.3419567360,12707.8330526092,17313.5618217260
561328221778,41800,-2,0,7125.9751412655,9613.8676075620,14050.2585399939,1654.1983830790,-5980.9218640457,-3090.0839497607,-5872.7388715930,-20391.8917763558,-8304.2705662056,-2579.1988632558,-4877.2265883271,471.0967178938,-21457.7698503487,10291.9003453236,12714.4644473777,17321.0936260594
561328221778,41800,-2,0,7130.4285183027,9619.1727233768,14052.4000546348,1658.1285491528,-5975.8601021674,-3084.9978524887,-5867.7622835924,-20386.6718344187,-8298.8437734225,-2574.4169584044,-4869.7434547810,476.0002997135,-21454.1803797859,10294.7840894707,12717.7253901263,17324.5370842603
561328221778,41800,-2,0,7133.7502995354,9624.1249759837,14062.1950505772,1666.5120922638,-5976.0061145293,-3074.1077638322,-5860.4251624081,-20386.0391141840,-8301.7153498728,-2575.4268772407,-4857.0403792979,474.4550022170,-21456.6260868473,10293.0319411281,12715.1458383998,17319.9498625581
561328221778,41800,-2,0,7126.9850601018,9619.7811082179,14063.4604910468,1667.2178186795,-5984.4018253371,-3073.8035714116,-5862.7856955918,-20392.5609996811,-8310.7072778249,-2580.5129745127,-4855.8479450092,468.1277998690,-21465.1069715329,10286.0720185454,12709.5365301644,17315.9831933938
561328221778,41800,-2,0,7117.8592874846,9612.2249684909,14052.4487254221,1658.1042137591,-5990.4004998708,-3085.0343555792,-5870.6581954362,-20395.9557870947,-8314.3575868718,-2584.5648175548,-4868.4293435241,466.5459992821,-21465.2651515916,10283.7844915427,12706.8474691666,17313.6226602102
561328221778,41800,-2,0,7118.5650139003,9611.4219005006,14043.5541390445,1652.4827378269,-5986.8962031858,-3093.7220911108,-5874.7708769624,-20391.2347207273,-8310.3787500107,-2582.9343461805,-4877.4942776572,472.6906861777,-21459.1082969992,10290.9512649714,12713.7952240525,17322.7362651305
561328254393,41801,-2,0,7121.1689010205,9614.5611662809,14043.0552634748,1653.2493027268,-5981.4815780996,-3090.5098191495,-5870.9380524632,-20385.4915678269,-8305.7063544307,-2576.6558146198,-4871.3739261553,478.9692177383,-21454.4724045097,10298.9454417841,12720.1345940972,17328.3090702755
561328254393,41801,-2,0,7123.2860802676,9618.9050340467,14052.4852285125,1660.5620885174,-5983.2337264421,-3080.8608355689,-5864.5135085406,-20386.8178467806,-8307.0082979907,-2576.8139946785,-4858.7560245499,478.2148205353,-21455.8108511602,10297.5948274368,12719.7452277989,17326.4109095711
561328254393,41801,-2,0,7119.8791251572,9617.4205750343,14055.2959664786,1661.7423551092,-5989.4027487313,-3078.8653332900,-5866.2169860959,-20391.0157021845,-8313.8708789989,-2583.5548987185,-4855.8966157965,472.2404813952,-21461.7730226034,10291.9125130204,12714.4887827714,17320.4730735215
561328254393,41801,-2,0,7113.0043764523,9609.9739445787,14048.6889071038,1654.5147431964,-5996.2531620426,-3088.8671800784,-5873.7244550356,-20395.7124331582,-8319.6140318993,-2588.7261698682,-4865.8132887072,467.2395580010,-21466.1412257629,10286.5587264183,12710.8384737245,17318.6235836044
561328254393,41801,-2,0,7109.7556014005,9607.6620821823,14040.6703948975,1646.4475602028,-5992.0066358514,-3098.0416234829,-5877.8006334713,-20393.1207137349,-8316.3409214539,-2585.8302580243,-4877.1049113589,472.5203384221,-21461.7730226034,10291.1702835142,12715.0241614316,17324.2693949302
561328254393,41801,-2,0,7118.9178771082,9614.2204707699,14041.9966738512,1653.5778305410,-5981.1165471949,-3091.3858933208,-5870.7920401013,-20384.5911582620,-8306.7406086606,-2578.7121553829,-4871.3617584585,480.5753537189,-21453.6815042162,10295.5019835832,12718.9543275054,17327.4573314978
561328254393,41801,-2,0,7124.0161420770,9620.1339714258,14052.6434085712,1662.7887770360,-5977.8921075368,-3077.5512220331,-5861.1795596112,-20381.8169233864,-8304.8546156531,-2574.7576539155,-4855.7384357378,481.5122663743,-21454.5697460843,10298.3370569430,12723.3346983616,17330.9251250924
561328254393,41801,-2,0,7123.2374094804,9620.0244621544,14061.3189764060,1666.3782475987,-5982.5036646327,-3071.1266781106,-5858.6365109752,-20385.2482138905,-8308.6144339714,-2574.9036662773,-4849.3138918153,478.2513236257,-21459.1326323929,10295.9886914561,12721.2540222049,17328.7471073611
561328285549,41802,-2,0,7120.4631746047,9615.4494081490,14057.8268474178,1660.9392871189,-5983.9759559483,-3075.1055149717,-5861.3377396699,-20386.2946358172,-8309.3809988712,-2577.2276963705,-4855.5924233759,476.7060261292,-21458.2200551311,10297.2176288352,12722.4829595840,17326.0458786664
561328285549,41802,-2,0,7118.7962001400,9610.3024723929,14049.1026087958,1653.3709796950,-5978.4274861970,-3084.0001013492,-5865.9249613721,-20384.9196860762,-8302.9442872519,-2573.8207412601,-4864.6573575090,481.8772972790,-21452.1118713260,10303.5691665768,12727.8002430957,17331.1563113320
561328285549,41802,-2,0,7122.5073476710,9613.7094275033,14050.6357385955,1654.1618799885,-5969.6059060004,-3078.8288301995,-5860.8997025842,-20378.9696823298,-8294.5364087472,-2565.7413905697,-4861.1773962177,488.5938659252,-21444.5678992958,10309.3123194772,12732.6429864312,17336.0963962421
561328285549,41802,-2,0,7125.5127687862,9616.9216994646,14054.7727555153,1659.7468528302,-5968.5594840736,-3069.6787221886,-5854.8280218696,-20378.8358376648,-8294.7432595932,-2565.1451734253,-4850.1656305929,488.1801642333,-21447.5733204111,10307.6088419220,12730.0999377952,17331.6673545986
561328285549,41802,-2,0,7118.3216599639,9613.7824336842,14056.8047608847,1659.4669958033,-5978.0867906860,-3066.9531581003,-5857.0912134787,-20385.3820585555,-8303.9298706945,-2572.7986547270,-4848.1092898298,478.3973359876,-21456.5409129696,10298.7264232413,12721.2418545081,17323.8800286319
561328285549,41802,-2,0,7112.3108177333,9607.8932684219,14053.9210167376,1654.1375445949,-5985.8132781686,-3076.6386447714,-5865.3774150151,-20392.7921859207,-8311.6441904803,-2579.3083725272,-4858.3058197675,471.1818917716,-21463.9023695474,10290.6349048540,12714.1115841699,17318.2950557902
561328285549,41802,-2,0,7110.1571353957,9603.6954130180,14041.4247921005,1646.6300756551,-5986.2026444669,-3088.9523539562,-5872.8970516517,-20393.0112044635,-8310.6464393408,-2580.9510115983,-4871.7267893632,473.9196235568,-21460.3128989847,10292.0220222918,12717.4577007962,17321.1422968467
561328285549,41802,-2,0,7114.2333138314,9606.9685234634,14036.5212102808,1646.4110571123,-5981.7614351265,-3090.5341545432,-5870.8650462822,-20387.2558838662,-8305.3169881323,-2577.3615410356,-4872.3716772948,481.0133908045,-21456.1515466712,10296.2320453926,12723.3346983616,17329.6353492292
561328316819,41803,-2,0,7121.2784102919,9615.0113710634,14049.0052672212,1655.6341713041,-5978.2814738352,-3080.4714692706,-5862.5666770490,-20382.1697865943,-8303.1876411883,-2572.5431330937,-4858.4761675230,482.1571543059,-21459.0231231214,10296.5362378132,12725.0016728264,17332.5677641635
561328316819,41803,-2,0,7124.0404774707,9618.6738478071,14059.0436171001,1663.4823357549,-5979.9727836935,-3072.9274972404,-5858.8068587307,-20383.8489287558,-8306.2660684845,-2575.1470202138,-4849.8249350819,479.5167640953,-21465.0583007456,10290.0630231034,12719.2463522291,17326.5325865393
561328316819,41803,-2,0,7124.9043839451,9620.1948099099,14062.6087522692,1663.3484910898,-5984.1828067943,-3074.9716703066,-5862.6883540172,-20388.0224487661,-8311.8997121136,-2579.3570433145,-4856.3224851853,475.0633870581,-21468.5991005211,10287.5321421642,12715.8272294219,17323.0161221575
561328316819,41803,-2,0,7126.7903769527,9617.9924567850,14055.9043513198,1658.3719030892,-5985.9106197431,-3087.6260750025,-5870.8285431918,-20388.4361504581,-8311.9605505977,-2580.6468191778,-4869.1837407272,474.7105238503,-21464.5594251759,10289.1747812353,12717.1413406788,17327.7858593121
561328316819,41803,-2,0,7133.6651256576,9623.2123987220,14052.9597686886,1658.7856047812,-5982.2603106963,-3091.8847688905,-5871.4734311234,-20383.0823638560,-8306.7406086606,-2578.7851615639,-4872.0796525710,480.4415090539,-21456.9302792679,10296.4267285417,12722.5803011586,17332.8232857968
561328316819,41803,-2,0,7150.9432551462,9641.0015714772,14068.8507807394,1671.8780465627,-5976.1521268911,-3079.8995875199,-5863.6617697630,-20379.2008685695,-8302.5670886504,-2574.5021322822,-4859.6442664180,482.5465206042,-21454.5089076001,10299.0792864492,12724.9651697359,17335.3541667359
561328316819,41803,-2,0,7162.8675980327,9650.7965674196,14087.6863754213,1684.4229419872,-5977.0160333656,-3069.0094988634,-5859.0258772735,-20382.3888051371,-8304.0393799659,-2574.8914985805,-4848.5351592186,479.3585840366,-21456.2488882458,10293.6646613629,12716.5694589281,17327.8223624025
561328316819,41803,-2,0,7169.3773158329,9652.9502497573,14091.1663367127,1687.1728414691,-5980.8123547743,-3071.9662491913,-5862.6640186236,-20386.2946358172,-8309.0524710570,-2581.5350610458,-4855.4950818014,473.4937541680,-21462.1745565986,10288.1283593085,12713.9534041112,17324.4640780794
561328365626,41804,-2,0,7175.0961333397,9658.3040363594,14089.5967038225,1684.6541282268,-5979.9606159967,-3082.3574622781,-5868.2733268589,-20384.2261273573,-8308.5292600936,-2581.9122596474,-4868.4901820083,475.2337348136,-21462.5274198065,10289.6006506241,12717.1535083756,17329.6475169260
561328365626,41804,-2,0,7187.5680225832,9667.4419766734,14091.9572370062,1688.3896111514,-5970.5428186558,-3082.9171763320,-5864.4770054502,-20376.8646707795,-8298.1502147036,-2572.3241145509,-4868.2711634654,484.0796504039,-21454.3142244510,10297.5461566495,12726.0359270563,17338.9436372987
561328365626,41804,-2,0,7206.3427787810,9683.8805350812,14108.3714600203,1702.5771456470,-5966.0529385281,-3074.1807700131,-5857.9307845594,-20372.7884923438,-8295.5949983708,-2567.4935389122,-4859.2062293324,485.5032709322,-21452.9271070132,10298.3735600334,12723.6023876918,17337.5078490736
561328365626,41804,-2,0,7221.9782691985,9698.0924049704,14125.7956018708,1714.6231655017,-5971.5892405825,-3067.4155305796,-5857.5779213516,-20379.1278623885,-8302.8104425868,-2574.5629707663,-4853.0250393463,477.3630817577,-21460.8482776449,10286.9115896262,12712.3594358274,17325.6200092776
561328365626,41804,-2,0,7234.1946368088,9707.7170531573,14135.8217840529,1720.1472998593,-5978.7438463144,-3070.9076595677,-5862.5910124426,-20386.9760268393,-8310.3422469202,-2581.8635888601,-4858.5005029166,468.2008060500,-21468.8911252449,10278.6132203930,12702.8199615182,17315.1314546162
561328365626,41804,-2,0,7244.0626389322,9712.5841318865,14139.0705591046,1721.2058894829,-5976.2616361625,-3079.9360906104,-5866.0223029467,-20384.3843074160,-8308.6387693650,-2580.8293346301,-4868.9403867907,470.6343454146,-21464.6567667505,10280.1098471022,12704.2192466528,17318.0030310664
561328365626,41804,-2,0,7256.0478203028,9721.9775938338,14140.4941796329,1725.7444403979,-5963.8870884936,-3078.1352714806,-5860.2791500463,-20372.3382875613,-8295.0352843170,-2572.1415990985,-4867.9304679544,484.2378304626,-21450.0068597756,10295.0761141944,12717.2386822534,17330.6696034591
561328365626,41804,-2,0,7271.9753354440,9736.7735131705,14153.0999135414,1738.4353481842,-5952.5102919642,-3064.7873080658,-5850.2286324705,-20365.6582220055,-8285.8730086093,-2560.2659269993,-4852.7208469257,491.2707592263,-21443.4606388849,10302.0725398676,12721.4730407477,17334.2712417187
561328372721,41805,-2,0,7281.3809650881,9750.0241350107,14171.1324402330,1752.2700194719,-5950.6121312598,-3050.1860718783,-5841.1150275501,-20365.4757065532,-8284.7170774111,-2558.5259463537,-4839.5188958728,489.9323125758,-21444.5435639021,10300.9166086694,12719.7452277989,17331.6430192049
561328372721,41805,-2,0,7281.6851575087,9749.2575701109,14174.2230352261,1753.0974228558,-5953.7148939496,-3049.3099977070,-5844.0596101813,-20370.6226423093,-8289.7423361990,-2563.8310621685,-4841.5387335454,484.0066442230,-21449.8851828074,10294.3095492946,12713.8925656270,17325.1941398888
561328372721,41805,-2,0,7277.5603082857,9742.3098152250,14166.3261999880,1745.0180721654,-5957.4260414806,-3060.4069372095,-5850.8126819180,-20373.7375726960,-8292.3462233191,-2567.0189987361,-4853.4630764319,482.4005082424,-21450.4570645581,10293.7741706343,12716.6059620186,17327.1896421677
561328372721,41805,-2,0,7275.2849489798,9739.7545988922,14157.4072782168,1738.6056959397,-5952.9483290498,-3068.8148157142,-5854.6333387204,-20368.7488169986,-8285.8365055188,-2565.2790180904,-4861.1530608240,489.1170768886,-21445.4804765575,10298.1180384001,12724.1742694424,17332.9206273713
561328372721,41805,-2,0,7279.2029473568,9746.0818012401,14155.7159683584,1743.0955760674,-5947.7892255969,-3062.6822965154,-5849.6202476294,-20364.3562784455,-8282.3687119243,-2563.0888326623,-4855.0570447157,494.2518449479,-21441.4773043028,10303.6421727578,12727.6663984306,17334.8309557725
561328372721,41805,-2,0,7278.5580594252,9751.0462215438,14164.0751760757,1749.6052938677,-5950.0889202964,-3052.8021266952,-5844.2664610273,-20366.8263209005,-8284.7657481984,-2563.0401618750,-4842.2687953548,490.1391634217,-21444.0933591197,10301.5858319947,12725.2936975501,17331.2658206034
561328372721,41805,-2,0,7269.6026345635,9743.2345601835,14164.1116791662,1747.6949654665,-5958.0830971091,-3052.9846421476,-5845.3615537413,-20373.0805170675,-8292.0298632017,-2568.0897560565,-4842.9866894674,482.3031666678,-21450.7004184946,10295.0761141944,12721.4122022636,17324.9021151650
561328372721,41805,-2,0,7258.5908689388,9731.6752482017,14150.7150449641,1734.9432191960,-5961.4048783417,-3064.8359788531,-5853.5382460064,-20377.3635463492,-8295.6923399454,-2571.6427235288,-4854.5460014492,480.3319997825,-21451.6129957563,10295.8426790942,12721.6555562001,17324.3545688080
561328441753,41806,-2,0,7252.9450576129,9722.9023387924,14136.6126843464,1725.0630493758,-5958.4237926201,-3073.0248388149,-5858.1863061927,-20373.5550572436,-8291.7986769621,-2567.7977313327,-4862.2846566286,484.3351720372,-21444.6652408704,10299.9431929236,12723.7240646600,17328.3090702755
561328441753,41806,-2,0,7249.1000654169,9718.6314772075,14132.6095120916,1722.4956653461,-5955.1141790843,-3070.1532623647,-5856.1543008233,-20371.8029089011,-8287.9415170692,-2563.1983419337,-4858.7803599436,487.4379347271,-21442.2073661121,10304.3965699608,12728.6884849637,17337.4713459831
561328441753,41806,-2,0,7242.3956644674,9714.6039695591,14134.4955050992,1723.6637642411,-5958.3872895296,-3058.7886335321,-5851.4697375465,-20375.7087395813,-8291.3971429669,-2564.2082607700,-4846.8560170571,484.2013273722,-21444.8720917164,10301.7075089629,12725.8534116040,17336.9116319293
561328441753,41806,-2,0,7229.8994398303,9705.5633708197,14136.3693304099,1721.6439265685,-5963.6680699508,-3054.6151135218,-5851.3602282750,-20378.5803160315,-8296.5684141166,-2564.0622484081,-4842.2809630516,479.7844534254,-21450.3475552867,10295.8913498815,12722.7384812173,17332.8841242809
561328441753,41806,-2,0,7214.9818435253,9692.8481276397,14127.1097131276,1712.7615078878,-5969.4355582449,-3064.0572462564,-5859.2692312100,-20381.4153893912,-8299.6225060192,-2565.0843349412,-4853.0128716495,477.0223862466,-21455.2754725000,10294.6502448056,12723.6997292663,17331.9472116255
561328441753,41806,-2,0,7204.5541273481,9684.0630505335,14110.9145086563,1700.1922770697,-5967.1967020295,-3072.5868017293,-5864.5013408438,-20380.6853275819,-8297.5053267720,-2564.7679748238,-4864.4140035726,480.3806705698,-21450.7855923723,10294.0540276613,12723.2008536966,17330.6331003686
561328441753,41806,-2,0,7204.5541273481,9682.8341131544,14107.4467150618,1697.9777562479,-5961.6725676718,-3069.9950823060,-5861.6662674841,-20377.3027078651,-8291.6891676906,-2560.2902623930,-4860.3986636210,484.3838428245,-21445.3953026798,10299.2618019015,12727.1188520736,17333.2856582760
561328441753,41806,-2,0,7206.1237602382,9685.1094724603,14115.2583764221,1703.7574122388,-5962.0619339702,-3059.5795338256,-5857.4562443833,-20379.2738747504,-8290.5940749766,-2558.3312632045,-4848.2553021917,480.3806705698,-21450.4692322549,10300.3812300092,12725.6222253644,17331.4361683589
561328449088,41807,-2,0,7201.4270292646,9681.5200018976,14118.2759652342,1703.1733627913,-5966.4666402201,-3055.6128646613,-5858.6973494593,-20385.7349217634,-8297.2133020483,-2563.7823913812,-4845.4567319224,474.5158407011,-21454.8982738985,10294.3825554755,12719.2828553196,17323.3933207590
561328449088,41807,-2,0,7194.4306035914,9671.6641674710,14112.6179862115,1697.0286758957,-5968.8028380101,-3063.0716628138,-5863.3575773425,-20388.3144734898,-8298.8437734225,-2565.9482414157,-4852.8060208035,473.1043878696,-21453.5719949448,10294.9179341357,12720.7429789384,17323.5149977272
561328449088,41807,-2,0,7186.2295759327,9661.9056746190,14099.7445629728,1685.5788731853,-5965.2985413251,-3071.5647151962,-5866.1439799149,-20383.4108916702,-8293.4169806395,-2563.0523295718,-4862.2359858413,479.2977455525,-21443.7039928214,10303.3623157308,12729.1995282303,17329.5015045641
561328449088,41807,-2,0,7182.4575899176,9660.1778616701,14093.9040684978,1683.2426753953,-5959.6283946056,-3071.1145104137,-5860.4129947113,-20376.7064907208,-8286.7977535678,-2561.9937399482,-4861.0192161590,486.3915128003,-21436.9752564783,10310.6264307341,12734.6871594975,17333.8210369362
561328449088,41807,-2,0,7179.2939887436,9659.1557751370,14097.0920050654,1687.2701830437,-5961.3927106449,-3063.5705383835,-5854.6941772045,-20375.9155904273,-8288.6229080913,-2564.8044779143,-4849.8492704755,485.7831279591,-21441.3312919409,10306.4529107239,12730.2581178539,17329.2581506276
561328449088,41807,-2,0,7170.0222037646,9651.7578154686,14100.1339292712,1686.7713074740,-5969.7519183623,-3061.1978375030,-5855.9596176741,-20383.8124256654,-8298.2718916719,-2574.1249336807,-4848.1092898298,477.6672741782,-21452.3795606561,10296.7674240528,12721.6312208064,17321.7628493847
561328449088,41807,-2,0,7160.2028724284,9642.2791796436,14091.3731875587,1678.8258014486,-5975.9574437420,-3073.4993789910,-5864.2093161201,-20390.1274603165,-8307.0691364748,-2585.9397672957,-4860.1431419877,471.5225872826,-21460.3372343783,10289.9170107415,12717.1048375883,17318.3802296679
561328449088,41807,-2,0,7153.8026638996,9634.1146550754,14074.7277783049,1669.0916439902,-5978.0502875955,-3086.9933547677,-5871.0475617346,-20388.4726535485,-8305.7306898243,-2588.8721822301,-4873.1625775883,475.7326103834,-21456.7355961187,10293.3361335487,12721.1080098430,17325.7903570331
561328476688,41808,-2,0,7153.5228068727,9633.7131210802,14067.8165265094,1666.3539122051,-5973.2927181377,-3089.3173848609,-5869.4779288444,-20384.0071088145,-8300.1457169826,-2583.9442650168,-4871.7754601505,481.3784217092,-21450.9559401278,10300.5150746743,12728.9440065970,17335.1108127995
561328476688,41808,-2,0,7153.3524591171,9636.4265174717,14071.6250156150,1670.8802954232,-5972.1246192427,-3079.7170720676,-5863.3819127361,-20383.1188669464,-8299.1236304495,-2581.8392534664,-4860.1553096845,481.1594031664,-21448.4980653696,10298.8115971190,12728.9075035066,17333.5533476061
561328476688,41808,-2,0,7147.9500017277,9632.2286620678,14075.6768586571,1670.5395999122,-5977.8191013559,-3074.1199315290,-5860.9727087652,-20389.7015909277,-8306.3634100591,-2585.0758608213,-4855.0570447157,474.4306668233,-21455.7013418888,10292.8250902822,12722.3977857063,17323.8921963287
561328476688,41808,-2,0,7139.3961108612,9623.1028894506,14070.7367737470,1663.7500250850,-5985.7281042908,-3080.1064383659,-5869.7821212650,-20397.1482213833,-8312.4472584706,-2587.8865987874,-4862.7226937142,466.6676762503,-21460.6292591021,10289.5033090495,12719.4532030751,17319.6821732280
561328476688,41808,-2,0,7133.9936534718,9614.0014522270,14059.5789957603,1654.5025754995,-5985.0710486624,-3091.5075702890,-5876.8515531191,-20395.9922901851,-8311.1696503042,-2588.0812819366,-4876.3505141559,468.2373091405,-21456.8207699965,10294.1635369327,12721.8867424397,17322.3468988322
561328476688,41808,-2,0,7133.8598088068,9611.8112667989,14052.5460669967,1650.8887695431,-5979.5590820016,-3092.4688183380,-5876.5838637890,-20391.5632485416,-8304.6721002007,-2581.2795394126,-4876.8615574224,474.5280083979,-21450.0068597756,10300.0161991045,12727.9097523671,17328.6132626960
561328476688,41808,-2,0,7138.6417136582,9619.9514559735,14062.4262368169,1660.0388775540,-5978.3179769256,-3083.2822072367,-5869.2102395143,-20388.7160074850,-8303.0659642201,-2575.9622559009,-4862.8322029856,476.2558213468,-21450.6517477073,10297.6800013145,12724.6731450122,17327.8588654930
561328476688,41808,-2,0,7138.6295459614,9621.5940950446,14071.7101894928,1667.5341787969,-5982.3333168772,-3072.2826093087,-5862.8587017727,-20390.6993420671,-8307.3489935018,-2575.5850572994,-4851.9299466322,473.0922201728,-21457.0762916298,10292.2532085315,12721.9719163175,17325.4618292189
561328500237,41809,-2,0,7133.5921194767,9616.3254823202,14070.1162212090,1665.5630119116,-5985.5090857480,-3071.7350629517,-5865.8884582816,-20393.7047631824,-8310.4882592821,-2576.4611314707,-4855.3125663490,469.8312774243,-21461.8216933907,10287.5199744674,12719.9520786449,17317.2486338634
561328500237,41809,-2,0,7129.1144070458,9610.6918386912,14063.3144786850,1659.6008404684,-5984.1341360070,-3082.8685055447,-5870.6095246489,-20391.4415715733,-8306.4485839369,-2572.3362822477,-4864.1098111520,472.4108291507,-21456.1880497617,10289.1504458416,12720.7064758479,17315.4964855209
561328500237,41809,-2,0,7130.4041829091,9611.2150496546,14057.6930027528,1656.8752763800,-5977.8069336591,-3081.3597111387,-5869.1859041207,-20386.0512818808,-8297.9555315545,-2565.9482414157,-4865.1562330788,480.0643104524,-21449.3254687536,10289.9656815288,12731.4992229298,17325.7903570331
561328500237,41809,-2,0,7133.6164548703,9614.4151539190,14062.8156031152,1661.5841750505,-5975.6654190182,-3071.5038767121,-5861.9339568142,-20382.9241837973,-8295.2421351629,-2562.3587708529,-4854.4364921778,483.9823088293,-21448.8387608806,10275.7173085491,12734.5168117419,17327.3843253169
561328500237,41809,-2,0,7130.0878227917,9612.2371361877,14069.9093703630,1665.9523782099,-5982.4063230581,-3064.5439541293,-5859.9262868384,-20386.1121203649,-8300.6932633396,-2565.7170551760,-4843.6802481863,477.8984604179,-21456.4314036982,10261.2985878139,12728.9318389002,17322.6875943433
561328500237,41809,-2,0,7119.8912928540,9602.6733264849,14065.5046641131,1658.8464432653,-5991.0210524088,-3071.0171688392,-5866.0709737340,-20394.0941294807,-8309.8068682600,-2575.3052002725,-4850.1899659866,469.5270850037,-21464.8757852933,10257.0642293195,12719.7573954957,17314.4500635941
561328500237,41809,-2,0,7111.5199174399,9593.4258768995,14051.6456574318,1645.7174983934,-5996.1801558617,-3087.3097148851,-5875.9876466447,-20396.8196935691,-8314.6131085051,-2583.2263709042,-4865.9349656754,468.0061229008,-21465.4598347408,10264.9488968608,12719.6357185275,17314.2310450513
561328500237,41809,-2,0,7110.0111230338,9590.4082880874,14043.8704991619,1640.5705626373,-5993.4910948638,-3095.5959164215,-5878.1048258919,-20391.7092609034,-8308.6752724555,-2579.6490680383,-4871.8728017250,473.5667603489,-21457.7698503487,10279.6231392293,12728.5546402987,17324.1598856588
561328536610,41810,-2,0,7113.7709413521,9595.4822176625,14049.2851242481,1646.4840632932,-5989.2324009758,-3089.3173848609,-5871.0840648250,-20388.1076226439,-8306.0227145481,-2577.1790255832,-4862.5645136555,477.2414047894,-21451.5886603626,10287.1184404722,12730.8178319078,17324.7804381968
561328536610,41810,-2,0,7116.7885301642,9600.6534888123,14057.9606920829,1655.1231280375,-5992.6880268735,-3082.5399777305,-5867.7866189860,-20391.7092609034,-8310.8289547931,-2582.1069427965,-4855.8236096156,471.8997858842,-21456.2002174585,10285.5609752789,12728.8710004161,17324.2450595366
561328536610,41810,-2,0,7111.8484452541,9596.2609502592,14057.5348226941,1652.0933715286,-5999.2464154611,-3086.2389575647,-5874.1138213339,-20401.6502692078,-8319.0299824518,-2588.7261698682,-4859.9606265354,464.1976337952,-21462.1745565986,10277.7493139185,12721.1201775399,17318.9156083281
561328536610,41810,-2,0,7103.0146973606,9587.8165686641,14046.7664110058,1642.5904003099,-6005.2329222980,-3100.3413181824,-5882.3513520831,-20404.8138703818,-8322.8749746478,-2594.6518382210,-4874.6592042975,462.1534607290,-21464.0727173030,10276.8124012632,12720.2197679750,17319.2928069297
561328536610,41810,-2,0,7103.0390327543,9587.2933577007,14037.1052597283,1638.3438741187,-6000.9620607131,-3107.4959239143,-5882.1931720244,-20398.6448480925,-8316.6816169650,-2592.3399758246,-4881.5704560929,469.0890479181,-21455.0564539572,10285.3297890392,12727.4838829783,17328.3455733659
561328536610,41810,-2,0,7108.1372977231,9592.1847718235,14040.4635440515,1640.9477612388,-5994.5253490938,-3097.8347726369,-5874.2476659990,-20390.7115097640,-8310.6099362503,-2585.5747363911,-4870.1571564730,475.2702379041,-21450.1650398343,10291.1337804238,12731.5843968076,17333.6263537871
561328536610,41810,-2,0,7110.7046817527,9596.0419317164,14051.9255144587,1649.3069689561,-5993.8074549812,-3084.4259707380,-5866.8983771179,-20389.7867648054,-8310.8897932773,-2583.3115447820,-4855.3247340458,474.4063314297,-21453.4746533702,10289.5519798368,12729.0413481716,17332.9084596745
561328536610,41810,-2,0,7107.4194036105,9592.7566535742,14054.4563953979,1650.3533908829,-5998.0904842629,-3081.4205496228,-5867.2147372353,-20392.9868690699,-8316.5477722999,-2586.6454937115,-4856.1521374298,469.3810726418,-21459.4246571166,10280.7182319433,12719.8790724639,17322.9431159765
561328566439,41811,-2,0,7102.9416911797,9583.9350733776,14044.6979025459,1642.4322202512,-6000.0008126641,-3091.6900857413,-5875.0872370798,-20395.2987314662,-8318.1174051901,-2589.2980516189,-4869.0985668494,469.3324018545,-21461.0429607941,10280.0246732244,12718.6866381753,17325.3523199475
561328566439,41811,-2,0,7101.5789091355,9582.1099188541,14036.7402288237,1636.8715828031,-5996.2653297395,-3098.7473498986,-5878.3481798283,-20393.3275645809,-8313.2259910673,-2585.0393577309,-4877.4821099604,473.2990710188,-21454.9469446858,10286.9967635040,12722.0449224984,17330.4384172195
561328566439,41811,-2,0,7106.2391370187,9587.2446869134,14037.2634397870,1639.7188238597,-5989.2689040663,-3091.6292472572,-5872.5076853533,-20387.7182563455,-8305.9618760640,-2579.6003972510,-4871.0210629474,477.7402803592,-21448.4128914918,10294.0418599645,12727.0823489831,17333.6506891807
561328566439,41811,-2,0,7109.9989553370,9591.3208653491,14048.6159009228,1647.4818144327,-5989.0985563108,-3078.2812838425,-5865.8641228880,-20389.0567029960,-8305.4873358879,-2576.7044854071,-4858.4883352198,475.1972317232,-21451.6494988467,10291.4014697539,12723.5415492076,17329.1121382658
561328566439,41811,-2,0,7109.3418997086,9593.5962246550,14057.2671333640,1652.3002223746,-5991.6051018563,-3073.1951865705,-5864.7203593866,-20393.0720429476,-8309.7825328664,-2577.9577581799,-4854.7650199920,470.2084760258,-21458.3904028867,10284.8552488631,12720.0859233099,17323.9043640255
561328566439,41811,-2,0,7107.4559067010,9590.0797602731,14054.6754139407,1648.8567641737,-5991.5685987658,-3078.8044948058,-5868.3463330399,-20393.6317570015,-8310.2449053456,-2579.8802542779,-4863.4892586140,468.9552032530,-21458.0862104661,10285.0499320123,12720.5847988797,17322.3712342259
561328566439,41811,-2,0,7109.1837196499,9590.3474496032,14047.0706034263,1646.3867217186,-5984.5356700021,-3083.5985673541,-5868.9668855778,-20387.2315484726,-8301.8978653251,-2572.9203316952,-4868.2954988591,476.5356783737,-21447.5368173206,10290.6592402477,12725.8655793008,17325.4739969157
561328566439,41811,-2,0,7117.2509026435,9597.5507261224,14054.0305260091,1651.8500175921,-5976.2738038594,-3076.3587877444,-5862.3354908093,-20380.9043461247,-8293.5386576077,-2563.7215528971,-4860.8001976162,483.2887501104,-21442.4263846550,10295.7088344292,12727.0336781958,17331.6551869018
561328586581,41812,5,0,7118.7840324432,9601.1766997757,14061.9395289440,1659.4183250160,-5977.1985488179,-3067.9752446334,-5857.7969398944,-20382.5104821053,-8295.7775138232,-2564.9139871857,-4850.4576553167,479.7114472445,-21448.5102330664,10292.1071961696,12722.6289719459,17325.1698044951
561328586581,41812,5,0,7115.0850526090,9599.5583960982,14065.0422916338,1659.2114741700,-5984.2801483689,-3066.4542825306,-5859.9992930193,-20389.6285847467,-8303.9298706945,-2570.9369971131,-4848.1579606171,470.6830162019,-21457.1614655075,10282.7137342223,12713.9047333239,17318.4410681520
561328586581,41812,5,0,7111.2157250193,9593.5597215645,14062.2193859709,1652.6895886729,-5988.7091900124,-3076.0545953239,-5865.6572720420,-20393.7169308792,-8307.5680120446,-2573.5165488395,-4857.2228947502,469.1620540990,-21460.3980728624,10280.7425673370,12713.4058577541,17319.2319684455
561328586581,41812,5,0,7109.0985457721,9589.9215802144,14050.8669248351,1644.1356978064,-5984.6695146672,-3085.6792435108,-5868.9547178810,-20388.4361504581,-8301.5450021172,-2571.5088788637,-4865.8619594945,476.2801567404,-21453.6571688225,10288.6759056655,12721.4608730509,17327.8588654930
561328586581,41812,5,0,7112.0309607064,9592.7323181805,14049.5406458814,1646.6665787456,-5977.5757474194,-3084.3772999507,-5862.5180062617,-20380.8191722469,-8294.7675949869,-2566.1550922616,-4860.5203405892,484.9192214847,-21447.3056310810,10297.1932934416,12728.4694664209,17333.9792169949
561328586581,41812,5,0,7112.1769730683,9597.2952044891,14057.9728597797,1652.2393838905,-5980.1796345395,-3075.4218750891,-5858.4539955228,-20381.9751034451,-8296.5440787230,-2566.0820860807,-4849.4720718740,480.9038815331,-21449.8000089297,10293.4334751233,12725.2571944597,17331.2658206034
561328586581,41812,5,0,7107.8939437866,9594.7156527627,14060.9782808950,1652.8721041253,-5989.5244256996,-3075.1420180621,-5861.2647334889,-20389.5920816563,-8307.0569687780,-2574.7576539155,-4848.1944637076,470.9628732288,-21458.0740427693,10285.3662921297,12715.6082108791,17322.2252218640
561328586581,41812,5,0,7103.0268650574,9589.1793507082,14055.6123265960,1647.6764975819,-5996.9953915488,-3086.7743362249,-5870.7433693140,-20396.1869733343,-8313.8100405148,-2584.7108299166,-4860.7271914352,465.6699251108,-21463.6225125205,10276.9584136250,12707.1881646776,17313.9268526307
561328621693,41813,5,0,7100.5689902992,9585.0545014853,14046.8880879740,1639.3416252582,-5997.7132856614,-3098.4066543876,-5878.2386705569,-20395.2013898916,-8313.2259910673,-2583.8347557454,-4873.2964222533,468.5293338642,-21464.0362142125,10279.6231392293,12713.5883732065,17321.2153030277
561328621693,41813,5,0,7103.6839206859,9586.5632958913,14043.0917665652,1637.9666755172,-5993.1260639591,-3099.4774117080,-5875.7199573146,-20390.6141681894,-8309.5878497172,-2581.2187009284,-4873.1139068010,473.6032634394,-21459.5828371753,10285.2324474646,12718.0295825468,17325.7903570331
561328621693,41813,5,0,7107.4559067010,9594.2046094961,14049.6988259401,1645.9851877235,-5990.7168599882,-3087.8450935453,-5867.9204636511,-20388.3753119740,-8306.9961302939,-2579.3935464050,-4859.3887447847,476.0002997135,-21457.8063534392,10285.0012612250,12717.9200732754,17323.2716437908
561328621693,41813,5,0,7105.8010999331,9595.6038946308,14058.9462755255,1651.3876451129,-5994.4401752160,-3080.5201400579,-5865.0002164136,-20389.7137586245,-8310.4517561916,-2579.0285155003,-4851.3093940943,471.8146120064,-21459.8626942022,10282.8475788873,12715.5108693045,17321.1544645436
561328621693,41813,5,0,7100.6541641770,9590.8828282635,14056.2085437404,1648.1997085453,-5997.9931426883,-3084.7423308554,-5868.3828361303,-20394.8485266838,-8315.3553380113,-2585.1732023959,-4859.1210554546,467.4950796343,-21462.7951091366,10281.1684367258,12713.2963484827,17317.9908633696
561328621693,41813,5,0,7097.8434262109,9585.3708616027,14043.2256112303,1640.3150410040,-6001.2662531337,-3099.1123808033,-5876.3283421557,-20394.1306325712,-8315.7568720064,-2587.8865987874,-4874.8903905371,467.2273903041,-21460.9577869163,10280.2558594641,12712.8704790939,17317.2121307729
561328621693,41813,5,0,7099.0480281963,9585.4438677836,14035.2801052049,1635.4114591843,-5998.1513227470,-3102.8965345153,-5879.4189371488,-20394.5565019600,-8313.6396927592,-2586.5359844401,-4878.6745442491,470.0016251798,-21459.9722034736,10284.0521808728,12716.0705833584,17322.3955696195
561328621693,41813,5,0,7102.1021200989,9589.7390647621,14043.5784744381,1641.1181089943,-5997.0197269425,-3093.6247495362,-5874.1868275149,-20394.9823713488,-8314.4427607496,-2585.4895625133,-4870.0841502921,468.0061229008,-21462.4787490192,10281.8741631415,12712.0309080131,17318.8547698440
561328659219,41814,5,0,7103.3432251748,9593.6083923518,14051.4023034953,1647.6399944914,-6000.0373157546,-3085.8130881759,-5870.9258847663,-20397.6836000435,-8318.7501254249,-2588.9938591983,-4861.9926319048,463.1268764748,-21466.9199583595,10278.2116863978,12707.2611708585,17313.9755234180
561328659219,41814,5,0,7100.0214439422,9590.0432571827,14052.3270484538,1645.5593183347,-6004.1256618871,-3088.1979567531,-5874.7222061751,-20401.5285922396,-8322.8019684669,-2591.6342494089,-4865.2535746534,459.6225797898,-21470.0470564430,10274.7195574096,12706.5067736555,17313.0629461563
561328659219,41814,5,0,7097.3688860348,9585.7845632946,14044.2720331571,1638.1005201822,-6004.5150281854,-3099.6599271604,-5879.7474649630,-20399.6182638384,-8321.9867327798,-2591.4030631692,-4876.1801664004,462.6158332083,-21467.3093246579,10277.3112768329,12708.8916422328,17319.6213347439
561328659219,41814,5,0,7097.2593767634,9583.8255641062,14034.1485094004,1633.9513355656,-6000.2685019942,-3103.7117702024,-5880.7330484056,-20395.9436193978,-8316.3895922412,-2587.5702386700,-4878.0904948016,469.4662465196,-21461.3106501242,10282.0080078066,12715.5595400918,17327.7371885248
561328659219,41814,5,0,7099.2548790423,9587.7922332704,14040.4635440515,1636.2510302651,-5998.3581735930,-3095.1700470327,-5874.4180137545,-20393.7656016665,-8313.4450096101,-2583.4575571439,-4866.5676859102,470.7681900796,-21461.4931655765,10283.0057589460,12715.7298878473,17329.0878028721
561328659219,41814,5,0,7100.5933256929,9591.0775114126,14050.6235708986,1643.9531823540,-6000.2806696910,-3085.9712682345,-5870.9502201600,-20397.3307368356,-8317.1926602315,-2584.3579667088,-4857.5027517771,466.3026453456,-21466.7009398167,10276.4717057521,12707.4680217045,17321.0814583626
561328659219,41814,5,0,7094.5338126750,9584.8963214266,14047.7884975389,1640.4002148817,-6006.5348658580,-3090.3029683035,-5876.3648452462,-20403.4754237312,-8324.2499243888,-2590.6364982694,-4862.9052091665,459.7929275453,-21472.9794713774,10274.2936880208,12705.0344823399,17317.8326833109
561328659219,41814,5,0,7088.8636659555,9578.3135974454,14036.5698810681,1632.0288394676,-6011.9738263379,-3105.4517508481,-5886.8290645139,-20404.7773672913,-8326.1845881837,-2594.4693227686,-4876.9345636034,459.9146045136,-21470.3512488636,10273.8799863288,12706.3607612936,17319.9255271644
561328681563,41815,5,0,7091.4432176820,9579.8588949419,14032.4815349356,1629.4736231347,-6006.0238225915,-3109.6861093425,-5884.8213945381,-20397.4524138039,-8318.7014546376,-2588.7261698682,-4878.9178981855,468.6875139229,-21462.8559476207,10282.4217094985,12714.5861243460,17327.2504806519
561328681563,41815,5,0,7101.2260459276,9589.7147293685,14040.1106808436,1640.5827303341,-5998.7232044977,-3097.7739341528,-5873.2255794659,-20389.6650878372,-8313.2624941577,-2583.0803585424,-4864.6938605995,475.4770887501,-21458.2078874343,10287.3617944087,12720.4144511241,17331.0833051511
561328681563,41815,5,0,7106.4216524710,9595.9932609291,14054.7605878184,1651.8378498953,-5997.8471303264,-3084.4138030412,-5866.6671908783,-20389.4825723848,-8314.1264006322,-2581.9974335251,-4851.2850587006,474.2116482805,-21464.9001206869,10283.4681314253,12717.0074960137,17327.3964930137
561328681563,41815,5,0,7101.0556981721,9594.7156527627,14057.7538412369,1650.3412231861,-6002.8480537207,-3086.3362991392,-5869.0398917588,-20395.7124331582,-8319.8695535326,-2586.9496861321,-4855.4829141045,466.1444652869,-21471.9452171474,10277.5546307694,12711.5563678370,17321.7871847784
561328681563,41815,5,0,7097.0403582206,9587.8165686641,14047.5694789961,1641.9455123783,-6004.6123697600,-3098.4188220844,-5876.2431682780,-20395.3352345567,-8320.9524785498,-2591.3665600788,-4869.8042932651,466.4851607980,-21469.8037025066,10277.8344877963,12713.6857147811,17323.4906623336
561328681563,41815,5,0,7099.7780900057,9590.5908035397,14042.4833817241,1639.2199482899,-5997.8836334169,-3102.9452053026,-5876.7177084541,-20390.0179510451,-8313.5910219719,-2586.7063321956,-4875.2189183513,473.5424249553,-21460.7874391608,10284.4658825648,12720.6578050606,17329.5136722609
561328681563,41815,5,0,7103.5987468081,9595.6403977212,14047.8858391135,1644.3912194397,-5992.7366976608,-3094.2087989837,-5871.4247603361,-20390.3464788593,-8309.0403033602,-2582.3746321266,-4867.1639030546,476.3166598309,-21458.3052290089,10287.3009559245,12720.7551466352,17330.0733863148
561328681563,41815,5,0,7105.2535535760,9597.9035893303,14053.5803212266,1650.7305894844,-5996.0706465903,-3085.1682002442,-5868.3950038272,-20393.2667260968,-8313.4571773069,-2586.3778043814,-4859.1697262419,470.2936499035,-21463.3304877968,10282.6285603445,12713.0164914558,17322.1035448958
561328715628,41816,5,0,7101.7127538006,9595.4213791784,14056.9142701561,1651.0469496018,-6000.6213652021,-3086.2997960488,-5870.9137170695,-20394.7268497155,-8318.7744608185,-2591.1840446264,-4858.7195214594,465.3170619029,-21469.2804915432,10276.9827490187,12708.9889838074,17319.1224591741
561328715628,41816,5,0,7099.2183759519,9593.2190260535,14052.2053714856,1647.3723051613,-6000.9255576227,-3092.8825200300,-5873.7487904293,-20394.5686696568,-8317.3751756839,-2588.2272942985,-4866.3730027611,469.6365942751,-21464.5715928727,10281.4361260559,12713.4910316319,17324.9994567396
561328715628,41816,5,0,7100.7028349643,9591.6372254665,14043.5906421350,1643.4178036938,-5995.1580693286,-3098.6865114145,-5873.4324303119,-20387.9372748883,-8310.5490977662,-2584.1632835596,-4871.3009199744,478.2269882321,-21457.5995025932,10289.1382781448,12722.0084194079,17334.4902602615
561328715628,41816,5,0,7104.6938395222,9596.4921364988,14044.9534241791,1647.8955161247,-5989.2567363694,-3091.8117627096,-5867.9326313479,-20382.8755130100,-8305.8036960053,-2579.7099065224,-4863.3919170394,481.8894649758,-21454.3872306319,10291.2797927856,12723.3590337553,17337.3740044085
561328715628,41816,5,0,7106.9205280408,9599.7409115506,14055.4906496278,1653.6021659346,-5990.3883321740,-3080.7391586007,-5861.8731183301,-20385.9417726094,-8308.0912230080,-2578.9068385321,-4852.4531575956,477.7767834496,-21460.2033897133,10283.6871499681,12716.1314218425,17329.7570261974
561328715628,41816,5,0,7102.0047785243,9596.6381488607,14058.3135552907,1653.2127996363,-5998.3338381994,-3080.3011215151,-5863.5035897043,-20389.5677462626,-8314.2967483877,-2584.0294388945,-4852.4044868083,470.6100100209,-21467.1633122960,10275.9119916983,12712.0187403163,17327.4816668915
561328715628,41816,5,0,7095.3003775749,9587.2203515198,14049.1634472799,1643.3326298161,-6000.7917129576,-3088.2222921468,-5871.8871328154,-20394.7755205028,-8317.0953186570,-2586.0006057799,-4863.0025507411,470.0989667544,-21468.6599390052,10276.3500287839,12710.7532998467,17326.0337109696
561328715628,41816,5,0,7091.0538513837,9580.7836399004,14036.6793903395,1632.6858950960,-5997.8227949328,-3097.5427479132,-5876.2310005811,-20393.0598752508,-8312.1552337468,-2581.7054088014,-4869.9138025365,474.3698283392,-21461.9433703590,10282.9935912492,12716.9344898328,17330.9494604860
561328750440,41817,5,0,7095.3977191495,9582.8886514508,14037.0687566379,1634.2068571989,-5990.7411953818,-3091.5197379858,-5871.1327356123,-20385.8200956411,-8305.0006280149,-2577.0086778277,-4863.5622647950,479.0787270097,-21455.4093171650,10288.6028994846,12722.2031025571,17335.0743097090
561328750440,41817,5,0,7100.3743071500,9589.7512324589,14048.7132424974,1644.0991947159,-5987.8452835380,-3076.7359863459,-5863.2967388584,-20384.4694812938,-8303.4188274280,-2573.6625612014,-4848.2796375854,479.0665593129,-21456.5044098791,10288.6515702719,12721.5947177160,17331.7281930827
561328750440,41817,5,0,7101.5910768323,9589.3253630701,14058.2892198971,1648.9297703546,-5992.1039774260,-3072.7936525753,-5862.3111554157,-20389.4947400817,-8308.0060491302,-2575.1835233043,-4844.6536639321,474.1021390091,-21461.9677057526,10283.7358207554,12716.3747757789,17327.2018098646
561328750440,41817,5,0,7100.0944501231,9587.2811900039,14057.8268474178,1645.5593183347,-5994.7930384239,-3082.2966237940,-5868.9303824874,-20392.7435151334,-8311.2913272724,-2579.8437511875,-4855.7992742219,471.1940594684,-21465.5936794058,10280.7182319433,12714.4279442873,17323.7218485732
561328750440,41817,5,0,7100.0944501231,9585.6750540232,14047.1801126977,1639.1469421090,-5994.6105229715,-3095.4134009692,-5874.3815106641,-20390.4073173434,-8309.7095266854,-2580.9996823856,-4867.9183002576,473.7614434981,-21464.0362142125,10281.7889892638,12716.6302974122,17323.4663269399
561328750440,41817,5,0,7103.3432251748,9589.5078785225,14044.8682503014,1639.0374328376,-5992.8583746290,-3097.8347726369,-5873.2255794659,-20387.4140639249,-8307.0691364748,-2579.1136893781,-4867.1152322673,476.7912000070,-21462.4787490192,10284.9039196504,12720.5969665765,17327.9927101581
561328750440,41817,5,0,7106.5920002266,9595.8594162640,14054.2860476423,1648.2848824230,-5993.7587841939,-3087.3705533692,-5867.4945942623,-20388.2536350057,-8309.8798744409,-2580.5008068159,-4856.3711559726,475.9272935326,-21463.9632080316,10281.0710951512,12715.4987016077,17325.3888230379
561328750440,41817,5,0,7106.4581555615,9596.3339564401,14060.4185668411,1652.6287501888,-5996.8128760965,-3081.2015310800,-5864.6595209025,-20392.2203041700,-8314.3332514781,-2583.4575571439,-4851.3824002752,471.5225872826,-21467.7595294403,10278.4793757279,12712.2620942528,17321.2761415118
561328810739,41818,5,0,7102.5158217909,9591.9657532807,14058.4717353494,1649.2217950784,-5997.9809749915,-3085.1803679411,-5868.2611591621,-20393.7412662729,-8314.6009408082,-2584.0051035009,-4857.9651242564,469.8312774243,-21467.3458277483,10277.7858170090,12712.0552434068,17321.9210294434
561328810739,41818,5,0,7102.1264554925,9587.3663638816,14051.2562911334,1641.9576800751,-5990.0841397534,-3090.4003098781,-5868.6505254604,-20388.1927965216,-8306.3877454528,-2578.2497829036,-4864.7425313868,476.4383367991,-21456.9181115711,10286.7290741739,12718.9299921117,17327.9440393708
561328810739,41818,5,0,7104.0732869842,9587.9382456323,14047.9710129912,1640.9964320261,-5981.9439505789,-3086.1172805964,-5863.6861051567,-20380.1499489217,-8297.2376374419,-2572.6769777587,-4861.1165577336,484.2134950690,-21447.8045066507,10294.7719217738,12723.6023876918,17333.9548816013
561328810739,41818,5,0,7102.0534493116,9591.7102316474,14052.6069054808,1646.2407093568,-5983.9516205546,-3077.4782158521,-5859.6585975083,-20382.9120161005,-8301.1069650316,-2573.9180828347,-4853.2318901923,478.8718761637,-21452.3917283529,10289.1139427512,12716.1800926298,17329.1851444467
561328810739,41818,5,0,7098.2449602060,9590.4326234810,14055.1742895104,1647.5913237041,-5997.5064348154,-3079.7049043707,-5864.5013408438,-20391.3685653924,-8315.5013503731,-2585.4165563324,-4853.5482503097,467.5437504215,-21465.7640271614,10276.4595380553,12705.1561593082,17320.8624398198
561328810739,41818,5,0,7094.4729741909,9586.3442773485,14046.6447340375,1642.8702573368,-6009.7228024256,-3093.8924388663,-5877.1922486302,-20400.2023132859,-8326.6712960566,-2596.9393652237,-4868.2103249813,460.4986539611,-21474.9993090500,10269.0250752965,12701.2624963248,17316.4577335699
561328810739,41818,5,0,7096.6996627095,9584.8476506393,14038.2246878361,1635.6913162113,-6010.4528642350,-3106.9605452541,-5885.9286549490,-20400.9323750952,-8325.5883710394,-2596.0632910524,-4879.8791462345,462.1899638195,-21471.4706769713,10274.1598433558,12706.6892891079,17321.8236878688
561328810739,41818,5,0,7101.4450644705,9588.0720902974,14037.2026013029,1635.1559375511,-6001.5826132511,-3105.9384587210,-5883.4829478876,-20393.6317570015,-8316.7424554491,-2587.7527541224,-4878.0174886206,470.3179852972,-21461.6878487257,10284.7700749854,12714.7929751919,17328.1630579136
561328820359,41819,5,0,7105.4482367252,9594.6061434913,14046.5960632502,1644.7562503444,-5995.9611373189,-3091.4345641081,-5874.2233306054,-20389.7137586245,-8311.3156626661,-2582.5084767917,-4864.3409973916,470.9872086224,-21461.0429607941,10287.6416514356,12715.0728322189,17327.4451638010
561328820359,41819,5,0,7103.1242066320,9592.9391690265,14055.4541465373,1650.3047200956,-5997.6646148741,-3079.9360906104,-5870.9867232505,-20393.9967879062,-8313.0313079181,-2581.9852658283,-4854.5581691460,466.0592914091,-21465.3746608630,10280.9007473957,12710.0354057342,17319.9741979517
561328820359,41819,5,0,7095.5802346018,9587.4150346689,14052.7285824490,1645.1334489459,-6000.5483590211,-3082.6738223955,-5875.3792618035,-20397.2212275642,-8317.3995110775,-2584.2606251342,-4858.5248383103,461.4599020101,-21468.3314111910,10276.5812150235,12704.6694514353,17316.3603919953
561328820359,41819,5,0,7095.5924022986,9584.3609427664,14045.4644674457,1641.0329351165,-5998.9908938278,-3092.5783276094,-5878.6523722489,-20394.5930050505,-8314.3332514781,-2584.3457990119,-4869.2567469081,466.7893532185,-21462.6247613810,10280.3897041291,12711.1183307514,17320.8381044262
561328820359,41819,5,0,7099.0358604995,9586.7701467373,14041.6438106433,1639.2807867740,-5993.2599086242,-3093.4057309934,-5876.0484851288,-20388.1562934311,-8306.5945962988,-2576.9356716468,-4869.3662561795,474.2116482805,-21457.3439809599,10288.1405270053,12719.3801968942,17329.5015045641
561328820359,41819,5,0,7102.0534493116,9590.9923375349,14047.3382927564,1641.8238354100,-5991.6902757340,-3086.0321067187,-5870.1471521697,-20387.7790948296,-8306.8622856289,-2575.3052002725,-4857.8312795914,474.6496853661,-21460.8969484322,10286.1815278168,12719.0029982927,17330.8642866083
561328820359,41819,5,0,7101.1165366562,9592.0995979458,14054.1765383709,1646.9221003788,-5996.1923235585,-3079.3642088597,-5869.0642271524,-20392.3054780478,-8312.8244570721,-2580.8901731142,-4852.5991699575,467.8844459326,-21469.2561561495,10278.2360217915,12710.2422565802,17321.9818679275
561328820359,41819,5,0,7097.9164323918,9588.8386551972,14054.7362524248,1644.5007287111,-6002.9818983857,-3085.5453988457,-5873.8217966102,-20396.3694887866,-8318.4337653075,-2586.3534689877,-4858.8655338213,462.0317837608,-21473.6851977931,10272.1521733800,12704.8884699781,17318.7330928758
561328850654,41820,5,0,7095.8235885383,9585.9062402629,14046.6569017343,1639.0130974439,-6005.0017360583,-3098.0294557861,-5881.4022717309,-20396.9778736278,-8317.7767096790,-2587.8622633938,-4873.2234160724,462.9565287193,-21470.4729258318,10276.2891902998,12707.5288601886,17322.4685758004
561328850654,41820,5,0,7100.5081518151,9588.7048105322,14043.4324620763,1637.3826260697,-5999.6966202435,-3102.4341620360,-5881.8281411197,-20391.9404471431,-8312.0092213850,-2583.9929358041,-4877.6281223223,468.9187001625,-21460.1425512292,10284.5510564426,12714.3671058031,17327.9197039771
561328850654,41820,5,0,7104.7425103095,9593.7057339264,14049.1512795831,1643.1014435764,-5994.7930384239,-3094.0384512282,-5874.5153553291,-20389.3487277198,-8308.0060491302,-2580.9753469920,-4866.8110398467,470.7560223828,-21457.5751671995,10285.8530000026,12714.9998260379,17329.4528337768
561328850654,41820,5,0,7104.9980319428,9596.4678011052,14059.6763373349,1648.6499133277,-5997.3360870599,-3084.5476477063,-5870.6460277394,-20393.2302230063,-8311.6806935707,-2583.0560231487,-4855.9939573711,466.3148130424,-21466.0073810978,10279.0025866913,12707.4193509172,17325.5835061871
561328850654,41820,5,0,7099.9362700644,9590.7489835984,14058.0093628702,1646.4597278996,-6003.4077677745,-3084.9370140046,-5873.9313058816,-20397.9634570704,-8318.5797776694,-2589.2372131348,-4860.6420175575,460.4378154769,-21471.8357078760,10273.5271231210,12703.2823339974,17320.5339120056
561328850654,41820,5,0,7094.9110112765,9584.0567503458,14047.8493360230,1638.5142218742,-6003.1279107476,-3095.1578793359,-5879.8691419312,-20397.5497553785,-8319.2490009946,-2590.2106288806,-4871.6537831822,461.9831129735,-21468.8789575480,10276.3013579966,12706.6892891079,17322.4320727100
561328850654,41820,5,0,7098.0746124505,9585.8697371724,14044.1503561888,1635.8859993604,-5997.4577640281,-3098.9785361383,-5879.0904093345,-20390.3343111625,-8311.2791595756,-2585.1123639118,-4875.2919245323,470.9872086224,-21459.5706694785,10283.0544297333,12714.1602549571,17329.0878028721
561328850654,41820,5,0,7104.8641872777,9592.7444858774,14048.0440191722,1642.4078848575,-5991.8484557927,-3090.3516390908,-5871.0597294314,-20384.2139596605,-8304.6599325039,-2579.8924219747,-4863.6109355823,477.2170693958,-21454.4480691160,10288.3595455481,12721.4122022636,17334.2712417187
561328890911,41821,5,0,7105.9349445981,9595.6038946308,14056.0381959848,1650.3655585797,-5994.1968212796,-3080.5201400579,-5866.9592156021,-20385.1873754063,-8309.1376449347,-2581.4012163808,-4853.1588840114,473.1652263537,-21460.4589113466,10283.8209946332,12713.3571869668,17330.4870880068
561328890911,41821,5,0,7102.5401571845,9593.4015415058,14060.3212252665,1650.0126953719,-6000.0494834514,-3081.1893633831,-5870.1836552601,-20393.1450491286,-8314.6861146860,-2584.4796436770,-4854.4364921778,466.9475332772,-21467.8447033181,10279.4892945642,12710.4126043357,17325.2793137665
561328890911,41821,5,0,7099.1210343773,9588.2059349624,14052.8624271140,1643.8680084763,-6001.1689115591,-3090.2056267289,-5876.7177084541,-20393.7169308792,-8315.3796734049,-2585.7085810561,-4866.0201395532,468.9308678594,-21466.2629027311,10281.6794799923,12712.4081066146,17326.5082511457
561328890911,41821,5,0,7100.4716487246,9587.1716807325,14044.5032193967,1637.5894769156,-5996.4965159791,-3096.5693321673,-5878.5550306743,-20386.7570082965,-8309.4175019617,-2581.1943655348,-4871.2522491871,475.8177842611,-21459.7775203245,10287.7754961006,12717.9930794564,17332.3852487111
561328890911,41821,5,0,7103.2458836003,9592.6714796964,14048.8592548593,1642.7242449749,-5989.1107240076,-3087.5652365184,-5871.8141266344,-20382.7051652545,-8303.9420383914,-2575.0131755487,-4862.2724889317,479.8452919095,-21455.6040003142,10289.8318368637,12719.6113831338,17335.2568251614
561328890911,41821,5,0,7102.6009956686,9594.3627895548,14056.7804254910,1648.1145346675,-5993.5762687416,-3078.3421223266,-5866.8618740275,-20386.4163127855,-8310.2935761329,-2578.5053045369,-4851.6622573021,474.6253499725,-21461.2254762464,10283.2734482761,12712.9191498812,17328.1143871263
561328890911,41821,5,0,7099.2913821328,9593.4137092026,14057.9606920829,1649.0271119292,-6001.6434517352,-3078.9505071677,-5868.7235316414,-20391.8917763558,-8317.2413310188,-2584.3944697992,-4852.0881266909,468.6996816197,-21468.1002249514,10275.8754886078,12708.2467543012,17322.7484328274
561328890911,41821,5,0,7095.9817685970,9588.6926428353,14051.7673344000,1642.4565556448,-6003.1279107476,-3088.1006151786,-5874.5640261164,-20393.6074216078,-8319.0178147550,-2584.7351653103,-4861.5424271224,469.4297434291,-21467.0781384182,10278.8565743294,12710.7046290594,17327.7006854343
561328905646,41822,5,0,7097.2472090665,9586.4781220136,14043.2621143207,1636.3118687492,-5997.3969255440,-3095.1578793359,-5875.8051311923,-20386.9151883552,-8310.5369300694,-2580.4278006350,-4868.3563373432,478.2878267162,-21458.2200551311,10288.0553531276,12720.4144511241,17337.8728799783
561328905646,41822,5,0,7104.4748209794,9595.1171867578,14047.3504604533,1643.2474559383,-5990.4004998708,-3089.8040927338,-5868.8330409128,-20379.8579241979,-8303.5526720930,-2573.7112319887,-4859.8876203544,484.0188119198,-21451.5156541817,10293.8350091185,12725.7195669389,17344.6867901991
561328905646,41822,5,0,7106.2878078060,9598.5849803524,14056.3180530118,1649.9275214941,-5991.1183939834,-3077.5998928204,-5863.8929560027,-20382.3279666530,-8307.1664780494,-2573.4678780522,-4847.8294328029,479.3342486430,-21458.4269059771,10288.4812225164,12719.2706876228,17338.5542710004
561328905646,41822,5,0,7100.9705242944,9595.2510314229,14060.9661131981,1652.6895886729,-5997.8592980233,-3075.9329183556,-5865.6329366484,-20387.8642687074,-8316.3652568476,-2580.0992728207,-4847.8050974093,471.9727920651,-21468.4774235529,10279.5014622610,12711.3860200815,17330.8642866083
561328905646,41822,5,0,7099.4982329788,9593.5475538677,14054.8092586057,1649.6476644672,-5998.4920182581,-3084.2312875889,-5868.7722024287,-20388.6916720914,-8316.9979770824,-2583.2993770852,-4857.7217703200,471.9727920651,-21468.1975665259,10279.9151639530,12711.3373492942,17330.1828955862
561328905646,41822,5,0,7099.0480281963,9591.9535855839,14047.8006652357,1643.8071699922,-5993.1382316560,-3090.5341545432,-5869.0763948493,-20381.8655941737,-8308.7847817269,-2577.9090873926,-4864.0003018806,478.9327146478,-21458.7189307009,10288.7489118465,12719.0273336863,17338.5542710004
561328905646,41822,5,0,7103.6109145049,9596.5894780734,14048.4455531673,1643.4178036938,-5988.7091900124,-3087.1880379168,-5866.7523647561,-20378.1666143395,-8304.3314046897,-2572.1537667954,-4860.2404835623,484.8097122133,-21452.4160637466,10293.7985060280,12723.6388907822,17342.7642941011
561328905646,41822,5,0,7105.3630628474,9600.9090104456,14054.5050661851,1650.0005276750,-5990.5100091422,-3078.0622652996,-5861.8731183301,-20380.1621166185,-8306.3025715750,-2573.6868965950,-4849.2652210280,482.6316944820,-21456.4679067886,10290.0265200129,12718.6988058721,17338.9314696019
561328961290,41823,5,0,7102.8930203924,9599.4245514332,14059.8345173936,1653.1276257585,-5994.2698274605,-3072.4894601547,-5861.8609506332,-20386.3554743014,-8311.9118798104,-2576.4367960770,-4846.2963030032,474.9782131804,-21462.3205689605,10282.7015665255,12711.6537094116,17332.5555964667
561328961290,41823,5,0,7100.4473133310,9597.6602353938,14058.4473999558,1650.7914279685,-5995.8394603507,-3080.1916122437,-5867.0565571766,-20389.5190754753,-8312.5689354388,-2580.2209497890,-4856.4441621535,470.7073515955,-21464.0240465157,10281.6673122955,12707.3341770395,17330.0855540116
561328961290,41823,5,0,7103.2458836003,9596.5529749829,14050.7209124732,1645.2672936109,-5991.3130771325,-3088.0884474817,-5870.6703631331,-20386.2337973331,-8308.5414277904,-2578.3349567814,-4867.1152322673,475.8664550484,-21454.7157584461,10289.0896073575,12712.4081066146,17332.3244102270
561328961290,41823,5,0,7107.9912853612,9599.6314022792,14051.4266388889,1648.2118762421,-5985.1805579338,-3086.4701438043,-5868.7843701255,-20380.3081289803,-8302.2263931393,-2574.1736044680,-4865.1684007756,480.1251489365,-21450.3962260740,10293.9688537835,12715.5230370013,17335.5975206724
561328961290,41823,5,0,7112.2743146429,9605.9221015366,14064.7624346069,1656.3520654166,-5984.4748315180,-3075.0568441844,-5862.6761863204,-20381.5979048436,-8303.6865167581,-2574.0640951966,-4853.7794365493,478.1904851416,-21455.5309941333,10287.9701792498,12710.9966537832,17327.3843253169
561328961290,41823,5,0,7110.0354584275,9605.0946981527,14070.4569167200,1660.1605545222,-5990.0233012693,-3070.4331193917,-5860.5346716795,-20386.6840021156,-8310.6342716440,-2579.1866955590,-4849.3747302994,472.5811769062,-21463.4156616745,10277.2626060456,12706.5432767460,17322.7119297369
561328961290,41823,5,0,7105.7402614490,9601.3957183185,14066.8552784604,1655.6463390009,-5992.8218715386,-3075.9694214461,-5865.1218933818,-20389.1540445706,-8313.9438851798,-2581.3890486840,-4855.7384357378,470.3301529940,-21467.2484861738,10276.6663889013,12706.7014568047,17323.5393331209
561328961290,41823,5,0,7104.1462931652,9597.0883536432,14058.5812446208,1648.4795655722,-5990.5343445359,-3085.0343555792,-5869.4170903603,-20386.5988282378,-8309.4661727490,-2577.8482489085,-4866.1783196119,474.9052069994,-21461.4079916987,10281.4117906622,12711.8970633481,17330.1098894052
561328996879,41824,5,0,7105.8376030235,9597.9765955112,14053.7263335885,1648.1632054548,-5984.6086761831,-3084.5598154031,-5866.2291537927,-20382.0724450197,-8302.7861071932,-2572.0077544335,-4865.7159471326,481.0255585014,-21454.6670876588,10288.8705888147,12716.8979867423,17334.8309557725
561328996879,41824,5,0,7110.0111230338,9604.6931641575,14060.4794053252,1655.1109603407,-5983.3919065008,-3074.4362916464,-5860.2304792590,-20382.7295006481,-8301.3381512712,-2569.8297367022,-4853.2440578891,478.7015284082,-21456.1028758839,10286.9967635040,12714.5617889523,17332.5799318603
561328996879,41824,5,0,7107.6505898502,9603.7075807148,14069.0941346759,1657.7026797640,-5986.8597000953,-3068.1334246921,-5859.3665727845,-20387.2072130790,-8306.2417330909,-2571.9590836462,-4845.7244212525,472.7758600554,-21461.8216933907,10281.5091322368,12708.1737481203,17328.3455733659
561328996879,41824,5,0,7105.0101996396,9598.8283342888,14064.2513913403,1656.2060530548,-5990.1206428439,-3071.6742244676,-5862.4693354744,-20389.9692802578,-8310.1597314679,-2576.8383300722,-4853.2318901923,470.1719729353,-21461.7365195130,10281.3631198749,12708.8673068392,17327.2383129550
561328996879,41824,5,0,7105.6915906617,9597.2587013987,14059.0922878874,1650.5359063353,-5986.5798430684,-3078.8288301995,-5864.6716885993,-20384.9683568635,-8305.6820190370,-2572.1050960081,-4861.1165577336,476.8155354006,-21451.9901943578,10289.1139427512,12717.4820361898,17334.2955771123
561328996879,41824,5,0,7109.0498749848,9600.9941843233,14056.4397299800,1648.1388700611,-5979.2305541873,-3078.4029608107,-5861.4837520317,-20377.6190679825,-8294.4512348695,-2564.0865838017,-4859.7659433862,485.5762771131,-21443.6553220341,10298.6290816667,12727.0580135895,17343.5430266978
561328996879,41824,5,0,7112.9678733618,9606.1654554731,14063.4361556532,1655.4881589422,-5975.2882204167,-3068.0847539048,-5855.0348727156,-20374.5893114736,-8292.4313971968,-2563.1618388432,-4847.6955881379,487.0242330351,-21444.8964271100,10299.1279572364,12726.9971751054,17342.3870954996
561328996879,41824,5,0,7113.6857674743,9609.5115720994,14073.4136670480,1662.7644416423,-5979.8997775126,-3060.0175709112,-5852.8203518938,-20379.2495393568,-8298.1258793100,-2566.8121478901,-4839.5188958728,481.7191172203,-21452.9514424068,10292.3748854997,12721.3148606890,17336.2910793913
561329003418,41825,5,0,7109.4757443736,9605.0095242749,14072.9877976592,1661.0122932998,-5986.1539736796,-3066.6002948924,-5858.6851817625,-20384.4573135970,-8304.5382555357,-2570.9613325067,-4844.9091855654,475.4649210533,-21460.5319175275,10286.5343910247,12717.2021791629,17332.6407703444
561329003418,41825,5,0,7104.6573364317,9599.7652469442,14061.1242932568,1652.2637192841,-5988.7213577092,-3080.6904878134,-5868.1394821939,-20386.3554743014,-8306.2539007877,-2575.4025418471,-4860.1188065941,475.9759643198,-21457.3196455662,10289.7588306828,12719.4775384688,17332.8841242809
561329003418,41825,5,0,7105.3387274538,9599.1568621031,14052.5947377839,1647.5061498263,-5985.1075517528,-3084.5354800094,-5868.1516498907,-20381.4883955722,-8301.3503189681,-2571.3263634114,-4863.5135940077,483.3617562914,-21447.4273080492,10295.0152757103,12725.5127160930,17337.6538614355
561329003418,41825,5,0,7108.3319808722,9603.8414253799,14059.2626356429,1653.3588119982,-5981.7492674297,-3074.6309747956,-5860.5225039827,-20378.5681483347,-8296.5440787230,-2565.1330057285,-4850.1047921088,485.8439664433,-21443.8743405769,10296.6944178719,12725.5613868802,17339.1626558415
561329003418,41825,5,0,7109.7069306132,9607.1753743094,14068.9116192235,1657.8851952163,-5982.9173663247,-3064.5196187357,-5853.4895752191,-20379.2008685695,-8297.0551219896,-2564.4394470096,-4837.7667475303,483.1305700517,-21448.9482701521,10292.7885871917,12721.2540222049,17335.6340237629
561329003418,41825,5,0,7106.6406710139,9603.9387669545,14068.6926006807,1657.5931704926,-5984.6086761831,-3063.9477369850,-5854.5968356299,-20382.3523020466,-8300.8757787920,-2566.5079554695,-4839.7500821125,480.0156396651,-21453.5111564607,10286.0963539391,12715.1093353093,17328.4185795469
561329003418,41825,5,0,7103.0755358447,9599.5340607046,14061.6110011297,1650.9009372399,-5985.0345455719,-3073.3533666292,-5860.6928517382,-20382.8146745259,-8299.3913197796,-2565.4006950586,-4849.5694134486,481.4149247997,-21453.8761873653,10289.0044334798,12718.2972718769,17333.9792169949
561329003418,41825,5,0,7108.1251300263,9599.3272098586,14058.4108968653,1647.6643298850,-5978.1232937765,-3076.6751478618,-5861.4959197286,-20377.7772480412,-8292.2488817445,-2562.3466031561,-4855.9939573711,487.1459100033,-21445.4318057702,10296.1955423021,12725.7195669389,17341.2068289078
561329023081,41826,5,0,7114.4158292837,9605.8247599620,14061.5014918583,1653.4926566632,-5975.5802451405,-3070.5061255726,-5858.1376354054,-20375.2585347988,-8289.4624791721,-2561.2393427452,-4846.9776940253,489.6159524584,-21442.7305770755,10300.0283668013,12728.7006526606,17343.7985483311
561329023081,41826,5,0,7114.7930278852,9609.4750690089,14072.2820712435,1661.0244609966,-5979.7902682412,-3061.9278993124,-5855.7771022218,-20379.7849180170,-8294.7432595932,-2562.7359694544,-4837.0366857210,483.7876256802,-21446.0888613987,10294.7840894707,12723.6267230854,17339.7953760763
561329023081,41826,5,0,7111.1183834447,9608.2826347203,14074.9589645445,1661.7910258965,-5986.1053028923,-3065.4078606038,-5859.7072682956,-20385.8565987316,-8301.6545113886,-2568.5642962326,-4840.1637838045,476.9372123689,-21451.6129957563,10289.3694643844,12719.5627123465,17335.9382161834
561329023081,41826,5,0,7106.9570311313,9603.0991958737,14063.9715343134,1653.9915322330,-5987.7722773570,-3077.1861911284,-5867.7987866828,-20385.9539403062,-8303.3701566407,-2571.7035620129,-4853.5239149160,476.4505044959,-21451.0046109151,10290.0386877097,12721.6677238969,17337.4591782863
561329023081,41826,5,0,7107.2125527645,9600.6413211155,14056.4762330705,1648.2362116357,-5983.8299435864,-3084.8153370364,-5869.1372333334,-20382.3279666530,-8297.7608484053,-2568.2479361152,-4860.0944712004,482.5100175138,-21445.1519487433,10297.2662996225,12727.6542307338,17344.3582623849
561329023081,41826,5,0,7109.0742103784,9604.4133071306,14059.2748033397,1650.9252726336,-5979.9241129063,-3079.1938611042,-5865.4504211960,-20379.9430980757,-8295.3638121312,-2565.3885273618,-4853.3413994637,484.4568490054,-21442.7549124692,10296.2442130894,12725.0260082200,17340.2334131619
561329023081,41826,5,0,7111.8241098604,9609.4385659184,14067.2689801524,1659.3939896224,-5983.1728879580,-3069.9099084283,-5859.5977590242,-20380.5636506136,-8299.9023630461,-2568.4912900516,-4842.4513108072,479.9061303937,-21448.2425437363,10291.6813267808,12721.3148606890,17339.0409788733
561329023081,41826,5,0,7109.9381168529,9609.9009383977,14072.3550774244,1661.6085104441,-5989.3419102472,-3067.8413999684,-5859.0988834544,-20384.5789905652,-8306.6310993892,-2572.3362822477,-4842.3904723231,474.5888468820,-21455.2511371063,10282.8354111905,12712.7609698225,17331.7281930827
561329056760,41827,5,0,7103.5014052335,9602.1014447342,14062.9251123866,1652.2515515873,-5993.3694178956,-3081.2745372609,-5868.8938793969,-20389.5920816563,-8311.3643334533,-2578.6634845956,-4858.0624658310,470.6343454146,-21458.6094214295,10277.2261029551,12706.2877551127,17323.2716437908
561329056760,41827,5,0,7100.3986425437,9598.5849803524,14049.7596644242,1644.1722008969,-5993.3085794115,-3093.4665694775,-5875.0263985957,-20388.7038397882,-8309.1376449347,-2578.9068385321,-4868.3320019496,474.8322008185,-21456.1515466712,10284.2346963252,12714.9876583411,17328.5280888183
561329056760,41827,5,0,7105.4117336347,9604.1577854973,14051.9498498523,1648.6012425404,-5988.8308669806,-3089.8527635211,-5869.8672951427,-20382.1697865943,-8303.5283366994,-2574.2101075584,-4860.4108313178,479.2612424620,-21452.1118713260,10289.0044334798,12719.8669047671,17331.0346343638
561329056760,41827,5,0,7107.6140867597,9608.4043116885,14063.9228635261,1656.2303884484,-5990.6681892009,-3077.7215697886,-5864.5256762375,-20384.8953506826,-8306.8136148416,-2575.6702311772,-4849.2165502407,475.5865980215,-21456.5774160600,10284.2346963252,12714.5861243460,17327.8832008866
561329056760,41827,5,0,7104.3774794048,9605.0825304558,14064.6285899418,1656.9847856514,-5995.6326095047,-3077.2591973093,-5866.5698493037,-20389.7989325022,-8313.8708789989,-2581.8635888601,-4849.5085749645,468.4684953801,-21462.9897922857,10276.1675133316,12708.7456298709,17320.6434212770
561329056760,41827,5,0,7098.7681711694,9599.3758806459,14058.8976047382,1649.7085029513,-5999.2099123706,-3087.9546028167,-5874.9655601116,-20394.3009803267,-8315.4405118890,-2584.9176807626,-4862.6496875332,465.7185958981,-21463.3304877968,10271.9939933213,12704.2800851369,17318.0273664601
561329056760,41827,5,0,7095.7019115700,9593.5232184740,14048.6037332260,1640.8625873610,-5996.6060252505,-3097.7130956687,-5880.5870360438,-20391.2225530305,-8311.9970536881,-2582.8248369091,-4873.1747452851,470.2206437226,-21460.2398928037,10280.2193563736,12712.1160818909,17327.5790084661
561329056760,41827,5,0,7098.8533450472,9596.5286395893,14045.2089458124,1642.2618724957,-5992.9678839004,-3093.8316003822,-5877.3504286889,-20387.8034302233,-8307.8722044652,-2578.7243230797,-4869.3419207859,473.7371081044,-21455.1781309254,10285.9868446677,12716.6181297154,17332.8597888872
561329096866,41828,5,0,7103.2337159034,9604.3403009496,14056.9994440339,1650.6210802130,-5992.4933437244,-3083.1970333589,-5870.9015493727,-20388.6795043945,-8309.6243528077,-2578.2741182973,-4855.9087834933,471.1940594684,-21457.8915273169,10283.8940008141,12712.1647526782,17328.1752256104
561329096866,41828,5,0,7102.0047785243,9602.3813017611,14064.1783851594,1652.7260917634,-5997.2630808789,-3079.3763765565,-5871.1084002187,-20394.1549679649,-8315.4526795859,-2581.7297441950,-4853.1102132241,463.8569382842,-21462.5760905937,10277.1774321679,12705.2413331859,17321.1544645436
561329096866,41828,5,0,7100.5689902992,9597.9400924208,14060.6375853839,1649.7206706481,-5999.0882354024,-3085.5819019362,-5874.7222061751,-20395.4204084344,-8316.8154616300,-2583.8955942295,-4862.1994827508,462.9808641129,-21462.4909167160,10278.3211956692,12705.3508424573,17320.7650982452
561329096866,41828,5,0,7101.7127538006,9597.6480676970,14054.1278675836,1645.3524674887,-5994.3428336414,-3093.1137062696,-5876.7542115445,-20390.3099757688,-8310.5856008567,-2579.4787202828,-4868.5388527956,471.1940594684,-21455.1781309254,10284.3077025061,12714.4401119841,17329.8178646815
561329096866,41828,5,0,7105.0832058205,9602.4786433357,14055.0404448454,1647.9928576993,-5988.8065315870,-3089.6824157655,-5870.9623878568,-20381.8047556896,-8302.5914240440,-2572.5796361842,-4862.8930414697,478.7867022859,-21449.1794563917,10290.8295880032,12721.5825500191,17340.0508977096
561329096866,41828,5,0,7109.2810612244,9608.5624917472,14064.0688758880,1656.2668915389,-5985.7524396844,-3076.3101169571,-5864.6473532057,-20381.8047556896,-8303.1876411883,-2571.7157297097,-4850.0439536247,477.7646157528,-21450.4448968613,10287.6173160419,12717.6767193390,17334.1860678409
561329096866,41828,5,0,7107.4680743978,9606.5061509841,14068.3640728665,1658.2380584242,-5991.5807664626,-3072.5259632452,-5866.0466383403,-20388.9228583310,-8308.6996078491,-2575.8649143264,-4847.0993709935,470.7925254733,-21456.7234284219,10283.2612805793,12712.7001313384,17330.1463924957
561329096866,41828,5,0,7097.9286000886,9597.4290491542,14061.2338025282,1647.1167835280,-5998.2851674121,-3083.1970333589,-5875.3792618035,-20397.6836000435,-8315.1119840748,-2581.5107256522,-4860.3743282274,463.7230936191,-21462.7099352588,10277.5667984662,12706.4094320809,17325.8755309109
561329120688,41829,5,0,7096.1277809588,9593.0365106011,14050.5627324145,1639.7188238597,-5995.8516280475,-3094.1114574091,-5880.3315144105,-20395.8462778232,-8311.9970536881,-2581.5350610458,-4871.3252553680,468.2981476246,-21457.0032854488,10281.8619954447,12711.8240571671,17331.2293175130
561329120688,41829,5,0,7099.8267607930,9596.0662671100,14046.9854295486,1639.6944884660,-5990.1206428439,-3093.7220911108,-5876.8028823318,-20390.1396280133,-8306.1687269099,-2575.5363865121,-4867.2977477196,474.6131822757,-21449.1186179076,10288.2987070640,12718.4067811484,17336.8872965356
561329120688,41829,5,0,7103.9759454096,9600.0086008807,14057.0481148211,1646.5205663837,-5990.1206428439,-3084.0731075302,-5870.5365184680,-20390.4924912211,-8306.9352918098,-2575.2321940916,-4854.6311753269,473.7736111949,-21453.9126904558,10286.3762109660,12718.1269241214,17336.2180732104
561329120688,41829,5,0,7103.2337159034,9601.0306874138,14065.1761362989,1651.8865206826,-5995.5596033237,-3078.1839422679,-5869.0520594556,-20394.1793033585,-8314.9416363193,-2580.8171669333,-4849.9831151406,468.2373091405,-21462.0772150240,10278.7227296644,12710.5951197880,17328.5402565151
561329120688,41829,5,0,7102.0412816148,9599.0473528317,14061.1242932568,1648.4308947849,-6001.1932469528,-3084.5841507967,-5873.1890763754,-20399.3019037210,-8319.1516594200,-2586.1222827481,-4857.0890500852,462.9565287193,-21467.2484861738,10275.8024824269,12703.7325387799,17320.1323780104
561329120688,41829,5,0,7100.8001765388,9596.4799688020,14054.9796063612,1643.1622820606,-5997.8227949328,-3093.0163646950,-5877.8371365618,-20396.5155011485,-8314.0047236639,-2582.0704397061,-4867.6627786243,467.3734026660,-21457.9401981042,10279.0999282659,12709.1349961693,17326.4109095711
561329120688,41829,5,0,7105.2170504856,9601.1280289884,14052.3392161507,1644.4763933174,-5987.9912958999,-3090.6801669050,-5873.0187286199,-20387.9737779788,-8304.0028768755,-2574.6116415536,-4866.0688103405,476.9007092784,-21448.8144254870,10292.1315315633,12719.0273336863,17336.4005886627
561329120688,41829,5,0,7108.8916949261,9608.1974608425,14060.1995482983,1651.6553344430,-5982.9173663247,-3076.5656385904,-5863.8686206090,-20384.0436119050,-8300.8636110951,-2570.4016184529,-4853.0493747399,478.4216713813,-21445.3466318925,10293.9080152994,12720.7551466352,17339.3816743843
561329181739,41830,5,0,7108.5631671119,9610.1442923342,14070.8949538056,1658.6152570257,-5986.8840354890,-3068.4376171127,-5859.7316036892,-20385.7470894602,-8304.0758830564,-2571.8860774653,-4841.5995720296,476.0733058944,-21449.6418288710,10289.6736568050,12716.7763097741,17338.8097926337
561329181739,41830,5,0,7106.1661308378,9605.2042074241,14068.7291037712,1655.0987926439,-5990.8385369564,-3071.3456966534,-5862.6883540172,-20389.1297091770,-8308.2372353699,-2575.4147095439,-4847.8416004997,472.8853693268,-21451.5643249690,10289.0409365702,12717.5793777644,17335.5123467946
561329181739,41830,5,0,7102.4549833068,9600.3127933012,14058.9827786160,1648.3943916944,-5990.0841397534,-3083.4038842049,-5869.2467426048,-20388.7525105755,-8307.7626951938,-2577.1911932801,-4860.8610361003,475.0390516645,-21447.1109479318,10294.4677293533,12723.9552508996,17338.3960909417
561329181739,41830,5,0,7101.2138782308,9596.6989873448,14053.8966813440,1644.1113624127,-5985.5699242321,-3085.5088957553,-5867.3364142036,-20382.6199913767,-8300.7906049142,-2571.2898603209,-4862.0656380857,481.0498938950,-21442.3047076867,10301.0747887281,12731.8642538345,17345.2708396466
561329181739,41830,5,0,7100.2039593945,9598.6214834428,14057.6808350559,1648.3578886040,-5984.7668562418,-3079.1573580137,-5863.0168818314,-20382.8511776163,-8301.4476605426,-2570.5841339052,-4852.7086792289,480.7335337776,-21444.1055268165,10297.7408397986,12726.5226349293,17338.5542710004
561329181739,41830,5,0,7100.8245119325,9601.0306874138,14062.4505722105,1652.8356010348,-5994.5983552747,-3076.7481540428,-5866.2291537927,-20392.0864595050,-8312.9461340403,-2578.5174722338,-4848.5838300059,470.2693145099,-21456.8086022997,10283.8696654205,12717.1413406788,17330.7669450337
561329181739,41830,5,0,7101.9317723434,9602.7950034531,14065.2369747830,1653.8211844775,-6003.4199354714,-3083.2822072367,-5873.3229210405,-20400.2144809827,-8323.7388811223,-2587.2295431590,-4855.6897649505,462.6766716924,-21465.9952134010,10271.7749747785,12707.4558540077,17324.9629536491
561329181739,41830,5,0,7103.2093805098,9603.2087051451,14059.4816541857,1647.8590130342,-6005.9994871978,-3094.7320099471,-5880.3436821073,-20399.2532329337,-8324.1282474206,-2590.7460075408,-4869.7677901747,462.9443610225,-21465.9465426137,10273.6974708765,12707.8817233965,17325.1698044951
561329193136,41831,5,0,7107.9912853612,9604.7418349448,14054.0913644932,1645.8148399680,-5998.6867014072,-3096.6180029546,-5878.3481798283,-20391.5997516320,-8316.4504307253,-2585.7694195402,-4871.6294477886,471.2792333462,-21456.4314036982,10281.7889892638,12715.2310122776,17332.3122425302
561329193136,41831,5,0,7111.4834143494,9608.5989948377,14061.0269516822,1650.9861111177,-5992.1283128197,-3085.1316971538,-5870.1349844728,-20386.6840021156,-8310.0258868028,-2578.6269815052,-4859.1210554546,476.1584797722,-21455.0321185635,10284.8065780758,12718.3459426642,17335.2933282518
561329193136,41831,5,0,7105.8862738108,9605.0946981527,14066.8187753700,1653.9063583552,-5992.9678839004,-3074.0834284385,-5864.3066576947,-20388.6430013041,-8312.8366247689,-2578.0307643608,-4846.8316816634,473.1287232633,-21459.4854956007,10279.6961454102,12712.8948144876,17331.4361683589
561329193136,41831,5,0,7101.1165366562,9600.3249609981,14067.0012908223,1653.1032903649,-5996.5573544632,-3073.6210559593,-5866.3386630641,-20391.1738822432,-8315.0633132875,-2581.4620548649,-4848.7663454583,469.2958987640,-21463.2209785254,10276.0945071506,12709.5000270740,17326.5812573266
561329193136,41831,5,0,7099.6442453407,9595.6890685085,14059.8101820000,1646.6179079583,-5995.3405847809,-3082.6616546987,-5871.8262943312,-20390.6993420671,-8312.7879539816,-2580.7076576619,-4860.9097068876,469.9286189988,-21460.7874391608,10277.6641400408,12710.2057534897,17328.9539582071
561329193136,41831,5,0,7102.2846355512,9595.5430561466,14055.1012833295,1642.9797666082,-5988.7091900124,-3088.9401862593,-5873.2377471627,-20387.3775608345,-8306.3634100591,-2576.5949761357,-4866.7258659689,474.7713623344,-21453.5598272479,10282.6772311318,12713.7222178715,17334.3199125060
561329193136,41831,5,0,7108.3563162659,9602.8680096341,14059.4329833984,1648.7107518118,-5983.4892480754,-3082.1627791290,-5868.7235316414,-20386.4041450886,-8302.8104425868,-2575.6093926931,-4859.7416079926,477.3265786672,-21450.9194370374,10285.5731429757,12715.0849999157,17335.5001790978
561329193136,41831,5,0,7110.2544769703,9609.1343734979,14070.4934198105,1656.5345808690,-5984.0732975229,-3071.1388458074,-5863.9902975773,-20388.6186659104,-8304.8911187435,-2574.4899645854,-4848.2918052822,472.5203384221,-21456.8451053901,10280.8155735179,12710.9114799054,17331.9593793223
