timestamp,sequence,battery,flags,EEG-ch1,EEG-ch2,EEG-ch3,EEG-ch4,EEG-ch5,EEG-ch6,EEG-ch7,EEG-ch8,EEG-ch9,EEG-ch10,EEG-ch11,EEG-ch12,EEG-ch13,EEG-ch14,EEG-ch15,EEG-ch16
560309436773,20279,-2,0,-246.8460654470,3525.0547757872,6591.4238844400,-2728.3018201242,-10317.1361485344,-7977.0203601525,-10993.3315640758,-21674.4521953716,-13965.4740285317,-5166.7569342290,-7200.0520795236,-4183.0473168815,-24103.6598598911,1970.2178049644,5628.1438300582,9357.1657076884
560309436773,20279,-2,0,-248.6347168800,3523.1687827797,6585.5103837841,-2731.1368934839,-10320.7499544908,-7982.3619790578,-10993.4775764376,-21675.5959588730,-13968.2969341946,-5171.8065284106,-7197.1805030734,-4186.1500795713,-24105.5093498082,1968.5629981965,5626.6107002585,9355.4622301332
560309436773,20279,-2,0,-243.6216257889,3527.6221598169,6595.3297151202,-2725.0895481629,-10315.9437142457,-7968.1622768654,-10991.9201112443,-21677.6157965456,-13966.4231088839,-5167.9858716082,-7197.7280494304,-4188.2794265153,-24102.7959534166,1971.4589100404,5626.9148926791,9351.7267472085
560309436773,20279,-2,0,-238.0366529472,3531.2603011669,6608.5438338699,-2719.2612213847,-10310.5534245532,-7953.6097114652,-10990.4964907160,-21677.4089456996,-13960.9233099199,-5158.8966020814,-7201.5000354455,-4187.3911846473,-24100.2285693870,1975.1457221777,5629.5431151928,9351.8119210863
560309436773,20279,-2,0,-236.6495355094,3530.8831025654,6609.9066159141,-2720.1737986464,-10308.1320528854,-7956.5542940964,-10991.6889250047,-21677.8956535725,-13960.1567450201,-5157.3391368881,-7205.7100585463,-4186.3325950237,-24098.2452348049,1975.9974609553,5630.8328910560,9354.6348267492
560309436773,20279,-2,0,-239.8131366834,3526.5514024965,6596.4126401374,-2725.0165419820,-10310.1762259517,-7972.5669831153,-10991.8714404570,-21677.1655917632,-13961.0814899786,-5162.5225757347,-7202.1327556803,-4184.6412851653,-24099.9973831474,1974.9510390285,5630.4556924545,9356.5816582409
560309436773,20279,-2,0,-245.9213204885,3520.8690880801,6586.9705074028,-2730.5528440364,-10315.9072111553,-7978.9915270379,-10995.3148986579,-21681.4607887416,-13964.7317990255,-5164.2625563803,-7197.0831614988,-4190.4087734593,-24104.4020893973,1969.5120785487,5625.1384089429,9355.6325778887
560309436773,20279,-2,0,-244.0353274809,3522.5238948481,6594.4171378585,-2728.8006956939,-10314.0333858445,-7966.8846686990,-10998.0891335335,-21684.6243899156,-13963.7948863701,-5161.4031476269,-7197.4116893130,-4193.0369959731,-24105.3755051431,1970.1813018739,5625.0288996715,9352.4081382306
560309480543,20280,-2,0,-236.2358338174,3529.7150036704,6608.2639768430,-2720.3198110083,-10308.0590467045,-7949.6187069073,-10994.2563090343,-21680.1345097879,-13959.4875216948,-5153.5306477825,-7200.4779489124,-4190.0072394642,-24100.0825570251,1973.7829401335,5628.1559977550,9350.8506730373
560309480543,20280,-2,0,-232.5368539832,3533.7546790156,6612.9363724230,-2717.4725699518,-10306.0878798192,-7949.0954959439,-10992.2486390585,-21677.3724426091,-13956.8349637874,-5147.7631594884,-7202.2666003454,-4188.2064203344,-24097.0162974257,1974.9267036349,5626.7810480140,9352.1526165973
560309480543,20280,-2,0,-236.0289829714,3530.7857609908,6605.3437296055,-2719.9547801036,-10307.7913573744,-7961.7985714270,-10989.3892303051,-21674.2818476161,-13957.3338393571,-5150.2210342467,-7199.3463531079,-4185.9918995126,-24097.4421668145,1973.2110583829,5624.2623347717,9354.4523112969
560309480543,20280,-2,0,-239.3385965073,3526.4175578314,6592.3121263081,-2724.3594863535,-10310.6751015214,-7968.4421338924,-10987.0165294246,-21673.4787796258,-13960.6677882866,-5155.5383177583,-7192.2769212537,-4186.5516135665,-24099.6810230300,1972.6148412385,5621.9504723753,9354.8538452920
560309480543,20280,-2,0,-240.5310307959,3529.6176620958,6597.6294098197,-2721.5122452970,-10310.5655922500,-7957.6980575977,-10986.8461816691,-21676.0339959586,-13961.2761731278,-5152.4477227653,-7190.3422574589,-4189.4231900167,-24100.5692648980,1972.0794625783,5622.0234785562,9352.1404489005
560309480543,20280,-2,0,-238.1461622186,3528.8632648928,6607.9354490288,-2719.7357615608,-10308.7161023329,-7945.8832239826,-10990.1314598113,-21676.6423807998,-13960.0837388391,-5148.0551842122,-7195.0024853421,-4190.5912889117,-24098.8779550397,1974.8902005444,5624.9802288842,9350.1814497120
560309480543,20280,-2,0,-240.2146706785,3526.5635701933,6606.0981268085,-2724.5054987154,-10310.9792939420,-7950.6772965309,-10996.9088669417,-21681.3512794702,-13962.6024520815,-5152.9587660318,-7203.6293823895,-4192.8788159144,-24098.3790794699,1976.2043118013,5625.8684707523,9349.5730648709
560309480543,20280,-2,0,-248.0871705230,3518.5328902901,6591.9957661907,-2733.4609235771,-10318.6814460309,-7972.1532814234,-11002.5790136612,-21685.8168242043,-13967.6155431725,-5161.0381167223,-7207.4378714951,-4194.5214549855,-24100.9099604091,1972.8703628718,5623.7147884146,9351.1061946706
560309538358,20281,-2,0,-254.9862546216,3511.3904522551,6581.4828761357,-2739.9219705901,-10323.9500587552,-7986.9005299728,-11005.3532485368,-21687.9461711483,-13970.9494921020,-5165.5766676372,-7201.7190539883,-4196.9306589564,-24101.6886930058,1972.0672948815,5622.6075280037,9352.0796104164
560309538358,20281,-2,0,-251.0317531541,3516.1480217128,6590.1219408800,-2734.0206376310,-10319.9712218941,-7975.5359011401,-11001.1797285265,-21686.1210166248,-13966.7759720917,-5161.9628616808,-7198.6041236017,-4196.2127648439,-24096.8216142766,1976.5450073123,5627.0974081314,9349.9137603819
560309538358,20281,-2,0,-244.3151845079,3524.3125462810,6601.8881037078,-2727.6082614053,-10314.9337954094,-7959.7909014513,-10999.2815678222,-21685.7073149329,-13962.8701414116,-5155.9520194503,-7201.5122031423,-4195.9937463011,-24093.4146591662,1980.3656641147,5629.0442396231,9347.1151901126
560309538358,20281,-2,0,-241.8329743560,3525.9916884426,6607.6677596987,-2726.2454793611,-10315.3231617078,-7960.4966278670,-11001.2892377980,-21686.4738798327,-13964.5857866636,-5157.6189939150,-7208.0949271235,-4195.3123552790,-24094.7896089071,1977.6766031169,5629.6891275547,9347.3220409586
560309538358,20281,-2,0,-247.4544502882,3519.0074304662,6594.7700010663,-2733.1932342470,-10322.3074196841,-7979.0280301283,-11003.1143923214,-21687.4472955785,-13970.5601258037,-5169.8110261316,-7211.8790808355,-4195.9815786043,-24100.4232525362,1972.1159656688,5625.0045642779,9345.8010788558
560309538358,20281,-2,0,-257.5901417417,3512.0718432772,6575.6545493575,-2740.6520323995,-10330.4962796460,-7997.4255877246,-11004.3189943069,-21688.7614068354,-13979.0288427924,-5181.8692136831,-7208.6303057838,-4197.2226836802,-24106.7261194904,1965.9469433796,5623.2402482385,9349.2323693598
560309538358,20281,-2,0,-261.2161153949,3511.0010859567,6577.6500516365,-2738.9607225411,-10332.9784897979,-7993.2764031080,-11002.9318768691,-21689.9660088209,-13980.8053265286,-5183.7673743875,-7206.3792818715,-4198.1960994260,-24109.9140560581,1965.3142231448,5622.0843170404,9347.4193825332
560309538358,20281,-2,0,-257.7604894972,3514.4688795513,6587.9804262391,-2733.8381221786,-10328.4034357924,-7976.0347767099,-11000.7660268346,-21687.2039416421,-13977.9215823816,-5178.9124633552,-7208.8736597202,-4196.3101064185,-24106.7017840968,1970.3759850231,5625.8076322682,9345.6915695844
560309544421,20282,-2,0,-253.9276649980,3518.7397411361,6595.0376903964,-2729.5672605938,-10322.4412643492,-7969.2208664890,-10998.6975183747,-21684.5635514315,-13975.1716828996,-5176.6736071397,-7214.6046449238,-4193.6575485111,-24103.1001458372,1972.9555367496,5629.0685750167,9346.2391159414
560309544421,20282,-2,0,-253.7694849393,3516.3305371652,6587.6884015154,-2733.0350541883,-10321.8328795081,-7979.5390733949,-10999.3545740031,-21682.5923845462,-13973.3951991634,-5175.9800484208,-7214.0449308700,-4191.7593878067,-24100.4719233235,1973.5639215907,5629.9689845816,9351.4712255753
560309544421,20282,-2,0,-262.3355435026,3510.4900426902,6573.1966745993,-2740.6276970058,-10322.5507736206,-7989.6139263643,-10998.3081520763,-21682.0205027955,-13973.5412115253,-5178.1215630617,-7206.6834742921,-4189.8125563150,-24100.5936002917,1972.6756797226,5628.8860595644,9352.9435168908
560309544421,20282,-2,0,-264.6960766863,3509.2246022206,6570.4224397236,-2740.4695169471,-10322.5142705301,-7983.5909164369,-10997.5172517828,-21682.7505646049,-13971.0103305861,-5174.0818877164,-7202.1084202867,-4190.7616366672,-24100.4962587171,1974.4278280652,5628.5818671438,9349.9380957756
560309544421,20282,-2,0,-257.5536386512,3514.4080410672,6584.9628374270,-2733.9963022373,-10318.1582350675,-7965.4732158676,-10997.1278854845,-21682.4098690938,-13965.7417178618,-5163.3134760281,-7202.5951281596,-4191.2848476306,-24097.7463592351,1977.2507337281,5630.8207233592,9347.8939227093
560309544421,20282,-2,0,-249.1700955402,3521.0759389261,6598.2256269641,-2727.1458889260,-10314.1550628128,-7956.5786294900,-10995.0472093278,-21681.5946334067,-13963.4541908591,-5158.2638818466,-7207.5717161602,-4190.2870964911,-24094.5584226675,1978.6743542564,5633.1447534524,9347.4680533205
560309544421,20282,-2,0,-248.5982137895,3520.2242001485,6592.5676479414,-2728.9467080558,-10316.6859437519,-7969.4642204255,-10997.8579472939,-21682.5923845462,-13966.3501027029,-5162.4617372505,-7211.5992238086,-4190.8346428482,-24094.8991181785,1976.0826348331,5630.1636677308,9347.3950471396
560309544421,20282,-2,0,-255.1079315898,3514.8095750623,6582.2129379451,-2733.1932342470,-10324.1569096012,-7985.4039032636,-10999.1477231571,-21683.1642662969,-13972.4096157208,-5168.6307595398,-7206.9146605317,-4193.7548900857,-24099.1334766729,1969.9257802407,5623.2767513290,9344.2314459656
560309563753,20283,-2,0,-257.0547630815,3514.2985317958,6581.0935098373,-2732.6578555868,-10327.0041506578,-7983.2623886227,-10998.1743074113,-21684.7338991870,-13974.6728073298,-5170.6140941219,-7201.5487062328,-4196.3101064185,-24100.9464634996,1964.4624843672,5618.8355419886,9338.1110944637
560309563753,20283,-2,0,-252.1876843523,3519.2751197963,6592.5433125477,-2726.0264608183,-10324.4854374155,-7965.8017436818,-10993.8669427360,-21683.0912601159,-13974.1495963664,-5163.7150100233,-7201.0985014504,-4196.1032555725,-24100.3989171425,1965.3507262352,5619.3830883457,9331.9785752649
560309563753,20283,-2,0,-247.6734688310,3520.2363678453,6604.3338107692,-2722.8871950380,-10322.4169289556,-7955.2645182331,-10993.5870857090,-21681.5946334067,-13972.6773050509,-5157.7163354896,-7204.8826551623,-4194.5214549855,-24100.2894078711,1966.9811976095,5620.3808394851,9329.2773465702
560309563753,20283,-2,0,-251.6644733889,3515.6613138399,6600.8781848715,-2727.4744167402,-10323.8527171807,-7965.3272035057,-10994.0981289756,-21681.4486210448,-13974.4416210902,-5158.9209374751,-7208.3869518473,-4193.6332131174,-24101.0681404678,1967.3097254237,5621.0865659009,9330.3602715874
560309563753,20283,-2,0,-254.6333914137,3513.0330913262,6588.9295065913,-2731.8669552933,-10326.5417781785,-7980.2691352043,-10994.7551846040,-21680.2196836657,-13976.5588003374,-5165.7591830896,-7203.9335748101,-4192.4894496161,-24103.2583258959,1967.8694394776,5620.1983240328,9331.9177367808
560309563753,20283,-2,0,-256.6045582990,3511.8528247343,6586.0457624443,-2732.9012095232,-10328.2695911274,-7981.8509357913,-10994.4753275771,-21681.5702980131,-13975.8165708312,-5165.1386305516,-7197.2170061638,-4193.1708406382,-24102.3579163310,1969.0010352821,5623.0699004830,9333.1710095535
560309563753,20283,-2,0,-252.2241874428,3517.1822759428,6596.6073232866,-2727.4014105593,-10324.1812449949,-7967.7242397798,-10994.1954705502,-21680.8524039005,-13971.4483676717,-5159.8578501304,-7196.6937952005,-4191.5282015671,-24098.3425763794,1973.9289524954,5627.3529297647,9334.7041393532
560309563753,20283,-2,0,-248.0993382198,3520.6500695373,6604.9543633071,-2721.8894438985,-10322.1127365350,-7959.9369138131,-10994.9377000564,-21680.5968822672,-13970.2437656863,-5159.6631669813,-7202.9601590643,-4189.5083638945,-24096.0672170736,1974.9753744222,5630.6747109973,9334.2052637835
560309594322,20284,-2,0,-253.3314478537,3514.8825812433,6599.1260365289,-2729.9931299826,-10328.7076282130,-7972.9685171105,-11001.2040639202,-21681.2174348052,-13975.1351798091,-5166.4040710212,-7209.8835785565,-4189.8247240118,-24100.4719233235,1968.0762903236,5628.4845255692,9335.9817475196
560309594322,20284,-2,0,-262.6519036200,3505.7689763229,6582.5658011529,-2739.1432379934,-10336.8113142971,-7995.9776318027,-11004.6961929084,-21686.6928983755,-13982.6304810520,-5178.5961032378,-7211.8304100482,-4192.6476296748,-24108.8311310408,1962.3696405136,5623.5687760527,9338.2692745224
560309594322,20284,-2,0,-265.9736848527,3498.8820599211,6573.9997425896,-2742.2581683801,-10340.0844247425,-8001.5626046444,-11004.7813667861,-21690.1850273637,-13987.0716903924,-5186.3712615076,-7209.4212060772,-4196.1762617534,-24110.5589439897,1960.4106413251,5620.6971996025,9335.2881888007
560309594322,20284,-2,0,-259.4031285683,3505.0510822103,6586.7758242537,-2734.3856685356,-10334.7306381404,-7984.7468476351,-11000.2184804775,-21687.7636556959,-13983.3727105582,-5179.3505004408,-7205.6492200621,-4194.0104117189,-24107.8698829918,1965.1438753892,5623.1672420576,9334.2417668740
560309594322,20284,-2,0,-252.7595661030,3511.9623340057,6601.6690851649,-2727.9246215227,-10329.1578329955,-7968.6854878288,-10995.7651034403,-21683.5049618079,-13978.1527686212,-5172.5365902199,-7207.3526976173,-4191.0049906037,-24103.6233568006,1969.6702586074,5627.2920912806,9336.3832815148
560309594322,20284,-2,0,-249.7784803814,3513.6414761673,6599.5154028273,-2726.2698147547,-10324.8017975329,-7971.8247536091,-10992.3459806331,-21678.4553676264,-13976.6561419120,-5173.3761613007,-7209.4820445614,-4185.8945579380,-24097.1501420908,1973.1258845051,5631.0275742052,9339.0480071190
560309594322,20284,-2,0,-252.5770506506,3514.2863640989,6591.5698968019,-2729.8836207112,-10327.1136599292,-7986.2069712539,-10992.1634651808,-21676.0583313523,-13977.9459177752,-5177.4645074332,-7205.6613877590,-4185.0184837668,-24098.6102657095,1971.3007299817,5629.7864691293,9343.3797071880
560309594322,20284,-2,0,-259.2692839032,3507.9348263574,6581.3490314706,-2734.8115379244,-10332.1997572012,-7993.4710862572,-10996.4099913720,-21681.4486210448,-13981.8152453649,-5181.3581704166,-7203.2156806975,-4189.5326992881,-24104.0127230989,1965.6670863526,5624.3718440431,9343.0755147674
560309624113,20285,-2,0,-258.9407560890,3509.3706145825,6586.1309363220,-2733.6069359390,-10333.4408622771,-7982.7756807498,-10999.4884186682,-21686.9484200088,-13983.6403998883,-5180.5672701231,-7208.2044363950,-4193.9009024475,-24105.0956481162,1965.6670863526,5622.5710249133,9337.1741818083
560309624113,20285,-2,0,-255.7528195214,3509.9668317268,6596.4491432279,-2730.2243162222,-10329.3646838415,-7970.0117667825,-11002.1288088787,-21688.6397298672,-13980.4037925334,-5173.6681860245,-7213.3635398479,-4195.0811690394,-24104.2804124290,1967.8329363871,5625.1019058524,9337.2106848988
560309624113,20285,-2,0,-255.4364594040,3509.7843162744,6596.5708201961,-2732.7673648582,-10329.1091622082,-7971.1433625871,-11003.5767648007,-21688.0921835102,-13979.0410104893,-5170.2977340045,-7218.2184508802,-4193.8765670539,-24103.5746860133,1968.5386628028,5626.1118246887,9340.0457582585
560309624113,20285,-2,0,-259.7316563825,3505.1970945722,6585.2426944540,-2737.4275927414,-10332.5282850154,-7985.1605493271,-11003.8931249181,-21687.0457615834,-13980.9391711936,-5174.4955894084,-7216.9408427138,-4193.6697162079,-24105.9717222874,1966.8960237318,5623.8973038670,9341.7005650264
560309624113,20285,-2,0,-265.4383061925,3499.5877863368,6571.8825633424,-2742.2094975928,-10336.1542586687,-7993.3494092889,-11002.2869889374,-21689.0777669528,-13983.2875366805,-5178.8151217806,-7209.7740692851,-4195.2758521885,-24109.4881866693,1963.9514411006,5617.8499585460,9336.2859399402
560309624113,20285,-2,0,-267.3364668969,3501.3155992857,6577.3701946095,-2740.5303554312,-10338.9406612411,-7983.9559473416,-11004.5623482433,-21692.1196911585,-13984.4921386659,-5176.4667562937,-7209.6402246201,-4202.1992716808,-24111.5566951292,1961.1893739218,5615.4529222718,9329.4841974162
560309624113,20285,-2,0,-261.2039476981,3505.6594670515,6589.0633512564,-2734.2761592642,-10335.2051783165,-7967.8702521417,-11003.3699139547,-21693.5676470805,-13981.2555313110,-5171.1738081758,-7212.2441117402,-4200.9338312112,-24106.7139517936,1962.5521559660,5615.4042514846,9326.4544409073
560309624113,20285,-2,0,-255.6433102500,3511.4756261328,6595.4270566948,-2730.0296330730,-10331.9077324774,-7967.0063456673,-11002.0071319105,-21690.0633503955,-13978.5299672227,-5165.7713507864,-7214.5438064397,-4196.1519263598,-24103.8667107371,1967.1880484555,5621.3785906246,9330.8956502477
560309655819,20286,-2,0,-255.9109995801,3511.7433154629,6590.2071147577,-2730.7718625792,-10332.8446451328,-7979.7215888472,-11001.8002810645,-21688.1895250847,-13978.3231163767,-5168.2170578478,-7209.7984046788,-4194.0834178999,-24101.7008607026,1968.2831411696,5623.5809437496,9336.9916663560
560309655819,20286,-2,0,-258.8069114240,3508.8230682254,6582.2251056419,-2734.5438485943,-10335.3146875879,-7990.5873421101,-11000.5105052013,-21687.9705065419,-13979.9535877510,-5174.9457941909,-7205.1990152797,-4195.5800446091,-24101.5548483407,1967.8207686903,5621.8652984975,9337.8677405272
560309655819,20286,-2,0,-256.2151920007,3511.0010859567,6586.2282778966,-2730.4920055523,-10333.2583468248,-7981.3398925247,-10999.9386234506,-21687.9705065419,-13980.8418296191,-5174.4590863180,-7203.2278483944,-4195.5922123059,-24100.9951342868,1968.6360043774,5622.5466895196,9334.7528101405
560309655819,20286,-2,0,-253.1124293108,3514.1890225243,6601.1945449888,-2726.8295288086,-10330.3137641936,-7965.5462220485,-10998.3689905604,-21685.9263334757,-13977.9215823816,-5168.3995733001,-7206.5009588397,-4195.4705353377,-24101.8103699740,1968.1736318982,5623.2889190258,9335.2273503166
560309655819,20286,-2,0,-249.2917725084,3515.9776739573,6604.9543633071,-2725.4302436740,-10328.2695911274,-7966.6778178530,-10997.5902579638,-21682.8722415731,-13977.9824208657,-5169.2513120777,-7211.7330684736,-4192.2582633764,-24104.5846048496,1967.1637130619,5621.5246029865,9335.7627289768
560309655819,20286,-2,0,-254.5847206264,3510.0398379077,6591.0101827480,-2732.2076508043,-10334.7914766245,-7985.0753754493,-10998.1743074113,-21681.3026086830,-13981.7909099712,-5177.7808675506,-7212.1954409529,-4191.1996737528,-24109.7558759994,1961.9681065185,5620.4660133629,9340.2891121950
560309655819,20286,-2,0,-263.2724561580,3502.3985243029,6576.7374743747,-2740.3721753725,-10339.1231766935,-7999.1899037639,-10999.5979279396,-21684.2228559205,-13986.4389701576,-5182.6357785830,-7205.9290770891,-4192.0270771368,-24114.7324639999,1956.6264876132,5615.8422885702,9340.6298077060
560309655819,20286,-2,0,-265.1827845592,3503.2867661710,6580.6433050549,-2737.1720711081,-10339.5855491727,-7992.2908196653,-10997.5659225701,-21684.2593590109,-13985.1370265976,-5180.6281086072,-7202.9723267611,-4194.0469148094,-24113.9415637065,1955.4948918087,5615.9883009321,9336.0425860038
560309695788,20287,-2,0,-258.2350296733,3510.2223533601,6593.9182622887,-2728.9102049653,-10332.0902479298,-7971.8855920933,-10993.0395393520,-21681.7041426781,-13979.0531781861,-5172.5730933104,-7202.7654759151,-4190.9076490291,-24110.7171240484,1959.0600269778,5621.1474043850,9334.8744871088
560309695788,20287,-2,0,-249.5229587481,3517.6081453316,6608.3004799334,-2723.1062135808,-10326.2740888484,-7964.3781231535,-10989.6204165448,-21677.7496412107,-13974.4172856965,-5165.4306552753,-7204.6149658322,-4187.8048863392,-24109.3665097010,1962.7468391151,5624.1406578034,9339.1818517841
560309695788,20287,-2,0,-248.5738783959,3517.6081453316,6603.4455689011,-2724.9070327106,-10326.9189767800,-7974.5138146070,-10990.0949567208,-21676.0339959586,-13975.2690244741,-5169.0809643222,-7204.9799967369,-4185.1036576445,-24110.5832793833,1964.5598259417,5626.0266508110,9342.7104838627
560309695788,20287,-2,0,-254.7185652915,3512.5707188469,6589.2458667087,-2729.3239066573,-10331.6522108442,-7987.2290577870,-10989.5717457575,-21676.8979024330,-13979.1748551543,-5176.8682902889,-7200.3806073378,-4186.9409798648,-24112.8464709924,1963.3065531690,5623.7026207178,9342.1142667184
560309695788,20287,-2,0,-257.2251108370,3510.3318626315,6589.0268481659,-2729.1657265986,-10332.4309434408,-7984.3088105495,-10991.0562047699,-21679.6478019150,-13979.5398860590,-5175.9557130272,-7199.5775393475,-4190.8468105450,-24111.6905397942,1962.5521559660,5620.0158085805,9337.2228525956
560309695788,20287,-2,0,-253.9398326948,3513.2156067785,6599.4788997368,-2726.1968085738,-10327.4300200466,-7966.0694330119,-10991.5550803396,-21680.7915654164,-13974.9526643568,-5168.3143994224,-7202.6194635532,-4191.2118414497,-24105.5215175050,1965.1317076924,5621.3055844437,9331.5527058761
560309695788,20287,-2,0,-246.7730592661,3518.6667349552,6610.9895409313,-2720.4779910670,-10320.5674390385,-7956.9071573042,-10989.5595780606,-21679.4044479786,-13969.0148283072,-5163.1796313631,-7206.9754990158,-4188.5349481486,-24101.7008607026,1970.3394819326,5625.9049738428,9332.8181463457
560309695788,20287,-2,0,-246.1038359408,3516.4035433461,6605.9886175371,-2722.8020211602,-10319.2776631752,-7964.1469369139,-10987.7587589308,-21677.1534240663,-13967.0436614218,-5161.9628616808,-7206.6591388984,-4185.6390363048,-24100.4962587171,1970.8870282897,5624.8098811287,9336.8456539941
560309722078,20288,-2,0,-249.1822632370,3513.3372837467,6597.1183665532,-2727.3162366815,-10321.5895255716,-7977.2637140890,-10986.5176538549,-21675.9244866872,-13969.1851760627,-5166.2215555688,-7199.5897070443,-4184.5804466812,-24101.0316373773,1967.6869240252,5622.5466895196,9338.7194793048
560309722078,20288,-2,0,-252.2120197459,3510.5508811743,6592.6163187287,-2730.7353594888,-10323.7067048188,-7976.1442859813,-10987.9534420800,-21678.8203985311,-13972.1419263907,-5170.0665477649,-7196.6937952005,-4189.1555006866,-24102.2484070596,1964.8031798782,5618.5800203553,9334.0835868153
560309722078,20288,-2,0,-251.6523056921,3510.2831918442,6599.7830921574,-2730.3703285841,-10325.1424930439,-7963.9157506742,-10991.0927078603,-21683.1764339937,-13973.1640129238,-5167.4748283416,-7202.3396065263,-4193.6818839047,-24101.9928854263,1962.5521559660,5615.9152947511,9327.2088381103
560309722078,20288,-2,0,-250.8979084891,3512.4247064850,6608.2396414493,-2728.2166462464,-10323.8283817870,-7959.3893674561,-10993.7817688582,-21685.6343087519,-13972.4704542049,-5165.0899597643,-7210.5528018818,-4194.5336226823,-24102.3457486342,1963.5742424991,5616.8765428001,9326.6856271469
560309722078,20288,-2,0,-252.1146781714,3511.2931106805,6599.5397382209,-2731.3802474204,-10327.5273616212,-7972.8346724455,-10997.7849411130,-21686.3156997740,-13976.9968374230,-5172.0620500438,-7215.9795946648,-4193.8765670539,-24102.5769348738,1962.5521559660,5613.6399354452,9326.4544409073
560309722078,20288,-2,0,-260.6320659474,3506.2800195894,6586.5933088013,-2739.1067349029,-10335.7162215830,-7991.3295716163,-11001.4474178567,-21688.3720405371,-13981.9855931204,-5179.3018296535,-7213.5338876034,-4196.7846465946,-24105.0226419352,1958.0501081415,5611.3159053520,9330.5062839493
560309722078,20288,-2,0,-265.4504738893,3503.5422878043,6581.1178452310,-2741.0900694851,-10339.9627477742,-7993.5562601349,-11001.6177656122,-21691.3409585619,-13984.1271077613,-5179.3748358344,-7207.7907347030,-4199.2668567465,-24108.6607832853,1959.2425424301,5612.3866626725,9333.0736679790
560309722078,20288,-2,0,-256.4828813308,3509.1272606460,6595.6339075408,-2734.3491654452,-10332.7838066487,-7974.5868207880,-10997.3104009369,-21688.7735745322,-13977.7147315356,-5171.1738081758,-7205.9899155732,-4195.8112308487,-24104.1100646735,1964.8275152719,5618.2271571475,9333.5968789423
560309758379,20289,-2,0,-247.1745932612,3516.8294127349,6610.9408701440,-2726.3428209357,-10324.0230649362,-7959.3163612752,-10994.1589674597,-21684.3932036760,-13970.7061381655,-5160.3567257002,-7205.6127169717,-4192.7936420366,-24099.5715137586,1971.4832454340,5624.0189808352,9336.8578216909
560309758379,20289,-2,0,-249.1335924497,3513.6171407737,6610.3811560902,-2731.1612288776,-10324.3394250536,-7966.1181037992,-10995.4852464134,-21685.8898303852,-13969.9760763562,-5160.1498748542,-7207.4622068888,-4191.1510029655,-24099.4863398808,1972.2254749402,5626.6107002585,9340.2161060140
560309758379,20289,-2,0,-257.7483218004,3505.2822684500,6594.2224547093,-2740.2261630107,-10330.4597765555,-7984.7833507256,-10999.1477231571,-21687.9340034515,-13975.7070615598,-5169.8718646157,-7206.9389959254,-4192.7206358557,-24103.5260152260,1968.3804827442,5624.5786948891,9341.9317512661
560309758379,20289,-2,0,-265.8885109749,3497.8113026007,6583.5635522924,-2747.6241226790,-10336.3124387274,-7991.9501241543,-11001.7637779741,-21690.9394245667,-13981.0365127682,-5175.3959989733,-7203.0453329420,-4197.1983482866,-24106.5192686445,1964.9005214528,5621.6827830452,9340.3864537695
560309758379,20289,-2,0,-266.1196972146,3497.2272531532,6588.5888110803,-2748.0134889773,-10337.6873884683,-7981.9726127595,-11005.4262547178,-21695.2102861516,-13982.8251642012,-5174.4712540148,-7208.4356226346,-4201.2501913286,-24107.2858335443,1965.8496018050,5618.5313495681,9332.3922769569
560309758379,20289,-2,0,-265.6694924321,3496.8622222485,6592.1661139462,-2747.1982532902,-10338.1740963413,-7975.6210750179,-11009.5997747280,-21697.2787946115,-13983.2388658932,-5174.6172663767,-7217.0503519852,-4203.5255506345,-24105.2659958717,1966.7500113699,5621.9504723753,9331.6622151475
560309758379,20289,-2,0,-270.8407635819,3493.4065963508,6586.3012840776,-2750.8607300339,-10342.4571256229,-7985.3187293858,-11014.9292259365,-21699.4081415555,-13985.6967406514,-5180.7619532722,-7223.9494360838,-4202.3331163458,-24107.2371627570,1964.4503166703,5621.2812490500,9332.8668171330
560309758379,20289,-2,0,-275.4036498905,3491.8612988542,6576.6644681938,-2756.0806719709,-10348.2124462202,-8003.6919515884,-11016.4380203425,-21701.3914761376,-13989.8824283585,-5187.2960064662,-7221.3820520542,-4203.1118489425,-24111.0334841658,1960.8121753203,5617.7161138809,9337.6487219844
560309784529,20290,-2,0,-278.0683754947,3491.3867586782,6568.9988191953,-2756.5308767534,-10350.4147993451,-8007.5369437845,-11013.7489593446,-21699.5419862205,-13991.6467443978,-5190.6421230925,-7215.5902283665,-4202.4304579204,-24113.4305204399,1959.4737286698,5619.3830883457,9339.2791933587
560309784529,20290,-2,0,-269.8430124424,3497.9573149625,6580.9231620818,-2746.9670670506,-10344.6594787479,-7989.0907154009,-11008.9062160091,-21697.3639684892,-13985.8792561038,-5182.5627724020,-7211.2098575102,-4200.4349556415,-24110.2304161755,1965.2898877511,5623.1915774512,9341.0556770948
560309784529,20290,-2,0,-260.2061965586,3506.0853364403,6598.5541547783,-2737.8412944334,-10335.4850353434,-7970.3646299904,-11004.1851496418,-21695.0034353056,-13979.1626874575,-5172.5122548263,-7212.8281611877,-4196.7603112009,-24106.0933992557,1970.6558420500,5629.2267550754,9343.0268439801
560309784529,20290,-2,0,-256.3490366657,3508.1903479906,6600.5618247541,-2736.0283076067,-10331.4088569077,-7971.2163687680,-11003.0535538373,-21693.7623302296,-13978.4691287386,-5171.9160376820,-7217.7925814914,-4195.9815786043,-24104.9253003607,1971.0330406516,5629.1659165913,9344.8276631099
560309784529,20290,-2,0,-259.7803271698,3504.2236788264,6586.1796071093,-2742.8422178276,-10336.7261404193,-7988.9325353422,-11005.0977269035,-21693.4824732027,-13984.8206664802,-5180.1414007343,-7219.0580219610,-4198.0257516705,-24108.8311310408,1966.1902973160,5625.4791044540,9345.3508740733
560309784529,20290,-2,0,-270.2323787407,3495.8888065026,6572.9898237533,-2751.3352702100,-10343.6252245179,-7999.7861209083,-11009.8431286645,-21699.1891230127,-13992.2186261485,-5187.7705466423,-7216.2837870854,-4203.2456936076,-24114.0024021906,1958.8410084350,5616.9860520715,9342.9051670119
560309784529,20290,-2,0,-269.5631554155,3497.9694826594,6579.4995415535,-2747.9404827964,-10343.9050815449,-7990.4656651419,-11009.6727809090,-21701.0629483234,-13992.7296694151,-5186.1887460553,-7217.4397182836,-4205.7887422435,-24113.5643651049,1958.2812943811,5615.4529222718,9337.5635481066
560309784529,20290,-2,0,-262.5667297423,3505.1362560881,6593.0543558143,-2739.3257534458,-10338.8919904538,-7973.8324235849,-11007.6529432364,-21698.9092659857,-13987.5949013558,-5180.2387423089,-7219.4595559562,-4204.0974323852,-24108.4661001361,1962.0411126994,5620.2834979106,9336.2251014561
560309818330,20291,-2,0,-256.2151920007,3508.3728634430,6598.4811485973,-2737.0503941399,-10336.2881033337,-7973.7472497072,-11007.2514092412,-21694.8452552469,-13984.0419338835,-5176.1382284795,-7221.4307228415,-4201.5422160523,-24106.2150762239,1964.6936706068,5621.8652984975,9337.5635481066
560309818330,20291,-2,0,-259.6708178984,3505.9271563816,6588.2602832661,-2743.8764720575,-10339.6828907473,-7991.7554410051,-11008.7358682536,-21695.9646833546,-13988.7264971603,-5184.3392561382,-7220.8223380003,-4200.9703343017,-24107.3101689380,1965.6549186558,5620.7702057835,9337.6852250749
560309818330,20291,-2,0,-264.6595735958,3500.2813450557,6576.6279651033,-2747.6727934663,-10345.3165343763,-8002.0128094269,-11007.3609185126,-21696.6339066799,-13991.7805890629,-5188.9143101436,-7213.5338876034,-4201.4570421746,-24109.9262237549,1964.0122795847,5618.9207158664,9337.3445295638
560309818330,20291,-2,0,-261.8731710234,3503.6152939852,6586.4351287426,-2743.0369009768,-10343.6860630021,-7990.3683235673,-11004.9638822385,-21696.5122297116,-13988.7021617667,-5183.1346541527,-7210.0539263120,-4203.5985568154,-24108.6364478917,1965.2290492670,5618.9693866537,9332.5626247124
560309818330,20291,-2,0,-255.3147824358,3506.9370752179,6601.0120295365,-2737.3424188636,-10338.5877980332,-7972.6034862058,-11002.7128583262,-21696.5730681957,-13984.3826293945,-5175.4690051543,-7213.1080182146,-4203.5498860281,-24105.2538281749,1967.9667810522,5622.1451555245,9330.6887994017
560309818330,20291,-2,0,-251.1534301223,3508.9812482841,6606.3171453513,-2733.9841345405,-10332.5526204091,-7968.2717861369,-11001.0945546488,-21694.2855411930,-13979.1383520638,-5170.2490632172,-7217.0260165916,-4199.9239123749,-24100.8126188345,1971.8847794292,5626.6837064394,9333.3291896122
560309818330,20291,-2,0,-254.1101804503,3507.1195906702,6599.2112104067,-2738.7417039983,-10330.7274658856,-7980.3056382947,-11000.7416914409,-21692.9105914520,-13977.6782284451,-5168.3509025128,-7214.0936016573,-4196.9914974406,-24099.1456443698,1972.9433690528,5627.7301283662,9338.8168208794
560309818330,20291,-2,0,-264.9394306227,3499.2957616131,6584.6464773096,-2745.6407880969,-10334.4751165071,-7992.2786519685,-11000.4861698076,-21691.9615110998,-13980.2821155652,-5175.1891481273,-7206.9389959254,-4198.1230932451,-24101.7130283994,1971.5319162213,5626.0509862046,9339.8875781998
560309852007,20292,-2,0,-266.1196972146,3499.4904447622,6584.5978065224,-2744.5091922923,-10335.0104951673,-7984.9050276938,-11000.2306481744,-21690.8420829921,-13981.7300714871,-5175.8948745431,-7205.2355183702,-4198.4881241498,-24103.8180399498,1971.7874378546,5626.5133586839,9338.2571068255
560309852007,20292,-2,0,-261.8853387202,3503.7978094376,6597.5929067293,-2738.9485548442,-10331.2506768490,-7968.7341586161,-10998.0526304431,-21689.5158040384,-13978.2136071053,-5168.5942564493,-7204.9921644337,-4195.1541752203,-24102.1510654850,1975.3890761142,5632.4511947335,9340.1430998331
560309852007,20292,-2,0,-256.9452538101,3509.0299190714,6606.7430147401,-2734.3735008388,-10328.7319636067,-7963.7332352219,-10995.2540601738,-21685.0502593044,-13973.5898823126,-5165.8200215737,-7207.1701821650,-4189.7638855277,-24099.1699797634,1980.4630056893,5637.7684782451,9344.2922844497
560309852007,20292,-2,0,-256.8722476291,3509.4557884602,6599.0895334385,-2736.6123570542,-10329.8878948048,-7976.8135093066,-10995.9111158022,-21682.4463721843,-13975.1595152027,-5170.3342370950,-7208.3869518473,-4186.9288121680,-24100.5692648980,1977.4819199677,5637.1600934040,9348.3806305822
560309852007,20292,-2,0,-262.8830898597,3504.4183619755,6586.0214270506,-2742.8543855244,-10334.9374889864,-7988.6161752248,-10995.1202155087,-21684.3810359792,-13979.7832399955,-5174.6172663767,-7202.9966621547,-4188.0725756693,-24106.0203930747,1971.5319162213,5630.7477171783,9349.7799157169
560309852007,20292,-2,0,-262.9074252533,3504.6008774279,6589.1120220437,-2740.0436475583,-10334.0735825119,-7980.2934705979,-10991.8957758506,-21683.6631418666,-13978.5543026163,-5171.7456899264,-7199.3828561983,-4190.4087734593,-24105.5580205954,1968.9645321917,5626.9635634664,9344.4991352957
560309852007,20292,-2,0,-253.4652925187,3510.7090612330,6602.3626438839,-2730.4068316745,-10326.8459705991,-7960.7034787130,-10986.6028277327,-21681.9718320082,-13971.5457092463,-5162.7902650648,-7199.4923654697,-4188.2915942122,-24103.3069966832,1974.0627971605,5629.8108045229,9343.7082350022
560309852007,20292,-2,0,-246.1281713345,3518.0461824172,6614.2139805894,-2725.8074422755,-10318.7422845150,-7951.4560291275,-10983.3540526809,-21679.9398266388,-13965.6687116808,-5156.9984413770,-7201.6703832010,-4186.7341290188,-24100.3380786584,1974.8050266667,5631.5507851686,9345.8984204303
560309902600,20293,-2,0,-249.1700955402,3514.2376933116,6610.1378021537,-2729.3117389605,-10319.5331848085,-7962.9301672316,-10984.5343192728,-21678.1511752058,-13966.7029659108,-5159.0912852306,-7205.0408352210,-4185.1401607350,-24103.4651767419,1971.3980715562,5630.5773694228,9347.9425934966
560309902600,20293,-2,0,-256.8114091450,3507.1195906702,6593.6505729586,-2736.1986553623,-10325.2763377089,-7980.1231228424,-10986.1161198597,-21678.6500507756,-13972.1540940875,-5168.7646042048,-7201.9989110153,-4187.5250293123,-24106.8234610650,1968.1979672918,5627.7666314567,9348.9281769393
560309902600,20293,-2,0,-259.3787931747,3505.6959701419,6589.9272577308,-2737.6831143747,-10328.2817588242,-7979.4538995171,-10987.9047712927,-21681.0957578370,-13974.2226025474,-5169.2391443809,-7198.4824466334,-4190.5912889117,-24106.5679394318,1968.2223026855,5627.2677558869,9347.7965811347
560309902600,20293,-2,0,-256.5923906022,3509.5774654285,6599.6127444019,-2733.2662404279,-10327.6490385894,-7965.7165698040,-10988.9390255227,-21683.3467817492,-13971.0346659798,-5164.3477302581,-7200.5509550933,-4192.2704310733,-24103.2826612896,1972.4688288767,5629.6769598579,9345.6063957066
560309902600,20293,-2,0,-251.2994424842,3512.1691848517,6606.3536484418,-2730.9057072443,-10325.7752132787,-7959.2676904879,-10991.4820741587,-21684.3932036760,-13969.9152378721,-5164.6519226787,-7208.6181380869,-4191.2970153274,-24099.9122092696,1974.6590143048,5630.4313570609,9342.4062914422
560309902600,20293,-2,0,-256.5558875117,3508.4823727144,6601.7177559522,-2736.1499845750,-10328.5129450638,-7972.4331384503,-10994.7308492104,-21686.4008736518,-13973.4682053444,-5167.8276915495,-7212.9620058527,-4193.9009024475,-24101.1046435583,1970.7653513214,5626.1726631729,9343.6960673054
560309902600,20293,-2,0,-260.8389167934,3505.1727591785,6590.9615119608,-2741.3090880279,-10335.3268552847,-7990.0884665404,-10997.7606057193,-21687.5689725468,-13977.2401913595,-5173.9358753546,-7208.6181380869,-4195.8720693329,-24104.4507601846,1965.1560430861,5622.0599816467,9343.0146762833
560309902600,20293,-2,0,-262.2868727153,3504.2480142200,6587.2503644298,-2740.8345478518,-10334.8279797150,-7986.9735361537,-10995.1323832055,-21688.6640652608,-13977.4348745086,-5173.4978382689,-7202.5951281596,-4196.7481435041,-24104.2804124290,1967.7842655998,5622.0356462531,9342.4062914422
560309910546,20294,-2,0,-252.8325722839,3510.6968935362,6602.4478177616,-2731.1612288776,-10327.6733739831,-7966.0816007087,-10992.0661236062,-21686.5225506200,-13970.1220887180,-5164.1165440185,-7200.6847997584,-4194.2781010490,-24098.8049488587,1974.5130019429,5626.6715387426,9341.7492358137
560309910546,20294,-2,0,-246.2863513932,3518.3382071410,6615.9174581446,-2726.4644979039,-10320.7742898845,-7954.2911024873,-10989.4987395765,-21686.2548612899,-13962.3469304482,-5156.0371933280,-7203.0453329420,-4193.4872007556,-24095.1424721150,1977.3724106963,5630.6990463910,9342.9781731928
560309910546,20294,-2,0,-247.7221396183,3514.4810472481,6611.8412797089,-2729.9931299826,-10320.2024081338,-7962.2244408158,-10990.5816645938,-21685.0137562139,-13963.6367063114,-5160.3080549129,-7208.2409394854,-4191.8202262908,-24094.2663979438,1976.7396904615,5632.0861638288,9346.8840038730
560309910546,20294,-2,0,-256.6045582990,3507.8009816923,6595.9502676582,-2737.1112326240,-10325.8725548533,-7981.7535942167,-10993.6844272836,-21686.4252090454,-13969.9882440530,-5170.7966095743,-7206.8051512603,-4193.1465052445,-24099.0361350984,1972.0672948815,5628.0343207868,9347.3463763523
560309910546,20294,-2,0,-264.5013935371,3502.1673380633,6586.8609981314,-2743.6939566052,-10333.4530299740,-7989.8816156944,-10997.2860655432,-21691.1949462000,-13977.5443837800,-5178.2797431204,-7207.9854178521,-4199.6075522575,-24103.7085306784,1967.5409116634,5622.3885094609,9342.8929993151
560309910546,20294,-2,0,-264.2580396007,3501.2425931047,6590.8520026893,-2742.7570439498,-10335.2416814069,-7980.6098307153,-11001.6907717931,-21694.4315535549,-13979.9049169637,-5179.2531588662,-7214.1909432318,-4203.0510104584,-24103.5138475292,1965.8130987145,5620.8918827517,9336.0912567911
560309910546,20294,-2,0,-258.5878928812,3505.3187715404,6601.2067126857,-2738.8268778760,-10330.8978136411,-7968.1744445623,-11002.3599951184,-21694.5410628263,-13977.9702531688,-5175.4690051543,-7220.0192700100,-4202.4426256172,-24100.2407370838,1968.9766998885,5622.3155032800,9335.4342011626
560309910546,20294,-2,0,-259.2814516001,3506.5477089195,6602.8371840599,-2739.0215610252,-10329.1213299050,-7971.7882505187,-11002.2626535438,-21692.3752127918,-13975.1595152027,-5172.6460994913,-7221.8809276239,-4200.0212539495,-24096.6877696115,1972.8095243877,5624.1284901066,9341.0678447916
560309942158,20295,-2,0,-259.5491409302,3505.1605914817,6596.3031308660,-2740.4816846439,-10328.6224543353,-7984.5643321828,-11000.4131636267,-21688.9195868941,-13974.9648320536,-5176.7709487143,-7217.1841966503,-4198.2569379101,-24099.3281598221,1972.5661704512,5623.3497575099,9343.0633470706
560309942158,20295,-2,0,-260.9119229743,3503.3111015646,6591.6672383765,-2741.0413986978,-10329.1456652986,-7987.2412254838,-10997.5537548733,-21689.3454562829,-13974.7579812076,-5177.8782091252,-7210.2121063707,-4199.5223783797,-24101.7373637930,1969.8162709693,5620.0279762773,9340.6176400092
560309942158,20295,-2,0,-255.6798133405,3510.2831918442,6604.7961832484,-2733.3635820025,-10323.8162140902,-7968.9166740685,-10993.4897441345,-21689.2846177988,-13968.2360957105,-5168.3752379065,-7207.0120021063,-4200.0942601304,-24101.4088359788,1971.5562516149,5621.1352366882,9336.0304183069
560309942158,20295,-2,0,-245.6901342488,3517.9853439331,6620.1639843358,-2724.1161324171,-10316.5399313901,-7951.5655383990,-10989.7420935130,-21686.7659045565,-13962.0792411181,-5160.2228810351,-7208.1801010013,-4198.3056086974,-24096.8824527607,1974.8293620603,5623.2402482385,9333.7793943947
560309942158,20295,-2,0,-240.6892108546,3521.8060007355,6621.6606110450,-2721.8164377175,-10312.7192745877,-7953.8043946144,-10987.9899451705,-21683.5658002920,-13960.4366020470,-5159.3711422575,-7211.7452361704,-4195.6287153964,-24094.5462549707,1975.7419393220,5624.1528255003,9333.9254067566
560309942158,20295,-2,0,-244.7410538967,3515.9898416541,6610.8070254790,-2727.6325967989,-10318.2312412485,-7972.5183123281,-10989.5960811511,-21683.9673342872,-13964.3546004240,-5165.5523322436,-7211.2341929039,-4196.2492679344,-24098.3182409858,1971.9699533069,5622.2911678863,9339.7172304443
560309942158,20295,-2,0,-253.2827770664,3508.1903479906,6596.8871803135,-2734.9818856800,-10324.9234745011,-7983.2137178354,-10991.9566143348,-21686.8145753437,-13969.9882440530,-5171.1251373885,-7207.6568900379,-4200.2646078859,-24101.2993267074,1968.9888675853,5617.5822692159,9337.0281694464
560309942158,20295,-2,0,-253.4531248219,3511.1349306218,6600.7200048128,-2732.4753401344,-10324.7287913519,-7972.6521569931,-10992.9543654742,-21688.6884006545,-13969.3311884246,-5170.6505972124,-7207.4135361015,-4201.2136882381,-24099.4376690935,1971.1912207102,5616.7305304383,9335.7262258864
560309973232,20296,-2,0,-251.8713242349,3513.7509854387,6612.4983353374,-2729.4942544128,-10321.4435132097,-7958.0022500183,-10993.8061042518,-21689.1994439210,-13966.7029659108,-5162.1575448300,-7209.5063799550,-4201.1528497540,-24097.3083221495,1974.2453126128,5618.0689770888,9337.3323618670
560309973232,20296,-2,0,-251.1655978192,3513.7388177419,6611.7196027407,-2731.8182845060,-10321.8328795081,-7961.2266896764,-10996.5073329465,-21689.2967854956,-13967.1653383901,-5162.9119420330,-7214.0936016573,-4198.6341365117,-24096.0672170736,1975.6445977474,5620.4660133629,9341.7249004201
560309973232,20296,-2,0,-256.3977074530,3508.5675465921,6599.4302289495,-2738.4496792745,-10324.9356421979,-7976.5458199765,-10997.2738978464,-21687.6784818182,-13969.2460145468,-5167.9250331240,-7212.3779564052,-4195.7868954551,-24096.9189558512,1975.3160699332,5623.5079375686,9351.3860516975
560309973232,20296,-2,0,-264.2337042070,3502.5323689680,6586.4594641363,-2745.7868004587,-10330.0582425604,-7987.5210825107,-10997.7849411130,-21690.0268473050,-13971.8620693637,-5170.9304542393,-7205.3206922479,-4196.9914974406,-24097.9410423843,1974.0141263732,5622.8265465466,9355.0728638348
560309973232,20296,-2,0,-264.8664244418,3503.7978094376,6592.5311448509,-2743.5966150306,-10329.4376900224,-7975.7305842893,-10996.4343267656,-21690.3067043319,-13973.1275098333,-5169.5433368015,-7204.3594441989,-4199.2181859592,-24096.9067881543,1975.9244547744,5625.1019058524,9355.6690809792
560309973232,20296,-2,0,-257.4441293798,3507.5332923622,6602.7398424854,-2737.6222758905,-10326.7851321150,-7962.2487762095,-10995.4244079293,-21690.4283813002,-13970.2681010799,-5165.7105123023,-7208.7884858425,-4198.6341365117,-24092.0275417283,1978.9177081928,5626.3186755347,9352.1647842942
560309973232,20296,-2,0,-252.2850259269,3511.0375890472,6609.3834049507,-2735.2374073132,-10324.8261329265,-7960.7764848939,-10995.6555941689,-21690.6595675398,-13970.6696350751,-5163.6298361455,-7212.6091426449,-4196.9793297437,-24093.0496282615,1981.8501231271,5631.3926051099,9358.3216388866
560309973232,20296,-2,0,-257.8334956781,3506.9614106115,6599.8439306415,-2740.9683925169,-10327.5030262275,-7976.0712798004,-10996.3491528878,-21690.7690768112,-13972.2149325716,-5168.4847471779,-7213.2540305765,-4195.7260569710,-24093.8161931613,1979.2219006134,5629.5674505865,9361.7894324811
560310004574,20297,-2,0,-263.6739901532,3500.9018975937,6584.7073157938,-2747.9039797059,-10331.0316583062,-7987.5210825107,-10997.4685809956,-21691.8885049189,-13975.2690244741,-5174.2157323815,-7207.7177285220,-4197.6485530690,-24096.6147634306,1977.6401000264,5626.2821724443,9363.6875931855
560310004574,20297,-2,0,-266.0466910336,3500.2448419653,6587.8830846645,-2746.2978437253,-10328.0384048878,-7977.7504219619,-10996.2761467069,-21694.2125350121,-13972.7138081413,-5170.4072432759,-7203.4346992404,-4197.8067331277,-24096.6756019147,1975.2187283586,5627.0487373441,9361.6069170288
560310004574,20297,-2,0,-263.6739901532,3501.6441270999,6597.5685713356,-2745.3852664636,-10322.7454567698,-7962.3582854809,-10995.8867804086,-21693.5798147773,-13967.5182015979,-5162.6442527029,-7205.3815307320,-4198.8288196608,-24094.3759072152,1975.3282376301,5628.7035441120,9358.0417818596
560310004574,20297,-2,0,-260.1331903777,3502.9095675695,6602.0097806760,-2743.6939566052,-10320.3849235861,-7958.7079764340,-10996.9697054258,-21692.2657035204,-13966.2405934315,-5162.1575448300,-7212.4387948893,-4197.3808637389,-24092.0397094252,1978.0903048089,5630.9424003275,9356.4599812727
560310004574,20297,-2,0,-263.7104932436,3499.8433079701,6594.5631502203,-2749.2180909628,-10322.9523076158,-7972.5913185090,-10997.6145933574,-21689.9660088209,-13968.7228035834,-5165.9295308451,-7213.1688566987,-4196.4926218708,-24093.7918577677,1979.4774222467,5630.5408663323,9361.4852400605
560310004574,20297,-2,0,-270.4270618899,3493.7959626491,6581.7627331626,-2755.6061317949,-10328.6467897289,-7987.5697532980,-10998.9165369175,-21690.9637599604,-13973.0788390460,-5171.7335222296,-7208.1801010013,-4197.0401682279,-24096.5660926433,1975.7419393220,5626.3916817157,9363.6389223982
560310004574,20297,-2,0,-270.1472048630,3495.0127323314,6581.8114039499,-2752.0774997162,-10330.3624349809,-7982.8121838403,-10997.0792146972,-21691.2801200778,-13973.7602300681,-5171.6118452614,-7205.9412447859,-4197.7093915531,-24097.8193654161,1978.6378511659,5628.3993516915,9363.3468976744
560310004574,20297,-2,0,-262.4450527740,3501.5224501317,6594.4658086458,-2743.9129751480,-10326.7851321150,-7967.0671841514,-10995.6677618658,-21689.6618164003,-13971.6673862146,-5164.9682827961,-7206.0264186636,-4196.2492679344,-24098.0870547462,1979.3314098848,5630.4191893641,9363.6754254887
560310034763,20298,-2,0,-256.0935150325,3508.9812482841,6606.4023192291,-2737.1234003208,-10325.8238840660,-7960.6913110162,-10994.6091722422,-21687.1552708548,-13970.0490825371,-5160.6487504239,-7208.9344982043,-4192.8423128239,-24096.3592417973,1979.6842730927,5631.9766545574,9365.0503752297
560310034763,20298,-2,0,-254.2075220249,3509.5287946412,6602.5573270330,-2736.7827048098,-10326.4809396944,-7972.4209707535,-10991.8714404570,-21682.9574154509,-13972.2027648748,-5165.1264628548,-7209.7375661946,-4189.3501838358,-24096.7972788829,1978.0538017184,5632.0009899510,9368.3356533718
560310034763,20298,-2,0,-258.2837004606,3506.8519013401,6591.5455614083,-2740.6276970058,-10330.5692858269,-7985.1970524176,-10991.7010927015,-21682.9695831477,-13976.3397817946,-5171.1251373885,-7204.6514689227,-4191.3213507211,-24100.5692648980,1972.1768041529,5628.4358547819,9369.1630567558
560310034763,20298,-2,0,-261.3621277568,3506.3165226799,6591.4238844400,-2742.1243237150,-10332.4309434408,-7982.9338608085,-10992.0052851221,-21686.6685629819,-13978.1406009244,-5171.0034604202,-7201.7068862915,-4195.6287153964,-24103.6720275879,1968.4291535314,5624.3110055589,9364.4906611758
560310034763,20298,-2,0,-256.5680552086,3508.0808387192,6601.2067126857,-2738.3280023063,-10328.6467897289,-7967.4322150561,-10993.6844272836,-21687.8366618769,-13974.9769997504,-5167.4139898575,-7206.7321450794,-4197.7702300372,-24101.6765253089,1971.5684193118,5624.8828873096,9359.7939302021
560310034763,20298,-2,0,-252.7717337998,3510.3196949347,6608.3613184176,-2736.5028477828,-10324.4732697186,-7960.4601247765,-10996.8236930639,-21690.5257228747,-13972.4704542049,-5164.4085687422,-7213.7042353589,-4199.3155275337,-24097.6246822669,1972.8946982655,5626.2456693538,9357.5064031994
560310034763,20298,-2,0,-255.9475026706,3504.8077282739,6602.9466933314,-2743.3167580037,-10327.3205107752,-7973.4187218930,-11000.7903622282,-21693.5676470805,-13974.3199441220,-5169.0322935349,-7219.4595559562,-4201.5300483555,-24099.6445199395,1973.4909154098,5626.4646878966,9360.0129487450
560310034763,20298,-2,0,-263.4671393072,3499.1862523417,6586.7393211632,-2749.7899727135,-10332.1997572012,-7989.8086095135,-11003.4185847420,-21697.0476083718,-13977.2766944499,-5175.8705391494,-7217.8899230660,-4203.7324014805,-24101.9928854263,1972.6635120258,5622.2546647959,9361.3148923050
560310067310,20299,-2,0,-268.0543610094,3495.2439185710,6580.0592556074,-2752.9779092811,-10335.8378985513,-7993.0573845652,-11005.0855592067,-21700.0651971839,-13980.5741402890,-5179.9467175851,-7215.9795946648,-4208.4291324541,-24105.5701882923,1969.8892771502,5618.9815543505,9358.6623343976
560310067310,20299,-2,0,-264.3675488721,3499.9406495447,6590.1584439704,-2749.0720786009,-10334.4142780230,-7978.9671916442,-11005.0855592067,-21700.4667311791,-13978.4934641322,-5173.9480430514,-7216.1134393299,-4207.1150211972,-24103.7937045561,1973.9411201922,5622.7900434561,9358.1391234342
560310067310,20299,-2,0,-255.9840057611,3508.1660125970,6602.5208239425,-2740.8953863359,-10330.3746026778,-7967.3592088751,-11001.7394425804,-21695.6239878436,-13973.6993915840,-5168.0345423954,-7218.8876742055,-4201.7003961110,-24098.3060732890,1979.5869315181,5629.2145873786,9361.1567122463
560310067310,20299,-2,0,-255.7528195214,3509.2002668269,6602.1922961283,-2740.1531568297,-10330.3867703746,-7975.4507272624,-11000.8877038028,-21692.3387097014,-13973.3465283761,-5171.6361806550,-7220.0801084941,-4197.7215592499,-24095.7995277434,1979.3679129753,5631.5994559559,9363.9674502124
560310067310,20299,-2,0,-260.0480164999,3505.4769515991,6593.7357468364,-2744.6187015637,-10333.7450546977,-7991.5485901591,-11000.4861698076,-21691.9006726157,-13976.0720924645,-5176.4910916874,-7216.1986132076,-4197.8432362182,-24098.5859303159,1976.3259887695,5629.6161213738,9366.4618280611
560310067310,20299,-2,0,-261.2039476981,3503.4206108360,6587.1165197647,-2745.1784156176,-10334.5359549912,-7993.5075893476,-11000.9850453774,-21692.1075234617,-13978.0067562593,-5179.3505004408,-7210.8326589087,-4199.2303536560,-24096.8337819734,1974.1479710382,5626.7080418331,9361.6190847256
560310067310,20299,-2,0,-254.6212237169,3508.0808387192,6598.0431115117,-2740.5303554312,-10329.4133546287,-7975.5967396243,-10998.8556984334,-21691.1462754127,-13972.2636033589,-5172.4392486454,-7209.3847029868,-4198.4637887561,-24095.1546398118,1977.6644354201,5629.5187797992,9360.6578366766
560310067310,20299,-2,0,-248.3548598531,3512.4003710914,6611.6465965598,-2735.4807612497,-10321.6016932684,-7962.5286332364,-10998.7705245556,-21691.8641695253,-13966.3257673093,-5163.0457866980,-7211.9277516228,-4196.8089819882,-24091.5286661586,1982.0813093668,5632.7797225477,9361.1810476400
560310115968,20300,-2,0,-246.6270469042,3509.9424963331,6609.7971066427,-2738.8025424824,-10321.9423887795,-7969.3668788509,-11002.1653119692,-21692.6063990315,-13966.7516366981,-5165.4671583658,-7219.1796989292,-4196.7724788977,-24091.5164984618,1982.4098371810,5632.9013995159,9361.7772647843
560310115968,20300,-2,0,-255.9840057611,3500.8897298969,6593.9182622887,-2749.6074572611,-10328.9023113622,-7990.3439881737,-11009.2469115202,-21699.0431106508,-13973.8575716427,-5176.3572470223,-7222.0512753795,-4203.0023396711,-24096.9554589416,1975.5107530824,5626.6593710458,9360.5726627988
560310115968,20300,-2,0,-263.2481207644,3494.9275584536,6583.8069062289,-2754.7178899268,-10334.2926010547,-7998.0339725658,-11011.3032522832,-21702.7420904850,-13977.2036882690,-5180.5307670326,-7217.5735629486,-4207.6869029479,-24103.1609843213,1970.6071712627,5621.6219445611,9358.2242973120
560310115968,20300,-2,0,-257.1156015656,3502.2890150315,6596.7168325580,-2745.5799496127,-10329.1091622082,-7980.1352905392,-11004.3554973973,-21698.2887134478,-13973.2126837111,-5172.5487579168,-7211.9277516228,-4204.4867986835,-24099.9365446632,1974.0506294636,5624.5300241018,9356.1557888521
560310115968,20300,-2,0,-245.0817494077,3513.6171407737,6613.5812603546,-2731.9886322615,-10319.6305263831,-7959.3650320625,-10994.6456753326,-21688.1530219943,-13963.2230046194,-5160.8677689667,-7208.0462563363,-4195.6652184869,-24090.9202813174,1981.7649492494,5632.6823809731,9361.8381032684
560310115968,20300,-2,0,-240.9203970943,3517.6568161189,6618.4361713870,-2728.0219630972,-10312.6827714972,-7955.1915120522,-10986.8461816691,-21680.3048575435,-13957.0661500270,-5153.9565171713,-7205.0043321305,-4187.0504891362,-24085.1771284170,1988.0556485068,5638.0848383625,9369.7714415970
560310115968,20300,-2,0,-248.2940213690,3511.4512907392,6607.0472071607,-2733.5095943644,-10316.8197884170,-7972.9563494137,-10987.9412743832,-21678.2850198709,-13961.9818995435,-5161.5126568984,-7205.4423692161,-4187.6345385837,-24087.6228354784,1982.6896942079,5633.9964922300,9373.0567197392
560310115968,20300,-2,0,-258.8555822113,3504.3940265819,6588.2116124788,-2742.6597023752,-10330.0339071667,-7988.9690384327,-10997.0183762131,-21687.7514879991,-13976.2181048263,-5177.6105197951,-7210.4676280040,-4197.6242176754,-24097.5395083891,1971.3494007689,5623.7391238083,9365.4519092248
560310140767,20301,-2,0,-258.1376880987,3506.7788951592,6593.0421881175,-2742.4041807420,-10338.5026241555,-7987.6792625694,-11007.1540676666,-21697.8993471494,-13984.4799709691,-5183.4875173606,-7218.0359354279,-4206.9933442290,-24107.3588397252,1964.8153475750,5615.8179531765,9357.3847262312
560310140767,20301,-2,0,-249.2309340243,3515.1502705734,6606.3901515322,-2735.6876120957,-10337.8699039207,-7976.9473539716,-11009.3077500043,-21699.2012907095,-13985.3925482308,-5180.7132824850,-7224.3266346854,-4207.8937537939,-24108.4052616520,1964.1461242498,5616.5480149859,9357.0683661138
560310140767,20301,-2,0,-243.6216257889,3521.1367774102,6610.3446529997,-2732.2563215916,-10333.2461791280,-7976.7891739129,-11007.0202230016,-21693.2634546599,-13981.1946928269,-5178.3892523918,-7226.2612984802,-4202.9415011870,-24104.9009649670,1965.8617695018,5621.8774661944,9363.0062021634
560310140767,20301,-2,0,-243.2079240970,3519.5671445201,6605.2098849404,-2732.5726817090,-10332.4674465313,-7985.8662757428,-11003.3577462579,-21688.8465807132,-13978.2501101958,-5177.5496813110,-7221.0900273305,-4197.3565283452,-24101.8468730644,1968.6360043774,5625.5156075444,9371.1098882475
560310140767,20301,-2,0,-243.7676381508,3516.0385124414,6601.0485326270,-2734.4100039293,-10333.0879990693,-7991.5850932496,-11000.6930206536,-21688.1165189038,-13978.2987809831,-5179.8737114042,-7211.5870561117,-4197.8067331277,-24103.9032138275,1968.5264951060,5625.1870797302,9370.3554910445
560310140767,20301,-2,0,-239.8618074707,3519.6036476106,6606.5604992878,-2730.6988563983,-10332.0415771425,-7982.2037989991,-10997.8457795971,-21690.2580335446,-13979.9049169637,-5179.2288234726,-7210.2242740676,-4199.6927261353,-24103.6963629815,1969.4634077614,5623.6782853242,9363.1278791316
560310140767,20301,-2,0,-234.1794930543,3525.1156142713,6617.9251281204,-2726.5253363880,-10330.3989380714,-7968.9775125526,-10997.4077425114,-21691.0976046254,-13978.2987809831,-5173.3274905134,-7212.7064842194,-4200.1794340082,-24102.3335809374,1972.2498103338,5626.6228679553,9360.3536442560
560310140767,20301,-2,0,-232.8410464038,3528.1088676898,6623.2302439352,-2724.4081571408,-10327.4786908339,-7967.2740349974,-10997.3469040273,-21689.2846177988,-13975.0378382345,-5169.5190014078,-7215.9430915743,-4198.1717640324,-24100.3380786584,1975.7784424125,5629.5796182833,9363.0427052539
560310160921,20302,-2,0,-239.4237703850,3523.3147951416,6609.5780880999,-2731.4045828140,-10330.0947456508,-7982.0699543341,-10999.2085616412,-21688.1165189038,-13977.5808868705,-5174.6416017703,-7216.9286750170,-4196.3101064185,-24101.5183452502,1973.9654555859,5628.2533393296,9365.9872878850
560310160921,20302,-2,0,-248.9510769974,3515.2476121479,6595.0011873060,-2738.4740146681,-10333.9275701501,-7994.6513528490,-11001.2405670107,-21692.1683619458,-13981.0121773746,-5179.9223821915,-7212.2806148306,-4200.4106202478,-24106.9329703364,1966.2389681033,5624.8463842192,9366.4253249706
560310160921,20302,-2,0,-251.2264363033,3514.7852396687,6598.5906578687,-2737.5127666191,-10333.2096760375,-7986.5476667649,-11002.2018150597,-21695.1616153643,-13979.0896812766,-5178.8637925679,-7211.3315344785,-4204.5354694708,-24107.1763242729,1966.6039990080,5622.1329878276,9361.9111094493
560310160921,20302,-2,0,-244.7897246839,3520.6257341437,6611.8047766185,-2730.9178749411,-10327.3083430784,-7970.3037915063,-11000.4740021108,-21695.5874847531,-13975.4272045328,-5173.4491674817,-7215.4077129141,-4202.8441596124,-24102.8567919008,1970.7531836246,5625.0897381556,9359.2828869356
560310160921,20302,-2,0,-237.3430942283,3525.1399496650,6621.6241079546,-2726.3793240261,-10321.6868671462,-7966.3249546452,-11001.5690948249,-21693.6771563519,-13972.4704542049,-5171.0277958139,-7220.1409469783,-4201.3962036905,-24099.9487123601,1971.7874378546,5626.3186755347,9360.5239920115
560310160921,20302,-2,0,-239.2899257200,3522.2197024275,6615.3820794844,-2731.0395519093,-10326.0550703056,-7982.6905068720,-11004.3189943069,-21694.3220442835,-13975.4637076233,-5174.8606203131,-7222.2702939223,-4201.5908868396,-24100.5814325949,1969.6459232137,5625.9171415396,9366.2793126088
560310160921,20302,-2,0,-245.2886002537,3513.9578362847,6598.1282853895,-2740.2870014948,-10333.5260361549,-7998.9952206148,-11008.4925143171,-21698.3982227192,-13981.4867175507,-5185.6533673951,-7219.9340961323,-4204.6206433485,-24104.7914556956,1966.5309928271,5622.4493479450,9366.8390266626
560310160921,20302,-2,0,-248.5617106991,3512.3395326073,6596.4613109247,-2740.7250385804,-10337.4075314414,-7994.4079989125,-11009.3685884884,-21701.4766500154,-13982.5574748711,-5186.8214662901,-7217.8534199755,-4206.8716672608,-24105.8865484097,1967.7355948125,5621.7071184388,9364.5149965694
560310193447,20303,-2,0,-244.7045508062,3514.4445441576,6607.5582504272,-2735.7119474893,-10334.7063027467,-7978.1154528666,-11008.2004895934,-21701.1116191107,-13979.1383520638,-5179.1923203821,-7218.7538295404,-4207.2245304687,-24102.3822517247,1971.8604440355,5625.0045642779,9362.9940344666
560310193447,20303,-2,0,-240.8960617006,3517.4621329697,6612.4253291564,-2734.7020286530,-10332.7838066487,-7974.0392744309,-11009.7336193931,-21699.4568123428,-13978.1162655307,-5178.0850599712,-7223.9494360838,-4205.6305621848,-24099.4376690935,1973.8559463145,5627.6084513980,9363.5294131268
560310193447,20303,-2,0,-246.8338977502,3513.9578362847,6603.0683702996,-2740.0558152551,-10336.4462833924,-7988.6526783153,-11011.8142955498,-21698.4955642938,-13981.3042020983,-5181.6136920499,-7224.6186594091,-4203.5863891186,-24101.8468730644,1972.5296673608,5628.0464884836,9366.2184741247
560310193447,20303,-2,0,-254.9010807438,3509.3097760983,6588.7226557453,-2747.4172718330,-10340.1209278329,-8001.8911324586,-11011.1329045277,-21698.6415766556,-13984.1149400644,-5185.0084794635,-7218.4253017262,-4203.6715629964,-24105.1443189035,1969.3782338836,5625.9049738428,9368.9075351225
560310193447,20303,-2,0,-255.8258257024,3511.0254213504,6588.7469911390,-2744.5578630796,-10338.4904564587,-7995.5517624139,-11007.5556016618,-21699.0917814381,-13983.7742445534,-5184.3392561382,-7212.6821488258,-4203.1483520330,-24105.4971821113,1970.5585004755,5626.4646878966,9367.7881070148
560310193447,20303,-2,0,-248.1966797944,3515.5274691749,6601.5839112872,-2737.2694126827,-10332.5039496218,-7976.4849814923,-11004.1973173386,-21697.7168316971,-13977.8120731101,-5176.8317871984,-7213.2783659701,-4201.7247315047,-24102.8689595976,1973.9654555859,5629.7134629483,9365.7195985549
560310193447,20303,-2,0,-244.3151845079,3518.3382071410,6612.0116274644,-2733.5217620612,-10330.3989380714,-7969.1965310954,-11004.6110190306,-21698.6659120493,-13975.8044031344,-5172.0620500438,-7219.3743820784,-4202.7468180378,-24101.0194696805,1976.5571750092,5631.6481267432,9365.7561016454
560310193447,20303,-2,0,-249.4012817798,3513.3737868372,6602.4843208521,-2739.4474304140,-10334.8036443213,-7983.6395872242,-11008.9548867964,-21699.5906570078,-13979.2113582448,-5179.5938543772,-7225.4703981867,-4203.1848551234,-24101.8225376708,1974.2696480065,5632.4146916430,9368.0071255576
560310219588,20304,-2,0,-254.8524099565,3507.9713294478,6589.0633512564,-2746.5777007522,-10340.9118281264,-8001.6721139158,-11010.7192028357,-21699.5298185237,-13984.3826293945,-5188.9994840214,-7221.7105798684,-4203.8054076614,-24105.9230515001,1972.7243505099,5629.7256306452,9371.2437329125
560310219588,20304,-2,0,-257.3467878052,3505.8663178975,6586.0335947475,-2748.2933460043,-10344.3187832368,-8003.4120945615,-11011.9481402149,-21700.0165263966,-13987.7409137177,-5190.0580736450,-7218.3522955453,-4206.5188040529,-24108.6972863758,1971.4102392531,5628.3750162978,9371.7426084823
560310219588,20304,-2,0,-254.9984223184,3508.9082421032,6597.0818634627,-2743.9738136321,-10341.2525236375,-7986.9126976696,-11009.8552963613,-21700.2233772426,-13986.0252684656,-5184.6556162556,-7219.1310281420,-4207.2001950750,-24106.9694734269,1974.6711820016,5630.2245062149,9370.7570250396
560310219588,20304,-2,0,-248.0871705230,3513.9335008911,6604.9421956103,-2737.9386360079,-10335.0591659546,-7977.3367202699,-11008.0423095347,-21696.0376895355,-13982.3141209346,-5179.9710529788,-7222.4041385873,-4202.3817871331,-24105.1321512066,1976.3259887695,5633.1447534524,9372.8985396805
560310219588,20304,-2,0,-250.3868652225,3509.7113100935,6602.0706191601,-2741.2604172406,-10337.1763452018,-7986.6328406427,-11009.8674640581,-21696.6095712862,-13983.4578844360,-5181.4068412039,-7225.7867583041,-4201.4813775682,-24104.6819464242,1973.9289524954,5630.4435247577,9373.8111169422
560310219588,20304,-2,0,-256.1421858198,3506.0610010466,6589.3797113738,-2748.6705446058,-10341.6175545422,-8003.4851007424,-11011.1694076182,-21698.9336013794,-13987.9355968668,-5188.6222854199,-7223.4140574236,-4202.7224826442,-24107.5535228744,1970.2908111454,5629.8351399166,9376.8773765416
560310219588,20304,-2,0,-259.4274639619,3503.4936170170,6583.5392168988,-2749.7291342294,-10343.5278829434,-8004.8113796961,-11009.9404702391,-21701.5496561963,-13987.9964353509,-5190.4839430338,-7217.7439107041,-4203.6958983900,-24104.4020893973,1973.0163752337,5630.0298230657,9375.0643897149
560310219588,20304,-2,0,-253.0029200394,3509.2611053111,6598.7853410179,-2742.8178824339,-10337.2980221700,-7984.4791583050,-11006.2779934954,-21699.4689800396,-13980.9391711936,-5180.2265746120,-7215.6145637601,-4201.8829115634,-24099.2186505507,1981.0348874400,5634.7022186457,9375.9769669767
560310293035,20305,-2,0,-244.2178429333,3515.0042582115,6612.7173538802,-2735.0792272545,-10329.5958700811,-7969.8779221175,-11003.3577462579,-21698.6415766556,-13975.6583907725,-5172.3419070708,-7218.8025003277,-4199.4007014115,-24095.5318384133,1985.5734383550,5637.9144906070,9376.0013023703
560310293035,20305,-2,0,-242.5630361653,3515.1015997861,6610.6001746330,-2735.1887365260,-10327.9897341005,-7975.1708702355,-11003.7227771625,-21697.5708193352,-13974.8553227822,-5173.7655275991,-7223.9007652966,-4199.4128691083,-24094.7409381199,1985.4274259931,5637.7441428515,9375.9526315830
560310293035,20305,-2,0,-245.8239789139,3511.3052783773,6602.6911716981,-2739.9098028933,-10330.1799195286,-7989.7599387262,-11004.1243111577,-21698.7389182302,-13975.9990862835,-5178.1215630617,-7220.9683503622,-4201.0676758762,-24096.2740679195,1981.2052351955,5633.5827905380,9376.5853518178
560310293035,20305,-2,0,-249.3769463862,3508.4945404112,6595.8407583868,-2743.6087827274,-10331.7130493283,-7994.3106573379,-11004.7570313925,-21701.2697991694,-13977.0576759071,-5180.8471271500,-7216.9773458043,-4205.5210529134,-24097.4908376018,1979.2097329166,5630.0419907626,9373.7016076708
560310293035,20305,-2,0,-244.5950415348,3511.9866693994,6605.6357543292,-2739.2649149616,-10328.7684666971,-7979.8797689059,-11005.3410808400,-21700.6735820251,-13975.1838505964,-5179.0949788075,-7218.2306185771,-4206.8108287767,-24094.8261119976,1981.2295705892,5631.8428098924,9370.2581494699
560310293035,20305,-2,0,-238.8883917248,3515.8925000796,6616.9395446777,-2733.6677744231,-10322.5629413174,-7965.7044021072,-11004.8422052703,-21700.9899421425,-13969.9760763562,-5172.3662424644,-7220.9318472718,-4204.5476371676,-24089.1437975813,1982.9573835380,5632.6458778827,9368.0801317386
560310293035,20305,-2,0,-237.9879821599,3516.3427048620,6619.4339225264,-2735.7484505798,-10322.1857427159,-7970.8148347728,-11005.5479316860,-21698.9579367730,-13970.1829272022,-5171.1616404789,-7224.2779638981,-4202.6373087664,-24089.1194621877,1984.1011470394,5635.9189883280,9373.5434276121
560310293035,20305,-2,0,-242.0641605956,3514.0795132529,6606.0129529307,-2738.8390455728,-10324.3637604472,-7984.9658661779,-11004.8908760575,-21696.5730681957,-13972.0324171192,-5175.6880236971,-7220.2991270370,-4199.0356705068,-24094.1447209755,1980.5603472639,5633.6071259317,9376.6218549083
560310299099,20306,-2,0,-248.4522014277,3510.9524151694,6596.9601864945,-2742.4893546197,-10326.2740888484,-7990.7333544720,-11002.7493614167,-21695.7821679023,-13973.7723977649,-5177.5740167046,-7212.8889996718,-4200.3619494605,-24097.1501420908,1977.8834539629,5631.1857542639,9376.8530411479
560310299099,20306,-2,0,-246.5905438137,3513.2277744753,6605.4045680896,-2738.1333191571,-10325.8968902469,-7978.3588068031,-10999.5249217586,-21695.8065032959,-13972.3001064494,-5172.7434410659,-7212.0494285910,-4201.3231975095,-24097.4421668145,1978.0659694152,5630.0663261562,9372.8011981059
560310299099,20306,-2,0,-242.8672285859,3516.8415804317,6616.4771721985,-2732.7917002518,-10322.3560904714,-7963.7575706155,-10997.3104009369,-21695.0886091833,-13969.9395732657,-5169.9327030998,-7214.4221294715,-4200.7148126684,-24092.5872557822,1982.6653588143,5632.5242009144,9371.2924036998
560310299099,20306,-2,0,-243.3539364588,3515.6978169304,6614.9197070051,-2733.4609235771,-10321.7598733271,-7966.7629917308,-10998.1378043208,-21694.5045597358,-13969.3798592118,-5168.6915980239,-7219.4960590466,-4198.0257516705,-24091.0662936793,1985.3544198122,5633.5341197507,9373.2757382820
560310299099,20306,-2,0,-248.1480090071,3512.6437250278,6606.3293130481,-2738.6443624237,-10324.5827789900,-7981.2303832533,-10998.1256366240,-21693.2999577504,-13970.9494921020,-5171.5388390805,-7216.1012716330,-4197.5147084039,-24091.3826537967,1983.7969546188,5632.4268593399,9378.3740032508
560310299099,20306,-2,0,-250.6058837653,3508.7135589540,6597.0818634627,-2742.5745284975,-10326.2375857580,-7989.7356033325,-10996.9575377290,-21693.0931069044,-13971.8985724542,-5175.3473281860,-7210.3581187326,-4197.7215592499,-24091.9302001538,1981.5337630098,5630.6503756037,9379.2744128157
560310299099,20306,-2,0,-245.5319541901,3512.5707188469,6603.8714382899,-2737.9143006143,-10322.5872767111,-7976.7648385193,-10996.5073329465,-21694.6870751882,-13969.7327224197,-5171.2833174472,-7208.9101628107,-4200.2037694018,-24091.7720200951,1982.0691416700,5630.4313570609,9373.3852475534
560310299099,20306,-2,0,-240.1294968008,3516.3183694684,6619.4947610106,-2731.5992659632,-10316.8927945979,-7961.0441742240,-10994.3049798216,-21694.0056841661,-13965.4253577444,-5163.2891406345,-7211.3437021753,-4199.8630738908,-24090.1415487208,1983.5779360760,5632.1591700097,9371.1707267316
560310324280,20307,-2,0,-235.9194737000,3520.4918894786,6623.6439456272,-2729.6767698652,-10311.8918712037,-7958.1847654706,-10993.1733840171,-21690.1485242732,-13962.4686074164,-5160.8312658763,-7214.6168126206,-4194.8013120124,-24087.6350031753,1986.4251771326,5636.4300315946,9373.0810551328
560310324280,20307,-2,0,-237.5864481648,3517.4986360602,6615.3699117876,-2731.6114336600,-10312.0500512624,-7972.1046106361,-10991.4699064618,-21687.4716309722,-13961.6655394261,-5162.5225757347,-7211.7087330800,-4191.4916984766,-24086.8441028818,1986.6685310690,5638.9852479274,9378.7633695491
560310324280,20307,-2,0,-244.5463707475,3513.8361593165,6604.5406616152,-2735.4807612497,-10315.5786833411,-7981.8387680944,-10991.7862665792,-21687.6663141214,-13963.3446815877,-5165.3576490944,-7203.7510593578,-4192.5989588875,-24087.0266183341,1986.8997173087,5638.0726706657,9380.6980333440
560310324280,20307,-2,0,-243.6824642731,3516.2696986811,6608.2639768430,-2733.4609235771,-10314.9094600158,-7973.7229143135,-10990.8250185302,-21687.2769478230,-13961.9575641499,-5163.8731900820,-7201.7190539883,-4193.3411883937,-24085.4934885344,1990.2945047223,5640.0681729447,9377.6561091382
560310324280,20307,-2,0,-238.9613979058,3519.6644860947,6617.6574387903,-2728.2774847305,-10309.9085366216,-7956.1770954948,-10990.5573292001,-21688.6762329577,-13958.0395657729,-5158.5072357831,-7205.2963568543,-4193.3411883937,-24081.5268193701,1995.0155710896,5642.6477246711,9376.1959855195
560310324280,20307,-2,0,-236.6008647221,3520.5648956596,6624.7755414317,-2726.4401625103,-10308.4849160933,-7954.6683010888,-10992.6623407505,-21689.3819593734,-13957.2730008730,-5156.9132674993,-7211.6113915054,-4193.8765670539,-24080.5534036243,1995.5752851434,5643.1587679377,9378.4105063412
560310324280,20307,-2,0,-239.4724411723,3517.7906607839,6615.1873963352,-2733.4730912739,-10312.2082313211,-7971.4962257949,-10994.4266567898,-21690.2458658478,-13961.4343531865,-5163.6055007519,-7213.9232539017,-4193.9982440221,-24083.7778432824,1992.2656716076,5643.1587679377,9381.1482381264
560310324280,20307,-2,0,-249.1214247529,3511.4756261328,6599.3693904654,-2738.3280023063,-10318.2312412485,-7984.8198538161,-10993.6965949804,-21690.1606919701,-13964.5979543604,-5168.5820887525,-7206.4279526588,-4193.1830083350,-24088.0365371704,1989.4549336415,5641.9176628617,9383.6061128846
560310350455,20308,-2,0,-250.2043497702,3511.3417814678,6601.0607003238,-2736.8922140812,-10318.6084398500,-7976.7648385193,-10991.1900494349,-21688.0921835102,-13963.3568492845,-5165.2724752166,-7200.0155764331,-4192.2947664669,-24088.4259034687,1989.3454243701,5642.6842277616,9383.0463988308
560310350455,20308,-2,0,-242.9524024637,3516.5008849207,6615.5159241495,-2729.9201238016,-10315.9680496394,-7961.3240312510,-10988.8295162513,-21685.2936132409,-13962.2860919641,-5160.6365827271,-7202.8871528833,-4191.2118414497,-24088.3772326815,1990.1606600572,5643.5968050233,9381.2334120042
560310350455,20308,-2,0,-229.6287744426,3524.7627510635,6625.8341310553,-2724.6515110773,-10317.2334901090,-7960.1072615687,-10991.3847325841,-21686.3765382581,-13964.6344574509,-5162.7415942775,-7210.9786712706,-4191.8567293813,-24090.2388902954,1987.3134190006,5641.1997687492,9380.0774808060
560310350455,20308,-2,0,-230.5656870979,3522.7794164813,6619.3487486487,-2730.8448687602,-10324.8261329265,-7977.7504219619,-10997.8822826875,-21691.0367661413,-13971.4240322781,-5170.4559140632,-7217.3788797995,-4195.0203305552,-24096.5174218560,1981.0835582273,5636.5517085628,9381.9999769040
560310350455,20308,-2,0,-241.6504589036,3515.5396368717,6600.7443402064,-2739.5326042917,-10332.2849310790,-7995.6734393821,-11002.2261504533,-21693.9935164693,-13977.7999054133,-5180.9323010278,-7215.4563837014,-4198.7193103894,-24101.5061775534,1973.3327353511,5632.3538531589,9381.7687906644
560310350455,20308,-2,0,-248.0750028261,3513.4467930181,6596.9966895849,-2740.7493739740,-10334.4142780230,-7993.0208814747,-11001.8732872455,-21694.8574229437,-13981.1581897365,-5184.6799516492,-7211.9764224101,-4199.5345460766,-24101.9442146390,1972.3836549989,5631.9158160733,9379.6394437204
560310350455,20308,-2,0,-246.5297053296,3513.6414761673,6606.1224622021,-2738.8512132697,-10333.0636636756,-7978.6386638300,-11003.5767648007,-21695.2102861516,-13979.1505197607,-5178.9367987488,-7214.3369555937,-4199.8874092844,-24100.9099604091,1976.0096286521,5635.1645911250,9376.7800349670
560310350455,20308,-2,0,-242.3805207130,3517.8149961776,6614.5060053131,-2734.2518238706,-10329.2430068732,-7972.1897845138,-11003.0778892309,-21694.9669322151,-13975.9504154962,-5176.2112346605,-7218.9971834769,-4199.0235028100,-24097.2839867558,1980.7793658067,5637.5251243087,9377.4857613827
560310376709,20309,-2,0,-244.1691721460,3514.8825812433,6608.0692936938,-2737.0138910494,-10329.3768515383,-7982.9216931117,-11003.4672555293,-21695.4536400880,-13977.7634023229,-5180.5551024263,-7221.6862444748,-4198.7314780862,-24096.6512665211,1980.8402042908,5637.4034473404,9379.8219591727
560310376709,20309,-2,0,-246.9920778089,3511.6581415852,6598.6636640497,-2742.1729945023,-10332.4309434408,-7997.3769169373,-11003.8687895244,-21696.5122297116,-13978.2257748021,-5183.3780080892,-7215.9795946648,-4198.9018258418,-24099.6080168490,1978.6378511659,5634.0329953205,9383.3019204641
560310376709,20309,-2,0,-247.4179471977,3512.5828865437,6597.8970991498,-2739.7029520473,-10332.3457695631,-7993.7387755873,-11001.2162316170,-21697.5343162448,-13978.0189239561,-5182.5992754925,-7210.4067895199,-4199.8752415876,-24100.3015755679,1980.2561548433,5634.8603987044,9382.0729830850
560310376709,20309,-2,0,-240.2633414658,3517.9731762363,6610.0891313664,-2732.8890418264,-10329.4498577192,-7977.2150433017,-11000.5956790790,-21697.0232729782,-13975.5367138043,-5178.1702338490,-7211.8912485323,-4199.5102106829,-24097.2961544527,1984.0403085553,5637.2939380690,9379.4690959648
560310376709,20309,-2,0,-235.9681444873,3523.8623414986,6619.9693011866,-2729.2874035668,-10329.2065037828,-7970.0604375698,-11000.7781945314,-21696.1471988069,-13975.3298629583,-5176.4910916874,-7218.5834817849,-4201.7125638079,-24097.5760114796,1982.4950110588,5637.1844287976,9376.3054947909
560310376709,20309,-2,0,-239.8739751675,3518.8857534980,6612.1698075231,-2733.2784081248,-10333.9154024532,-7983.9437796448,-11007.0932291825,-21697.0111052814,-13980.6836495604,-5180.9079656341,-7225.6894167295,-4202.2479424681,-24099.8513707855,1976.7031873710,5633.6557967190,9377.0233889034
560310376709,20309,-2,0,-246.7122207820,3512.8262404802,6596.9723541913,-2741.1509079692,-10340.4251202535,-8002.7915420235,-11009.0522283710,-21698.4955642938,-13985.8184176196,-5189.2550056547,-7223.0003557317,-4203.7567368741,-24104.2925801259,1971.3980715562,5628.8130533834,9374.5776818420
560310376709,20309,-2,0,-250.5572129780,3508.6892235604,6591.3508782591,-2743.9981490258,-10340.8753250360,-8003.2904175933,-11007.9693033538,-21698.4590612033,-13985.4898898054,-5186.6876216250,-7215.4442160046,-4204.6449787422,-24105.7892068351,1974.9388713317,5630.9058972370,9376.5245133337
560310408198,20310,5,0,-246.9434070216,3511.7189800693,6602.6181655171,-2741.4064296025,-10334.8036443213,-7985.3795678699,-11005.8399564097,-21698.4712289001,-13977.7512346260,-5177.7686998538,-7213.9110862049,-4203.0023396711,-24100.9464634996,1980.7793658067,5633.9721568364,9376.2203209131
560310408198,20310,5,0,-242.5387007717,3516.0993509255,6612.1698075231,-2736.5758539638,-10327.5151939244,-7971.4597227045,-11004.9638822385,-21697.0962791591,-13972.6651373540,-5172.3297393739,-7217.1720289535,-4200.8851604239,-24094.3394041247,1986.8388788246,5638.3403599958,9377.4370905954
560310408198,20310,5,0,-243.7189673635,3515.9898416541,6612.3523229755,-2737.5127666191,-10327.3326784720,-7978.3466391062,-11005.1585653877,-21698.2765457510,-13972.5069572953,-5173.5830121467,-7220.9683503622,-4201.0068373921,-24094.1325532787,1986.3643386485,5641.4917934729,9380.5398532853
560310408198,20310,5,0,-247.7099719215,3511.1105952281,6601.9611098887,-2743.5601119401,-10332.8689805265,-7995.5760978075,-11008.0058064442,-21700.4058926950,-13976.9846697262,-5181.0661456928,-7219.6664068022,-4203.0996812457,-24100.3867494457,1980.3899995084,5637.4642858245,9381.9999769040
560310408198,20310,5,0,-250.2408528606,3508.1051741129,6593.3342128412,-2745.2879248890,-10338.0037485857,-8002.4873496030,-11008.7358682536,-21702.1093702502,-13981.5475560348,-5186.4929384759,-7217.4883890709,-4206.0442638768,-24104.6697787274,1977.9321247502,5636.7585594088,9379.6637791140
560310408198,20310,5,0,-246.5540407233,3511.2444398932,6604.0174506518,-2740.2626661011,-10337.6143822874,-7989.5652555770,-11007.6407755395,-21703.8493508959,-13980.8539973159,-5184.5582746810,-7218.1211093057,-4207.9910953685,-24103.6841952847,1978.7838635278,5636.9532425580,9377.1937366590
560310408198,20310,5,0,-242.1128313829,3515.3814568130,6616.0269674160,-2734.7872025308,-10334.4021103262,-7978.3101360158,-11008.2126572902,-21703.8493508959,-13979.2965321225,-5179.4721774090,-7222.9151818539,-4206.2267793292,-24103.0393073531,1980.8767073813,5638.5228754481,9375.1373958959
560310408198,20310,5,0,-238.7667147566,3516.8172450381,6614.6885207655,-2735.6146059148,-10333.8423962723,-7982.9338608085,-11006.5456828255,-21699.5298185237,-13979.2965321225,-5181.7718721085,-7226.0179445437,-4202.9171657933,-24100.9829665900,1982.0326385795,5639.7761482209,9378.6295248841
560310437833,20311,5,0,-241.2124218180,3516.1845248033,6603.6159166566,-2738.7295363014,-10336.0569170941,-7997.4499231183,-11004.3676650942,-21695.9890187482,-13982.2411147537,-5184.7407901333,-7220.1044438878,-4198.9748320227,-24102.0293885168,1981.5580984034,5641.1510979619,9384.1779946353
560310437833,20311,5,0,-245.7388050361,3512.3882033946,6597.6294098197,-2742.8422178276,-10338.1132578571,-8003.0348959600,-11004.3676650942,-21696.9989375845,-13983.1780274091,-5187.0526525297,-7212.1832732561,-4200.2767755828,-24103.5016798324,1981.9231293081,5638.6688878100,9383.1194050117
560310437833,20311,5,0,-241.1880864244,3514.4080410672,6603.9079413804,-2738.5956916364,-10336.1907617591,-7989.9667895722,-11003.4915909229,-21697.3639684892,-13981.5718914284,-5183.4996850574,-7210.9665035738,-4202.7589857346,-24102.0902270009,1983.2615759586,5638.9852479274,9378.1793201016
560310437833,20311,5,0,-233.7414559687,3521.0759389261,6619.1175624090,-2731.5505951759,-10328.3669327020,-7973.1632002597,-11002.3964982088,-21696.6704097703,-13974.7336458139,-5174.9092911004,-7212.9133350654,-4201.4205390841,-24098.0018808684,1986.3156678612,5641.4066195952,9378.0333077397
560310437833,20311,5,0,-230.2858300710,3523.7284968335,6625.0310630650,-2730.8205333665,-10325.4953562518,-7974.0392744309,-11003.8322864340,-21696.5365651053,-13972.7259758382,-5170.4437463664,-7216.8435011392,-4200.3984525510,-24095.7143538657,1987.3499220911,5642.2948614633,9381.7322875739
560310437833,20311,5,0,-233.9483068147,3519.6401507010,6614.6763530687,-2735.4564258561,-10328.6346220321,-7988.9081999486,-11004.4650066687,-21696.8529252227,-13974.9283289631,-5175.7975329685,-7217.8169168851,-4199.9360800717,-24096.4565833719,1980.6941919290,5639.2042664702,9381.2090766105
560310437833,20311,5,0,-241.1515833339,3512.4247064850,6601.5717435904,-2740.3356722821,-10332.0902479298,-7997.0605568199,-11003.6619386784,-21697.2057884305,-13977.5078806896,-5179.2409911694,-7213.0836828210,-4201.7247315047,-24100.9342958027,1978.6621865595,5638.3038569053,9382.7543741070
560310437833,20311,5,0,-239.4602734755,3516.6347295858,6610.3324853029,-2734.8845441054,-10330.5936212206,-7984.9658661779,-11000.8998714996,-21697.1814530369,-13975.7922354375,-5173.9358753546,-7209.2995291090,-4202.9536688838,-24101.3601651915,1980.8037012004,5638.5107077513,9381.8661322390
560310469891,20312,5,0,-233.8022944528,3522.8645903591,6624.2766658620,-2727.8881184322,-10325.4710208581,-7968.4786369828,-10997.8214442034,-21693.4703055059,-13971.3753614908,-5167.5965053098,-7211.3437021753,-4199.7048938321,-24098.9509612206,1986.7902080373,5642.3070291601,9380.3208347424
560310469891,20312,5,0,-228.3511662762,3526.0281915331,6626.9292237694,-2725.2112251311,-10323.4755185791,-7967.8824198385,-10997.0062085163,-21690.6595675398,-13969.8057286006,-5165.2116367325,-7214.9940112222,-4197.1496774993,-24098.1843963207,1987.6662822085,5644.3877053168,9382.3041693246
560310469891,20312,5,0,-235.2380826779,3520.8569203833,6618.3753329028,-2732.0981415329,-10329.4498577192,-7986.0487911952,-10999.7439403014,-21692.9227591489,-13975.9139124058,-5172.4635840390,-7216.0282654521,-4199.5102106829,-24102.4917609961,1982.0569739731,5639.4841234972,9383.6304482783
560310469891,20312,5,0,-244.4368614761,3512.0718432772,6601.8394329205,-2741.2969203311,-10337.0911713240,-8001.8789647618,-11004.0391372799,-21696.6217389830,-13982.3506240251,-5182.2585799815,-7212.6699811290,-4203.7689045709,-24107.0789826983,1976.2894856791,5633.0109087874,9380.5641886789
560310469891,20312,5,0,-245.8239789139,3512.8992466611,6604.2486368914,-2740.8467155486,-10337.4318668351,-7993.6657694063,-11005.8156210161,-21700.0286940935,-13983.7985799470,-5184.4000946223,-7213.4000429384,-4208.8793372366,-24107.1763242729,1973.8437786177,5631.8306421955,9374.3951663897
560310469891,20312,5,0,-241.8086389623,3514.9677551210,6615.7471103891,-2738.6808655141,-10332.9784897979,-7978.0424466857,-11006.4726766445,-21701.4401469249,-13980.0996001129,-5175.9070422399,-7215.3833775205,-4209.4512189873,-24101.0316373773,1976.1921441045,5632.3903562494,9370.3919941349
560310469891,20312,5,0,-237.0267341109,3518.1191885982,6624.4713490111,-2735.2374073132,-10326.4931073912,-7972.3601322694,-11004.6475221211,-21698.9822721667,-13973.3951991634,-5170.3585724886,-7220.5789840639,-4204.5841402581,-24097.4543345114,1982.6775265111,5638.5472108418,9377.3032459304
560310469891,20312,5,0,-235.5301074017,3518.7275734393,6617.9494635140,-2734.2396561738,-10323.1834938554,-7981.4007310088,-11001.5934302185,-21695.5874847531,-13969.5258715737,-5171.0886342980,-7217.8777553692,-4199.7535646194,-24094.5097518802,1984.0768116457,5641.3944518984,9382.8638833784
560310500755,20313,5,0,-237.6229512552,3518.2165301727,6613.4230802959,-2735.0913949514,-10322.9766430094,-7990.7333544720,-10998.2229781986,-21694.1760319216,-13968.6863004929,-5172.3419070708,-7210.3337833390,-4198.4516210593,-24096.1158878608,1982.0934770636,5639.8004836146,9384.8228825669
560310500755,20313,5,0,-236.0168152746,3521.3922990435,6618.4726744774,-2731.2342350585,-10322.2709165937,-7983.5909164369,-10995.3879048388,-21693.1904484790,-13968.2969341946,-5172.7799441564,-7207.0606728936,-4199.2303536560,-24097.7341915383,1981.2539059828,5640.7252285731,9381.5619398184
560310500755,20313,5,0,-229.7504514108,3525.5049805697,6627.3672608550,-2724.4689956249,-10319.4845140212,-7969.1113572176,-10993.4654087408,-21691.0245984445,-13966.6542951235,-5171.2346466599,-7211.8547454418,-4200.0090862527,-24095.6048445943,1983.7726192252,5642.2583583728,9377.9481338620
560310500755,20313,5,0,-225.5039252196,3530.8344317781,6636.7850581960,-2720.1737986464,-10317.4768440454,-7966.1059361024,-10993.3193963789,-21689.1629408306,-13964.9508175683,-5170.2125601268,-7217.4518859804,-4198.2447702133,-24093.1104667456,1986.5590217976,5643.2317741186,9377.7047799255
560310500755,20313,5,0,-228.7040294840,3526.9286010980,6627.3672608550,-2724.6271756836,-10320.8351283686,-7981.4372340993,-10996.4829975529,-21689.7226548844,-13969.1851760627,-5177.7930352474,-7221.4915613256,-4198.5976334212,-24093.3781560757,1982.8843773571,5638.9974156242,9377.3275813240
560310500755,20313,5,0,-237.1605787760,3519.9321754248,6610.1986406378,-2732.1711477139,-10326.0550703056,-7998.9708852211,-10999.7804433919,-21692.7645790902,-13975.2325213837,-5188.4641053612,-7219.2162020197,-4199.8022354067,-24097.8071977192,1980.2926579338,5637.3669442500,9379.4812636617
560310500755,20313,5,0,-242.0276575051,3515.9776739573,6607.0958779480,-2734.5803516848,-10329.2673422669,-7995.3205761743,-11002.1531442724,-21696.3905527434,-13976.1085955549,-5188.1964160311,-7216.1012716330,-4203.7324014805,-24098.2330671080,1978.3823295326,5635.1889265187,9377.6926122287
560310500755,20313,5,0,-239.6549566247,3515.2111090575,6616.2946567461,-2732.8890418264,-10327.4908585307,-7978.4926514681,-11001.9219580327,-21698.3373842351,-13974.0035840046,-5181.2729965388,-7218.1211093057,-4204.2799478375,-24098.3669117731,1982.0813093668,5639.2772726512,9376.9017119352
560310532011,20314,5,0,-237.3065911378,3518.3503748378,6621.4172571086,-2730.3094901000,-10323.7067048188,-7970.7174931983,-11001.8124487613,-21697.1084468560,-13971.0346659798,-5175.3959989733,-7221.9539338049,-4200.4592910351,-24094.4854164866,1986.8510465214,5644.1565190772,9379.0310588792
560310532011,20314,5,0,-237.9758144631,3515.3692891162,6615.3942471812,-2734.4221716261,-10324.6922882614,-7980.7315076835,-11001.8002810645,-21696.0498572324,-13970.1099210212,-5173.9967138387,-7219.9705992227,-4199.0478382036,-24091.8328585792,1988.7127041353,5647.0524309210,9385.3339258335
560310532011,20314,5,0,-242.6360423463,3513.6779792578,6604.6866739770,-2737.7926236461,-10325.6900394009,-7993.1303907461,-11000.4131636267,-21695.6604909340,-13971.7403923955,-5174.5442601957,-7212.9863412464,-4197.8554039150,-24092.3439018457,1987.7879591767,5646.2128598402,9388.4975270075
560310532011,20314,5,0,-245.3859418283,3510.2710241474,6601.0850357174,-2736.6853632352,-10326.1889149707,-7986.3043128285,-10994.6578430295,-21692.7889144838,-13967.9319032899,-5171.3319882345,-7202.8384820960,-4194.1929271713,-24091.1149644666,1990.9150572602,5649.6806534348,9390.7120478292
560310532011,20314,5,0,-246.3106867868,3510.3927011156,6613.3379064181,-2729.5185898065,-10322.5994444079,-7968.5029723765,-10990.8006831366,-21690.4527166938,-13965.9972394951,-5162.0480355586,-7200.4292781251,-4192.8909836112,-24090.3970703541,1991.5964482823,5651.9073419534,9387.7187944108
560310532011,20314,5,0,-241.7964712655,3516.9267543095,6625.6272802093,-2725.5762560358,-10324.5706112932,-7963.5750551632,-10991.7862665792,-21690.8907537794,-13967.0801645123,-5161.3544768397,-7209.1900198376,-4196.6873050200,-24091.7598523982,1985.1232335725,5648.1596913319,9381.5862752120
560310532011,20314,5,0,-237.3187588347,3519.7253245788,6622.7800391527,-2727.1945597133,-10329.9000625017,-7976.4728137955,-10996.7750222766,-21692.0831880681,-13972.2149325716,-5168.2048901510,-7217.1111904693,-4197.9527454896,-24092.7697712345,1978.5040065008,5643.5846373265,9379.1162327570
560310532011,20314,5,0,-238.1218268250,3517.2796175174,6612.4009937628,-2731.5505951759,-10334.0857502088,-7993.5805955286,-10999.1842262476,-21693.7379948360,-13975.4393722297,-5174.9336264941,-7212.6699811290,-4198.6341365117,-24098.8901227365,1977.0560505789,5638.1700122403,9381.1117350359
560310564509,20315,5,0,-241.2610926053,3514.2985317958,6609.8336097331,-2734.2031530833,-10334.4142780230,-7992.3394904526,-10999.2085616412,-21694.1881996184,-13975.4028691392,-5172.7799441564,-7207.1580144682,-4198.5246272403,-24100.1190601156,1979.6964407895,5638.2308507244,9381.1239027328
560310564509,20315,5,0,-235.9803121841,3518.6789026520,6620.1031458517,-2726.1359700897,-10325.3250084962,-7971.6422381568,-10994.1224643692,-21689.8564995495,-13968.1995926200,-5163.4838237837,-7203.3495253626,-4195.6895538805,-24093.1834729265,1988.5910271671,5645.8234935419,9382.7057033197
560310564509,20315,5,0,-229.5436005648,3523.9596830732,6632.8913952126,-2719.2247182943,-10316.0045527299,-7955.4592013823,-10988.3793114688,-21685.1962716663,-13958.8426337632,-5153.2872938460,-7204.3716118957,-4189.1433329898,-24085.1406253266,1994.9303972118,5653.5134779340,9388.2055022837
560310564509,20315,5,0,-229.4584266870,3523.6311552590,6633.6214570220,-2720.2954756147,-10314.7391122603,-7960.0585907814,-10988.2819698942,-21682.9574154509,-13956.8349637874,-5152.4963935526,-7205.8682386050,-4187.0504891362,-24084.7634267250,1996.1228315005,5654.4747259830,9391.6246250910
560310564509,20315,5,0,-232.5246862864,3521.0637712293,6621.9891388593,-2724.7001818646,-10317.6958625883,-7977.2150433017,-10988.2454668038,-21683.2616078714,-13961.8237194848,-5160.8921043604,-7205.0530029178,-4186.7949675029,-24087.3429784515,1991.3652620427,5649.3156225301,9390.3105138341
560310564509,20315,5,0,-235.4449335239,3518.0705178109,6616.0026320224,-2726.7443549308,-10320.7499544908,-7983.4935748624,-10988.9268578258,-21687.2161093389,-13965.7052147713,-5166.1485493879,-7201.6460478074,-4190.8468105450,-24092.8062743250,1987.6054437244,5646.7847415909,9388.1446637996
560310564509,20315,5,0,-230.3345008583,3522.4873917576,6628.7300428992,-2721.2202205732,-10319.0829800261,-7970.8148347728,-10987.6249142658,-21688.4572144148,-13966.4109411870,-5164.1895501994,-7201.7555570788,-4192.9396543985,-24091.0297905889,1987.9826423259,5646.7239031068,9384.7377086892
560310564509,20315,5,0,-225.0902235276,3526.4297255282,6638.2695172084,-2716.3896449345,-10317.1239808376,-7960.8981618621,-10987.4423988134,-21688.7735745322,-13965.8633948300,-5163.6663392360,-7209.1048459599,-4191.1388352687,-24090.7864366524,1991.1219081062,5650.4958891219,9383.9224730020
560310613508,20316,5,0,-227.1100612002,3523.3878013225,6635.0937483376,-2718.2513025484,-10319.7765387450,-7969.3425434573,-10989.9611120558,-21687.5081340627,-13967.3235184488,-5168.1683870605,-7215.4077129141,-4189.3988546230,-24089.5574992733,1991.5112744046,5651.0677708726,9387.2929250220
560310613508,20316,5,0,-234.5201885654,3517.8636669649,6621.3077478372,-2726.6956841435,-10327.5395293180,-7989.4922493961,-10994.7065138167,-21690.1485242732,-13971.9715786351,-5176.5032593842,-7215.8944207871,-4192.1244187114,-24092.9036158996,1987.0092265801,5647.2957848575,9389.4709427533
560310613508,20316,5,0,-243.6216257889,3508.8717390127,6604.9178602167,-2735.1035626482,-10334.1952594802,-7999.1412329767,-10999.0017107952,-21696.1350311101,-13979.6737307241,-5184.9719763730,-7216.1134393299,-4198.9261612354,-24098.0140485652,1982.4220048778,5642.8910786076,9386.2465030952
560310613508,20316,5,0,-245.1060848013,3508.9447451937,6608.3978215080,-2733.8746252691,-10336.7748112066,-7990.7698575625,-11004.9882176321,-21700.8560974774,-13981.5110529443,-5184.9111378889,-7219.0093511737,-4203.8905815392,-24098.3912471667,1984.0281408585,5641.3336134142,9382.9247218626
560310613508,20316,5,0,-242.3075145321,3512.8505758738,6618.1319789664,-2733.6312713326,-10333.9640732405,-7979.2713840648,-11005.7426148352,-21701.5496561963,-13978.0067562593,-5178.2067369394,-7224.0102745680,-4203.5498860281,-24095.6535153816,1986.2791647707,5642.0880106173,9381.1847412169
560310613508,20316,5,0,-239.7036274120,3514.6270596100,6619.3000778614,-2732.4145016503,-10332.1510864139,-7981.9117742754,-11006.2901611922,-21698.0331918145,-13976.4249556723,-5177.0021349540,-7226.9913602896,-4199.4493721988,-24092.1005479093,1987.8974684481,5646.2250275371,9385.4921058922
560310613508,20316,5,0,-241.6017881163,3511.7554831598,6609.3225664666,-2734.0814761151,-10334.1465886929,-7995.0407191473,-11004.5136774560,-21698.5198996874,-13977.6052222642,-5180.9931395119,-7222.6231571301,-4197.2956898611,-24092.5629203885,1986.0601462279,5645.0812640357,9388.8260548217
560310613508,20316,5,0,-246.0064943662,3508.7378943477,6602.7155070917,-2738.3645053967,-10337.9915808889,-8000.9177167128,-11003.8079510403,-21698.6294089588,-13978.9193335210,-5180.6889470913,-7214.5194710461,-4199.2060182623,-24095.3614906578,1984.4540102473,5641.9785013459,9390.2983461373
560310654429,20317,5,0,-241.6382912068,3513.5441345927,6610.7826900853,-2731.1247257871,-10335.9474078227,-7988.3971566820,-11001.6055979154,-21698.6294089588,-13976.6804773056,-5177.5131782205,-7213.3513721511,-4201.0068373921,-24095.3249875674,1986.0601462279,5643.3777864805,9386.6237016967
560310654429,20317,5,0,-236.6008647221,3516.3792079525,6621.8431264974,-2727.5474229211,-10331.9685709616,-7973.8567589786,-11000.1089712061,-21697.7655024844,-13974.7944842981,-5172.0742177407,-7216.7826626551,-4200.8729927271,-24093.3538206820,1988.6031948639,5647.3687910384,9384.0441499703
560310654429,20317,5,0,-233.6441143941,3518.4233810187,6627.2942546741,-2726.4036594198,-10330.3502672841,-7973.9054297659,-11001.5569271281,-21695.9525156578,-13973.1640129238,-5168.8011072953,-7220.8831764845,-4198.0014162769,-24093.0739636551,1990.5256909619,5649.1574424714,9385.9423106746
560310654429,20317,5,0,-239.6914597151,3512.7410666024,6615.5889303304,-2732.2684892884,-10334.0127440278,-7989.5165847897,-11002.2139827565,-21694.2247027089,-13975.5123784106,-5173.1693104547,-7219.6177360149,-4196.7603112009,-24095.8725339244,1983.9794700712,5648.2083621192,9388.2541730710
560310654429,20317,5,0,-246.2376806059,3507.0587521861,6601.2188803825,-2738.1089837635,-10338.2105994317,-7999.3602515195,-11001.9584611232,-21696.8164221322,-13978.6881472814,-5179.2409911694,-7212.9133350654,-4197.8797393086,-24099.7783646046,1979.9032916355,5643.5359665392,9387.4267696870
560310654429,20317,5,0,-247.5639595596,3509.8694901522,6607.2053872194,-2735.0792272545,-10336.5557926638,-7989.0907154009,-11001.3014054948,-21698.1427010859,-13976.7048126993,-5174.1670615942,-7208.4842934219,-4199.7779000130,-24098.8414519492,1983.0668928094,5644.9960901580,9386.8670556332
560310654429,20317,5,0,-242.3561853194,3513.6901469546,6622.9868899987,-2728.6911864225,-10330.4354411619,-7971.3015426458,-10997.6267610543,-21695.2832923325,-13971.2293491289,-5164.4937426200,-7208.5329642092,-4197.0523359247,-24093.0496282615,1992.2778393044,5651.0069323885,9388.3515146456
560310654429,20317,5,0,-235.7856290350,3518.7275734393,6629.2775892562,-2724.1526355075,-10324.5706112932,-7967.7120720830,-10997.1278854845,-21693.4703055059,-13967.4208600234,-5161.3058060524,-7212.9985089432,-4193.2438468191,-24087.9513632927,1996.6582101607,5655.3629678511,9390.6147062547
560310661957,20318,5,0,-238.3895161551,3514.2255256148,6622.0256419497,-2729.2265650827,-10326.4566043008,-7981.3398925247,-10998.3811582573,-21693.7258271392,-13968.0657479550,-5163.5203268741,-7212.2684471338,-4193.7548900857,-24091.1271321634,1992.7280440869,5653.8663411419,9393.2307610716
560310661957,20318,5,0,-242.8307254955,3509.5652977316,6610.4663299679,-2734.5803516848,-10330.3502672841,-7992.2299811812,-10997.7241026288,-21693.9448456820,-13971.4848707622,-5170.0057092808,-7206.2819402969,-4194.8743181934,-24094.6679319389,1988.1894931719,5649.9970135522,9392.2695130226
560310661957,20318,5,0,-241.9424836274,3511.6216384947,6611.9021181930,-2730.8327010633,-10329.9487332890,-7984.6495060605,-10993.4410733472,-21692.9227591489,-13970.9251567084,-5170.4680817600,-7201.6217124137,-4195.9572432106,-24095.3493229610,1989.4184305510,5649.6684857380,9389.1059118486
560310661957,20318,5,0,-239.3750995977,3516.0750155319,6625.8584664490,-2724.7731880455,-10325.0694868630,-7968.4664692860,-10990.6181676842,-21689.1142700433,-13966.5326181553,-5162.9971159107,-7202.1814264676,-4193.4506976651,-24092.7089327504,1993.0200688106,5652.1506958898,9386.0396522492
560310661957,20318,5,0,-233.1209034307,3522.1223608529,6634.4610281028,-2719.1882152038,-10320.2510789211,-7964.2199430948,-10987.4789019039,-21687.3012832167,-13963.2473400131,-5159.5293223162,-7206.2941079938,-4189.3988546230,-24088.9856175226,1996.5000301020,5654.5477321640,9390.8093894038
560310661957,20318,5,0,-238.4990254265,3517.0484312777,6624.0333119255,-2723.4834121823,-10322.6237798015,-7977.3732233604,-10988.9025224322,-21686.0115073534,-13964.9629852651,-5165.1994690357,-7205.9534124827,-4187.7562155519,-24089.8495239970,1994.3950185516,5653.1727824230,9393.0482456192
560310661957,20318,5,0,-247.3692764104,3511.5121292233,6609.3469018602,-2730.6988563983,-10328.7197959098,-7990.6603482911,-10988.5374915275,-21688.6032267767,-13968.1874249232,-5170.6140941219,-7199.7600547998,-4189.9950717674,-24094.3637395183,1988.7127041353,5647.5513064908,9394.2893506952
560310661957,20318,5,0,-250.7275607335,3508.3971988366,6610.7583546917,-2731.6601044473,-10330.2894288000,-7985.5012448381,-10988.2576345006,-21689.9295057304,-13968.6011266152,-5169.7015168602,-7197.4116893130,-4194.0712502031,-24096.4444156751,1985.8654630787,5645.3732887595,9390.8823955848
560310690868,20319,5,0,-244.7410538967,3512.9844205389,6621.2104062626,-2726.2454793611,-10326.0429026088,-7969.5858973937,-10987.3450572389,-21690.3067043319,-13966.2040903411,-5164.6762580723,-7201.7677247756,-4194.7161381347,-24092.9279512932,1989.8686353335,5648.8897531413,9386.7575463618
560310690868,20319,5,0,-238.2435037932,3519.0804366472,6631.2852592320,-2720.7821834876,-10320.9933084273,-7962.5773040237,-10988.1846283196,-21690.5135551779,-13963.2473400131,-5160.8069304826,-7208.1922686981,-4193.7792254793,-24089.4601576987,1992.1318269425,5650.7635784520,9385.6381182541
560310690868,20319,5,0,-239.4602734755,3517.4621329697,6625.5907771188,-2723.4469090918,-10324.4732697186,-7973.7715851008,-10990.7033415620,-21690.8055799017,-13965.9120656173,-5165.9538662387,-7212.0372608942,-4194.5944611664,-24092.1005479093,1989.3332566733,5649.9848458554,9387.2929250220
560310690868,20319,5,0,-245.5319541901,3513.7509854387,6611.1477209900,-2729.7376083493,-10329.7297147461,-7990.7941929561,-10992.5041606918,-21693.2026161758,-13971.6917216082,-5176.2964085382,-7209.6402246201,-4196.6264665359,-24098.3547440763,1984.8798796361,5644.7162331310,9388.1933345869
560310690868,20319,5,0,-250.2651882543,3510.4657072965,6606.6335054687,-2732.2198185012,-10333.0758313725,-7989.4070755183,-10992.2729744522,-21695.0642737897,-13974.5511303616,-5179.1801526853,-7205.2355183702,-4199.0600059005,-24099.4498367903,1982.9452158412,5641.9785013459,9383.2654173736
560310690868,20319,5,0,-246.5297053296,3512.8870789643,6617.4019171570,-2728.6911864225,-10330.8734782475,-7975.7914227734,-10990.1071244177,-21692.6550698188,-13971.6308831241,-5171.3563236281,-7207.1215113777,-4198.3907825752,-24096.6999373083,1987.1065681547,5647.8554989113,9384.9810626256
560310690868,20319,5,0,-240.2755091626,3519.1291074345,6626.5763605615,-2722.2544748032,-10326.5174427849,-7966.5683085816,-10988.8173485544,-21689.4914686448,-13969.1730083659,-5168.8741134762,-7212.8281611877,-4193.6210454206,-24091.5773369459,1990.7447095047,5651.0191000853,9385.4069320144
560310690868,20319,5,0,-239.9469813484,3516.4765495271,6623.3640886002,-2724.8948650137,-10328.2087526433,-7976.7648385193,-10988.7443423735,-21686.4373767422,-13969.5015361801,-5171.1859758726,-7215.5172221855,-4190.4817796403,-24094.1325532787,1989.0655673432,5650.8000815425,9391.1865880053
560310723410,20320,5,0,-243.9014828159,3512.7167312088,6613.3500741150,-2729.5672605938,-10332.4431111377,-7991.8771179734,-10990.3018075668,-21687.7393203023,-13973.4317022539,-5177.1481473158,-7210.0052555248,-4191.6863816258,-24099.1578120666,1981.5215953129,5644.1565190772,9392.4155253845
560310723410,20320,5,0,-247.8681519802,3511.9866693994,6608.0814613906,-2728.9832111463,-10333.0149928883,-7989.9546218753,-10990.4356522319,-21689.0412638623,-13974.0522547919,-5179.5695189836,-7204.8461520718,-4193.6210454206,-24101.9563823359,1979.1488944325,5642.0150044363,9389.7873028707
560310723410,20320,5,0,-242.5873715590,3516.0993509255,6619.7137795534,-2723.1670520649,-10328.7319636067,-7974.8666778149,-10989.2797210337,-21690.0511826986,-13970.6696350751,-5173.2301489388,-7206.3914495683,-4194.7404735283,-24098.0870547462,1980.0858070878,5643.1222648472,9386.0761553397
560310723410,20320,5,0,-238.3651807614,3520.2120324517,6629.7642971291,-2721.5000776001,-10323.8770525743,-7966.0694330119,-10991.4942418555,-21691.0732692318,-13967.2626799647,-5166.4162387180,-7211.5627207181,-4194.9108212838,-24096.0185462863,1982.8722096603,5645.6409780896,9385.2244165621
560310723410,20320,5,0,-242.1736698670,3516.3183694684,6623.0842315733,-2726.9877088673,-10325.1789961344,-7975.1100317513,-10992.4676576013,-21692.4968897601,-13967.5547046884,-5168.1927224541,-7216.4297994473,-4194.2415979586,-24096.3714094941,1985.4395936899,5646.9185862560,9386.6115339999
560310723410,20320,5,0,-247.3571087136,3512.4612095755,6610.9773732345,-2731.9156260806,-10328.0992433719,-7989.6625971516,-10993.5019118313,-21691.0002630508,-13969.0269960040,-5171.8917022883,-7209.1048459599,-4194.0225794158,-24099.2064828539,1985.3057490249,5644.8865808865,9390.0793275944
560310723410,20320,5,0,-251.0925916382,3509.7356454872,6607.8016043637,-2733.2540727311,-10328.3669327020,-7990.0032926626,-10990.3261429605,-21689.7469902781,-13968.6497974025,-5170.3707401855,-7200.2467626728,-4194.2781010490,-24100.5084264139,1982.9938866285,5643.7793204757,9388.8747256090
560310723410,20320,5,0,-244.4733645666,3516.0020093510,6618.9958854408,-2726.5861748721,-10323.3295062173,-7973.7472497072,-10987.8439328086,-21687.0822646738,-13965.0846622333,-5163.6785069328,-7200.4901166092,-4192.3799403447,-24099.3768306094,1986.1453201056,5648.5003868430,9382.7908771975
560310760761,20321,5,0,-236.0411506683,3522.8037518750,6632.5141966111,-2720.0399539814,-10317.8540426469,-7961.0685096177,-10985.9092690138,-21686.2791966835,-13961.0814899786,-5157.4608138563,-7205.8195678177,-4190.1897549165,-24093.8161931613,1990.3796786000,5651.9438450439,9377.4249228986
560310760761,20321,5,0,-231.9649722326,3523.2782920511,6633.8161401712,-2720.1981340401,-10316.6007698742,-7966.1302714960,-10986.9070201532,-21683.9795019840,-13959.0129815187,-5154.8082559489,-7207.1701821650,-4187.6588739774,-24091.2731445253,1991.7059575537,5653.6229872054,9372.9350427709
560310760761,20321,5,0,-236.8198832649,3519.5914799137,6623.7047841113,-2725.9047838501,-10318.5719367595,-7980.1109551456,-10986.1404552534,-21683.5658002920,-13961.2031669468,-5161.6343338666,-7203.6780531768,-4188.0482402757,-24093.4876653471,1989.2967535828,5649.3399579237,9366.4739957579
560310760761,20321,5,0,-243.4512780334,3514.7974073655,6612.7538569706,-2730.3338254936,-10322.0884011413,-7984.6251706669,-10986.2986353121,-21686.3400351677,-13965.0603268397,-5167.6208407035,-7200.1980918855,-4191.5160338702,-24095.9577078021,1986.7293695531,5644.8135747056,9359.3193900260
560310760761,20321,5,0,-239.9591490452,3517.1092697619,6621.5511017736,-2727.3649074688,-10321.3583393320,-7973.3822188025,-10986.3716414930,-21688.4693821117,-13964.3059296367,-5165.0047858865,-7200.8673152107,-4193.2803499096,-24095.9212047117,1988.0191454164,5645.2516117912,9351.2887101229
560310760761,20321,5,0,-235.6031135826,3518.8857534980,6632.6115381857,-2721.7434315366,-10317.2456578058,-7962.5894717205,-10985.3130518694,-21688.3477051434,-13962.7727998370,-5162.2548864046,-7206.7686481698,-4193.0369959731,-24091.4069891904,1988.9195549813,5647.8433312145,9345.5698926161
560310760761,20321,5,0,-232.7680402229,3521.6721560705,6632.6602089730,-2722.3639840746,-10316.3817513314,-7966.7386563372,-10986.3959768867,-21685.8898303852,-13963.9895695193,-5164.0070347471,-7213.6068937843,-4190.1167487356,-24091.8693616696,1991.8032991283,5651.9316773470,9348.5996491250
560310760761,20321,5,0,-237.2700880474,3518.4598841092,6622.5488529131,-2726.3793240261,-10321.2001592733,-7982.9338608085,-10987.8804358991,-21685.7438180233,-13967.1410029964,-5170.9791250266,-7210.6136403659,-4189.5692023786,-24095.5683415038,1987.5689406339,5649.8144980998,9349.8529218978
560310792419,20322,5,0,-242.8307254955,3513.1182652039,6611.1112178995,-2729.9566268921,-10327.9167279195,-7993.1303907461,-10988.6591684957,-21688.5302205958,-13971.6065477304,-5177.3428304650,-7205.1016737051,-4190.7859720609,-24098.8901227365,1984.1498178267,5646.8577477719,9345.6185634034
560310792419,20322,5,0,-239.4967765660,3518.2165301727,6616.7448615286,-2725.6857653072,-10327.3570138657,-7981.4372340993,-10987.1017033024,-21688.0070096324,-13971.5457092463,-5175.9800484208,-7203.9092394165,-4191.7715555035,-24098.5737626191,1984.8312088488,5647.9163373955,9340.1917706204
560310792419,20322,5,0,-232.4638478023,3521.6599883736,6629.9224771878,-2721.9502823826,-10324.5219405059,-7968.1866122591,-10986.3108030089,-21687.0335938866,-13969.2095114563,-5169.9448707966,-7208.5816349965,-4190.3844380657,-24096.2984033132,1987.2160774261,5650.0943551268,9336.9551632655
560310792419,20322,5,0,-229.6166067457,3522.1588639434,6633.7309662934,-2724.8096911360,-10323.7918786965,-7969.6710712715,-10987.0286971215,-21685.4274579059,-13967.9319032899,-5167.6208407035,-7212.9133350654,-4188.3037619090,-24094.5705903643,1989.1142381304,5651.6518203201,9337.3080264733
560310792419,20322,5,0,-232.7437048292,3518.5328902901,6622.3785051576,-2732.8160356455,-10324.6314497773,-7982.1551282118,-10985.6659150773,-21682.7383969081,-13967.0679968155,-5169.9327030998,-7208.3626164537,-4184.9576452827,-24092.7211004472,1988.3355055338,5651.8708388629,9339.9240812903
560310792419,20322,5,0,-243.9014828159,3509.5896331253,6611.5735903788,-2740.7493739740,-10324.8017975329,-7986.0609588920,-10981.1882026465,-21681.1930994115,-13964.4154389081,-5168.7767719016,-7195.0389884325,-4184.3979312288,-24092.7697712345,1987.1674066388,5651.8221680756,9339.9362489871
560310792419,20322,5,0,-248.7928969387,3508.4823727144,6615.8687873573,-2740.0193121647,-10318.9613030578,-7972.2627906948,-10976.2359500395,-21679.3314417976,-13958.2950874061,-5161.0502844191,-7189.2228293512,-4182.5971120990,-24088.0973756545,1990.4891878714,5654.7545830099,9335.3976980721
560310792419,20322,5,0,-240.4701923118,3513.7874885292,6629.6426201609,-2733.8259544818,-10312.5245914385,-7955.4226982918,-10975.6397328952,-21679.1854294358,-13955.3018339877,-5155.4409761837,-7194.7591314056,-4183.2785031211,-24084.6417497568,1997.2909303955,5658.5387367219,9331.8690659935
560310815815,20323,5,0,-225.7472791560,3522.2805409116,6641.5669630474,-2731.0395519093,-10313.6683549399,-7959.6692244830,-10982.9768540794,-21683.3467817492,-13956.4699328827,-5156.7672551374,-7205.3450276416,-4186.3934335078,-24083.8995202506,1996.4270239210,5656.4458928683,9326.5639501787
560310815815,20323,5,0,-224.4453355960,3520.4918894786,6634.8017236138,-2736.8557109907,-10319.0343092388,-7977.1420371208,-10988.6470007989,-21686.5833891041,-13959.5970309662,-5162.0480355586,-7205.8682386050,-4187.9752340948,-24089.6305054542,1995.0764095737,5655.7279987558,9325.8217206725
560310815815,20323,5,0,-235.6882874604,3513.3859545340,6617.1828986142,-2744.4483538082,-10324.2177480853,-7989.1150507946,-10991.3603971904,-21690.3675428160,-13963.8313894606,-5169.2634797746,-7200.8064767266,-4189.9829040705,-24093.0617959583,1991.8032991283,5653.4648071467,9322.4025978652
560310815815,20323,5,0,-241.3584341799,3510.3927011156,6615.4429179685,-2745.6894588842,-10326.1037410929,-7984.6008352732,-10993.0273716552,-21693.4824732027,-13965.5713701063,-5168.3143994224,-7199.1638376555,-4193.5602069365,-24094.8017766040,1989.8686353335,5651.9195096502,9317.5963576202
560310815815,20323,5,0,-238.0244852504,3514.5662211259,6626.9778945567,-2739.4230950203,-10320.4700974639,-7969.1721957017,-10991.5550803396,-21692.3630450950,-13959.4266832107,-5158.3003849371,-7201.5608739296,-4192.0635802273,-24089.4114869114,1995.2467573292,5655.9348496018,9314.8464581382
560310815815,20323,5,0,-231.6972829025,3520.6379018405,6636.2375118389,-2733.7529483008,-10312.9869639178,-7962.1270992413,-10988.3063052879,-21687.8731649673,-13953.6226918261,-5153.2751261492,-7205.7465616367,-4187.0748245299,-24082.7557567493,2000.5762085377,5661.8605179545,9315.7955384904
560310815815,20323,5,0,-233.2182450053,3516.4765495271,6629.6304524641,-2738.3766730936,-10311.7093557514,-7971.4353873108,-10987.1868771802,-21684.7825699743,-13952.3329159629,-5153.7983371126,-7203.8605686292,-4183.3271739084,-24081.5511547638,1999.0430787380,5662.1403749815,9319.9325554102
560310815815,20323,5,0,-239.4116026882,3510.3318626315,6618.8620407758,-2745.4461049477,-10315.4813417665,-7982.1916313023,-10986.9556909405,-21685.8289919011,-13955.7398710733,-5159.4076453480,-7197.7523848240,-4184.9211421922,-24086.6615874294,1993.8596398914,5659.0984507757,9319.6770337769
560310844723,20324,5,0,-243.5729550017,3506.6085474037,6617.3289109761,-2745.1662479208,-10317.7688687692,-7980.0744520551,-10987.5640757817,-21687.8366618769,-13959.7187079344,-5162.6807557934,-7199.9060671617,-4189.8125563150,-24090.4822442318,1993.2999258375,5657.4071409174,9314.5666011113
560310844723,20324,5,0,-238.8275532407,3509.0785898587,6627.5862793978,-2741.0170633041,-10316.3452482409,-7967.0793518482,-10989.5839134543,-21692.1440265522,-13960.3149250788,-5160.8434335731,-7205.9777478764,-4192.2460956796,-24089.9103624811,1995.3927696911,5657.4071409174,9309.0181313600
560310844723,20324,5,0,-234.5323562622,3513.7144823483,6637.0162444356,-2736.8192079002,-10315.3109940110,-7964.4632970313,-10992.3703160267,-21693.2026161758,-13961.0571545850,-5159.2981360766,-7213.7894092367,-4191.7107170194,-24088.5719158306,1996.2931792560,5657.2367931618,9307.6796847095
560310844723,20324,5,0,-234.9947287415,3515.3571214194,6630.7012097845,-2740.6033616122,-10317.0509746566,-7976.8500123970,-10992.8326885060,-21692.5820636378,-13963.7218801892,-5164.4085687422,-7215.6875699411,-4190.6156243053,-24089.5088284860,1994.9303972118,5657.1881223745,9306.9617905969
560310844723,20324,5,0,-236.5521939348,3515.1624382702,6619.4460902233,-2743.8764720575,-10321.8937179922,-7988.1051319582,-10989.4865718797,-21690.8055799017,-13964.0139049129,-5169.5068337110,-7206.5374619302,-4189.9585686769,-24091.2366414348,1993.1660811725,5657.1759546777,9312.9239620402
560310844723,20324,5,0,-236.5521939348,3515.1502705734,6621.2712447467,-2742.7448762530,-10321.6868671462,-7983.5909164369,-10987.9169389895,-21691.4748032269,-13963.1134953480,-5167.4139898575,-7198.9448191127,-4192.4286111320,-24091.5408338554,1993.1174103852,5656.7379175921,9311.1109752136
560310844723,20324,5,0,-228.9595511173,3518.5085548965,6633.1347491491,-2737.0382264430,-10315.3231617078,-7967.4078796624,-10985.3617226567,-21689.9295057304,-13959.7308756313,-5162.7415942775,-7201.6460478074,-4190.2749287943,-24088.0487048672,1996.8163902194,5658.4292274505,9306.8644490223
560310844723,20324,5,0,-222.8878704027,3524.4220555524,6642.6985588519,-2731.8669552933,-10311.0401324261,-7957.5155421454,-10983.7312512825,-21686.4008736518,-13956.3969267018,-5157.5216523404,-7206.6104681112,-4186.4177689014,-24084.9216067837,1999.4446127331,5659.5608232550,9304.2970649927
560310877155,20325,5,0,-224.5061740801,3521.4166344372,6637.8314801227,-2735.5537674306,-10313.1208085828,-7966.6778178530,-10984.3639715172,-21685.7316503265,-13958.6966214013,-5158.7262543259,-7208.0340886394,-4184.8481360113,-24086.9536121532,1997.2909303955,5658.0398611521,9302.5570843470
560310877155,20325,5,0,-232.7558725261,3515.1989413607,6622.8895484242,-2741.1022371819,-10319.6670294736,-7983.6152518306,-10985.8240951360,-21685.3666194218,-13964.8899790842,-5166.7447665322,-7203.4103638467,-4186.0892410872,-24092.0153740315,1991.0123988348,5654.4382228926,9301.3768177552
560310877155,20325,5,0,-238.8397209375,3511.2687752868,6615.7106072986,-2744.1928321749,-10326.5782812690,-7986.8153560950,-10986.0917844661,-21687.0822646738,-13971.3388584003,-5171.6848514423,-7199.5167008634,-4188.9851529311,-24098.7197749810,1987.6054437244,5651.8708388629,9296.2177143023
560310877155,20325,5,0,-237.5742804679,3514.1403517371,6625.6151125125,-2739.4839335045,-10328.1722495528,-7976.5214845828,-10987.2477156643,-21687.3864570944,-13972.3122741462,-5166.4284064148,-7201.6947185947,-4190.3844380657,-24101.3114944042,1985.9628046533,5652.5400621882,9293.8450134218
560310877155,20325,5,0,-232.2204938658,3518.9952627694,6636.8580643769,-2731.9764645647,-10324.8139652297,-7965.2785327184,-10983.7799220697,-21682.2030182479,-13967.7980586249,-5160.1863779446,-7205.5762138812,-4185.0914899477,-24097.1866451813,1988.7978780130,5657.1516192841,9293.8206780282
560310877155,20325,5,0,-231.2835812105,3518.8614181044,6635.3736053645,-2732.2928246821,-10321.7963764176,-7971.0095179220,-10982.5388169938,-21677.5306226678,-13966.4352765807,-5159.9430240082,-7205.6613877590,-4179.6890325583,-24092.2830633616,1990.6108648397,5658.4657305409,9296.8991053244
560310877155,20325,5,0,-237.3309265315,3515.6978169304,6623.8629641700,-2736.9165494748,-10324.4124312345,-7984.1262950971,-10980.5189793212,-21676.5328715284,-13965.5957054999,-5161.7803462285,-7196.3165965989,-4178.2289089396,-24094.5584226675,1990.4891878714,5656.5919052302,9302.4475750756
560310877155,20325,5,0,-241.9546513242,3512.0718432772,6616.0269674160,-2738.8147101792,-10324.7044559583,-7986.0974619825,-10980.1661161133,-21678.6013799883,-13964.5006127858,-5163.7515131138,-7190.8898038159,-4180.2852497027,-24094.9964597531,1992.7523794805,5657.8938487903,9298.9067753001
560310908529,20326,5,0,-237.7689636171,3517.0119281873,6625.0310630650,-2733.7651159977,-10318.5110982754,-7968.7341586161,-10978.4018000740,-21678.4188645359,-13959.5970309662,-5158.7870928100,-7192.3255920410,-4180.5651067296,-24088.0000340799,1999.3472711585,5660.4003943358,9294.1857089328
560310908529,20326,5,0,-233.0478972498,3522.2683732148,6636.7972258928,-2728.9345403590,-10312.8531192527,-7955.5687106537,-10977.4527197218,-21676.9952440076,-13954.0485612149,-5150.9754314497,-7197.0953291956,-4179.6281940742,-24081.5754901574,2004.2265175845,5664.0628710795,9292.7864237982
560310908529,20326,5,0,-234.7392071082,3523.3878013225,6635.4587792423,-2730.6501856110,-10312.4880883480,-7962.4434593587,-10979.5333958785,-21678.0416659344,-13954.4500952101,-5154.4188896506,-7204.7123074068,-4179.7012002552,-24080.8819314385,2003.4599526847,5664.2210511382,9294.0518642678
560310908529,20326,5,0,-242.6847131336,3517.0119281873,6620.9913877198,-2736.1378168781,-10318.5962721532,-7980.6098307153,-10984.1327852776,-21681.0714224433,-13961.3248439151,-5165.4549906690,-7205.2598537638,-4183.6800371163,-24087.0022829405,1997.0719118526,5660.2665496707,9292.9689392505
560310908529,20326,5,0,-247.4057795009,3510.3683657219,6610.6975162076,-2742.1729945023,-10326.3227596357,-7988.1294673519,-10986.7853431850,-21686.4252090454,-13966.9706552409,-5171.1373050853,-7201.8285632597,-4189.7760532246,-24094.5340872739,1992.8132179646,5654.4990613767,9289.0752762672
560310908529,20326,5,0,-242.7090485272,3514.5540534290,6622.4393436417,-2736.6975309320,-10325.4588531613,-7975.9252674385,-10985.9944428915,-21686.5955568009,-13967.6642139598,-5168.9836227476,-7204.1525933529,-4192.1244187114,-24093.0739636551,1991.7181252506,5651.9195096502,9283.4781357287
560310908529,20326,5,0,-234.3741762035,3521.7938330387,6635.2884314867,-2729.9931299826,-10318.9004645737,-7962.3582854809,-10984.1449529744,-21686.0115073534,-13964.9143144778,-5164.2747240772,-7208.1435979108,-4189.2285068675,-24091.5651692491,1994.9303972118,5655.6428248780,9282.2491983495
560310908529,20326,5,0,-232.2569969563,3522.0250192783,6637.6002938831,-2730.4555024618,-10316.6007698742,-7965.5583897453,-10985.6659150773,-21685.5734702678,-13964.1234141843,-5163.6785069328,-7212.4874656766,-4187.1599984076,-24092.0032063347,1992.0588207616,5654.5477321640,9282.7967447066
560310938599,20327,5,0,-237.7446282235,3515.3692891162,6627.0387330408,-2737.0503941399,-10320.0563957719,-7979.7580919377,-10985.4833996250,-21685.8533272947,-13965.3888546539,-5168.4969148747,-7209.1778521408,-4187.1599984076,-24096.1280555577,1986.1209847120,5650.5810629997,9283.3564587604
560310938599,20327,5,0,-244.5220353538,3508.6040496826,6613.6542665355,-2744.0103167226,-10323.3051708236,-7987.7766041440,-10986.1161198597,-21687.9705065419,-13969.0148283072,-5172.8651180342,-7201.7920601693,-4189.9220655864,-24098.8901227365,1982.7018619048,5648.5733930239,9280.9107516990
560310938599,20327,5,0,-241.8329743560,3509.4679561570,6620.9670523261,-2739.1919087807,-10320.8594637622,-7974.2582929737,-10984.7655055124,-21689.0169284687,-13966.4109411870,-5167.7790207622,-7200.3684396410,-4191.0658290878,-24097.9410423843,1986.0358108342,5651.2746217186,9277.1996041680
560310938599,20327,5,0,-235.6761197636,3515.0650966956,6635.0815806407,-2733.3635820025,-10314.5200937175,-7958.2577716516,-10982.7700032334,-21687.2647801262,-13960.7164590739,-5157.3634722817,-7203.1305068198,-4187.7683832488,-24092.0762125156,1991.1827465903,5657.4801470983,9277.6863120409
560310938599,20327,5,0,-230.6021901884,3520.0295169994,6639.0360821082,-2730.7231917919,-10310.5655922500,-7957.7710637787,-10981.0300225878,-21683.5292972016,-13957.9178888046,-5155.3071315186,-7206.5861327175,-4183.6070309353,-24089.6548408479,1993.2755904439,5660.1083696120,9281.7624904766
560310938599,20327,5,0,-234.6662009273,3516.6103941921,6628.5961982341,-2735.5902705211,-10311.6363495704,-7971.2407041616,-10979.5455635754,-21681.7163103749,-13959.6822048440,-5158.5924096608,-7202.6924697342,-4181.2099946612,-24090.5065796255,1988.6883687416,5656.3242159001,9283.2347817922
560310938599,20327,5,0,-241.9789867178,3510.6238873552,6618.9107115631,-2741.8079635976,-10316.2235712727,-7980.1717936297,-10978.0732722598,-21680.1223420911,-13962.9796506830,-5163.0214513044,-7195.6473732737,-4180.7962929692,-24095.8725339244,1987.1552389419,5654.6329060417,9284.1716944476
560310938599,20327,5,0,-238.5963670011,3515.0894320892,6625.2135785173,-2736.1499845750,-10314.3375782651,-7968.8923386748,-10974.1309384892,-21679.3436094945,-13960.5826144089,-5160.0890363701,-7194.0899080803,-4179.4091755314,-24093.7066838899,1990.1728277540,5657.2489608587,9279.9495036500
560311018478,20328,5,0,-232.1839907754,3521.3436282562,6639.2064298637,-2728.9953788431,-10308.4727483965,-7952.1739232401,-10973.1210196528,-21677.0439147949,-13955.2409955036,-5152.3138781002,-7195.9272303006,-4177.1581516192,-24088.3163941973,1993.8474721946,5660.9844437833,9279.3167834152
560311018478,20328,5,0,-226.1853162417,3526.3567193473,6646.1420170528,-2725.2112251311,-10305.9053643668,-7949.9350670247,-10972.6464794768,-21675.2309279683,-13952.8926300168,-5149.7586617674,-7200.7091351520,-4175.2113201275,-24087.4038169356,1993.1295780820,5663.0772876368,9280.0711806182
560311018478,20328,5,0,-228.2051539143,3522.1466962466,6636.7728904991,-2731.0273842125,-10308.1563882791,-7965.1325203565,-10974.4107955161,-21675.1092510001,-13956.1535727653,-5157.1809568294,-7200.9159859980,-4176.3672513257,-24090.4944119286,1991.1340758031,5660.3395558517,9280.1320191023
560311018478,20328,5,0,-234.2524992353,3515.3692891162,6622.8043745464,-2737.8534621302,-10314.4714229302,-7979.0767009156,-10976.2724531300,-21678.6013799883,-13960.3514281692,-5164.6275872850,-7195.6230378800,-4179.8958834043,-24095.9090370149,1987.7392883895,5655.3751355479,9277.9174982806
560311018478,20328,5,0,-238.4138515487,3513.6171407737,6623.8751318668,-2738.5105177586,-10317.6106887105,-7974.6963300594,-10978.4018000740,-21681.7649811622,-13962.9553152893,-5165.3454813976,-7195.5378640023,-4184.5561112875,-24098.4399179540,1986.2061585898,5654.1218627752,9273.0017487641
560311018478,20328,5,0,-234.4715177781,3516.5495557080,6633.8283078680,-2734.3613331420,-10315.9680496394,-7961.1415157986,-10978.0976076534,-21681.5094595289,-13960.8624714358,-5162.0237001649,-7201.2688492059,-4184.5926143780,-24094.5340872739,1991.3165912554,5657.1394515872,9271.8336498691
560311018478,20328,5,0,-227.6211044668,3524.2152047065,6642.6498880646,-2728.6303479384,-10311.4051633308,-7957.9049084437,-10975.9439253158,-21678.4675353232,-13957.3703424476,-5157.3756399785,-7203.4468669372,-4179.9445541916,-24087.7810155371,1994.7478817595,5662.5540766735,9275.3866173414
560311018478,20328,5,0,-228.8500418459,3522.9254288432,6636.7120520150,-2730.9787134252,-10311.2713186657,-7968.1866122591,-10974.4229632129,-21675.7176358412,-13955.8858834352,-5157.1931245262,-7198.4946143302,-4175.2721586116,-24086.7954320945,1997.9236506303,5664.6469205270,9282.5290553765
560311032035,20329,5,0,-234.0091452988,3516.3670402557,6624.1428211969,-2737.0868972303,-10312.9626285241,-7977.2758817858,-10970.3589524740,-21673.8559782273,-13955.1193185354,-5159.0912852306,-7188.8577984465,-4172.9846316089,-24086.3208919184,1998.6537124396,5664.7442621016,9284.9504270442
560311032035,20329,5,0,-238.0974914313,3515.5518045685,6621.8066234069,-2737.6709466778,-10311.0766355166,-7970.1577791444,-10968.3269471046,-21673.3936057480,-13952.6006052930,-5157.4729815531,-7183.5405149349,-4174.3717490467,-24087.1117922119,1997.9844891144,5664.1845480477,9281.4461303592
560311032035,20329,5,0,-234.2646669321,3517.3891267888,6635.4344438486,-2732.8890418264,-10304.8102716528,-7950.4582779881,-10966.6234695494,-21672.0429914007,-13946.2125644610,-5146.6558990775,-7184.7086138299,-4174.3717490467,-24084.8486006028,2001.4401150121,5667.3359815249,9280.0711806182
560311032035,20329,5,0,-225.0780558308,3523.2904597479,6646.4705448670,-2727.7786091608,-10297.8503490700,-7941.2229960995,-10965.4188675639,-21671.0087371707,-13942.0998829348,-5141.3872863532,-7189.0281462020,-4171.2933217505,-24079.4218078198,2005.1999333304,5673.2494821808,9282.1031859877
560311032035,20329,5,0,-224.5183417769,3521.7694976450,6641.3601122014,-2728.1071369750,-10297.6313305272,-7951.5777060958,-10965.4432029576,-21670.5463646915,-13942.1242183285,-5143.0664285148,-7190.2449158843,-4169.1761425033,-24078.6065721326,2007.0980940348,5674.2837364108,9284.8895885601
