timestamp,sequence,battery,flags,EEG-ch1,EEG-ch2,EEG-ch3,EEG-ch4,EEG-ch5,EEG-ch6,EEG-ch7,EEG-ch8,EEG-ch9,EEG-ch10,EEG-ch11,EEG-ch12,EEG-ch13,EEG-ch14,EEG-ch15,EEG-ch16
561070832174,36485,-2,0,6551.1001371688,8451.7065486092,13395.7581278879,745.2957657988,-6920.5235804101,-4342.0791143573,-7127.1554078573,-21007.9787695918,-9604.0847793164,-3448.6659751328,-5309.6300303240,-543.9203833792,-22320.2162011588,8926.8551095450,11395.6321241327,14360.0115980156
561070832174,36485,-2,0,6555.5535142060,8459.3721976076,13402.8883982261,753.8983274527,-6914.9751106589,-4331.2741995785,-7120.6943608444,-21006.1779504620,-9600.6534888123,-3444.8453183304,-5303.4245049443,-543.9568864696,-22316.0913519358,8930.4445801078,11395.8268072819,14354.6821468071
561070832174,36485,-2,0,6558.7779538641,8464.3244502145,13412.9510834987,759.8604988959,-6911.8601802722,-4317.9505715574,-7121.0715594459,-21008.5993221298,-9597.0640182495,-3442.0710834548,-5305.1279824995,-548.1912449640,-22314.8015760726,8930.0308784158,11396.0093227342,14348.9268262099
561070832174,36485,-2,0,6558.7536184704,8461.0878428596,13415.5062998315,757.7189842551,-6910.5339013185,-4317.5733729559,-7126.1941598083,-21014.3424750302,-9595.9567578386,-3441.3166862517,-5311.7228741776,-552.5594481234,-22314.5338867425,8930.0430461127,11394.7438822646,14348.5617953052
561070832174,36485,-2,0,6553.3024902937,8451.6700455187,13402.2921810818,746.4516969970,-6911.8358448786,-4330.4954669819,-7131.3410955644,-21017.7494301406,-9595.9202547482,-3445.2711877192,-5316.9063130241,-552.6932927885,-22314.5947252266,8929.5806736334,11393.4662740982,14352.1756012616
561070832174,36485,-2,0,6549.0072933152,8447.6668732639,13390.2704966207,739.7594637444,-6913.5271547369,-4338.8425070024,-7132.8620576673,-21017.8102686247,-9595.7620746895,-3446.6339697634,-5315.7017110387,-552.5472804266,-22313.3171170602,8930.2255615650,11394.1598328171,14353.3437001566
561070832174,36485,-2,0,6551.7328574036,8451.7308840028,13396.8532206020,744.2250084784,-6913.1012853481,-4333.4278819162,-7129.8079657647,-21018.4429888595,-9596.1636086846,-3446.0255849222,-5311.8323834490,-554.2629256787,-22312.7817384000,8930.6635986506,11393.4419387046,14351.2873593935
561070832174,36485,-2,0,6553.6188504111,8454.5659573626,13408.2300171314,749.8586521074,-6913.6609994020,-4323.7788983356,-7128.6398668697,-21019.1852183657,-9598.9743466507,-3445.5875478366,-5311.4673525443,-555.8568939625,-22313.8403280236,8929.7510213889,11391.7141257557,14347.0773362928
561070865906,36486,-2,0,6553.3511610810,8454.4321126975,13408.0475016791,750.9537448215,-6917.1287929965,-4325.0443388052,-7131.4871079263,-21019.4650753927,-9601.4078860153,-3448.5929689519,-5318.4516105207,-557.4751976399,-22316.9309230166,8926.6239233054,11390.6312007385,14344.5099522631
561070865906,36486,-2,0,6548.3380699900,8447.1436623006,13397.8996425287,743.8599775737,-6920.3288972610,-4336.2994583664,-7133.7259641417,-21018.0171194707,-9603.7562515021,-3449.7854032405,-5320.1915911663,-555.2850122118,-22317.1499415594,8927.8041898972,11392.2130013254,14350.3747821318
561070865906,36486,-2,0,6543.9211960433,8444.8074645106,13386.4620075152,738.6278679399,-6920.3045618673,-4342.3468036874,-7130.1243258821,-21013.1378730447,-9601.3227121375,-3447.8385717488,-5313.0369854344,-549.7852132478,-22312.4532105858,8932.1602253598,11395.7172980104,14357.3347047145
561070865906,36486,-2,0,6547.5593373933,8451.4266915822,13389.6256086891,745.4417781607,-6914.3058873336,-4332.4057953831,-7123.9918066834,-21009.1225330932,-9594.8616651246,-3443.3243562275,-5304.8967962599,-546.4147612279,-22305.9191573919,8939.0593094585,11400.7060537079,14360.9850137614
561070865906,36486,-2,0,6553.1929810223,8458.4839557395,13405.0299128670,754.0078367241,-6909.3658024235,-4317.9019007701,-7120.1833175778,-21009.6214086629,-9589.8729094272,-3436.1819181925,-5300.3825807386,-546.9866429785,-22302.7433885211,8942.4662645689,11404.8065675372,14359.8290825632
561070865906,36486,-2,0,6556.3809175900,8459.1288436712,13412.9632511955,756.0641774871,-6909.1102807902,-4314.5436164470,-7123.6024403850,-21011.0450291912,-9589.9337479113,-3435.4518563831,-5305.1766532868,-548.7022882306,-22302.8042270052,8940.3125822312,11404.8795737181,14357.7970771938
561070865906,36486,-2,0,6555.0789740299,8455.4176961402,13406.2588502461,752.4017007434,-6908.7330821887,-4323.5842151864,-7125.5857749672,-21011.0693645848,-9592.6471443028,-3440.1242519631,-5311.6863710871,-549.0551514384,-22306.7587284726,8937.0394717858,11401.5942955759,14357.2616985336
561070865906,36486,-2,0,6550.6255969927,8448.8349721589,13395.6972894038,743.8356421801,-6909.7673364187,-4335.3260426206,-7125.8169612068,-21012.1887926925,-9593.6692308359,-3443.0931699879,-5311.5403587252,-548.9334744702,-22309.3747832896,8934.6059324213,11398.7470545194,14359.2450331157
561070898522,36487,-2,0,6550.3457399658,8449.3825185160,13395.6851217070,743.9938222388,-6910.2905473820,-4333.4643850067,-7125.1599055784,-21013.2838854066,-9594.8738328214,-3445.1251753573,-5310.5061044953,-552.8393051504,-22312.1733535589,8930.2864000491,11395.0602423820,14354.0494265723
561070898522,36487,-2,0,6554.3002414332,8452.4609458122,13403.8739816688,749.3841119314,-6911.6411617294,-4323.6937244579,-7126.5470230162,-21017.8224363216,-9596.6868196480,-3447.3518638759,-5313.5236933074,-557.6820484859,-22314.5582221361,8926.3197308848,11391.0814055209,14343.7677227569
561070898522,36487,-2,0,6552.7306085431,8452.8138090200,13407.9136570140,750.1385091344,-6914.1112041844,-4322.4769547756,-7129.8931396425,-21020.6940127718,-9599.1568621031,-3448.9458321597,-5318.6341259730,-561.3688606233,-22317.8921710656,8923.9226946107,11387.1147363566,14340.1782521942
561070898522,36487,-2,0,6551.3313234084,8449.9787356603,13405.3584406812,746.5855416621,-6915.8025140428,-4330.9091686739,-7131.5236110168,-21019.7449324196,-9600.6291534186,-3449.4933785168,-5322.7711428928,-557.3535206717,-22317.2472831340,8925.3706505326,11389.1710771197,14344.2787660235
561070898522,36487,-2,0,6549.7616905183,8448.5551151320,13392.6310298044,740.9762334267,-6915.6199985905,-4338.9155131834,-7128.1166559064,-21014.5371581794,-9600.6169857218,-3449.5420493041,-5317.1253315670,-550.6856228127,-22316.5172213246,8928.2543946797,11391.9939827826,14350.3139436477
561070898522,36487,-2,0,6551.0514663815,8450.8548098316,13393.2880854328,744.2493438721,-6913.4541485560,-4335.9587628554,-7123.8701297151,-21011.2640477340,-9598.4754710810,-3446.1107588000,-5309.5935272336,-549.0064806511,-22316.3103704786,8929.0574626700,11393.7948019124,14353.5140479121
561070898522,36487,-2,0,6556.0158866853,8455.8679009226,13407.1470921142,752.1340114133,-6909.7430010250,-4321.2723527901,-7120.9985532649,-21013.3203884971,-9596.8084966162,-3442.3144373912,-5307.6101926514,-552.6202866076,-22314.3635389870,8928.3517362543,11391.3612625478,14350.5938006746
561070898522,36487,-2,0,6554.8356200934,8457.3401922382,13413.1214312542,755.6626434920,-6909.3536347267,-4315.5413675865,-7122.6776954265,-21016.2406357346,-9596.9545089781,-3443.6893871322,-5313.7792149406,-554.6766273706,-22316.0183457549,8927.7676868068,11391.0327347336,14346.3716098771
561070928425,36488,-2,0,6552.6576023621,8453.8115601595,13406.7698935127,750.0655029534,-6911.1544538565,-4324.4237862672,-7127.3135879160,-21017.9562809866,-9598.1104401763,-3445.8065663794,-5320.1064172886,-556.0272417180,-22315.2396131582,8927.5486682640,11390.0958220782,14346.6636346008
561070928425,36488,-2,0,6550.1267214230,8450.0274064476,13396.7072082401,744.5048655054,-6910.4730628344,-4335.8370858872,-7129.5037733442,-21017.3235607518,-9596.4921364988,-3446.2811065555,-5319.1208338459,-554.2994287691,-22313.6578125712,8928.4977486161,11393.2715909490,14351.3360301808
561070928425,36488,-2,0,6550.3579076626,8451.1468345553,13394.4805197215,744.2858469625,-6909.7916718123,-4335.4477195888,-7125.8047935100,-21015.6444185903,-9594.1802741025,-3447.1693484236,-5314.9229784420,-552.8758082408,-22312.6722291286,8930.6514309538,11393.8434726997,14351.7618995696
561070928425,36488,-2,0,6555.9063774139,8458.6056327078,13405.2610991066,755.1516002254,-6907.0661077240,-4323.2313519786,-7123.9066328056,-21016.7516790012,-9593.8882493787,-3445.2590200224,-5312.3190913219,-555.7717200847,-22312.4653782826,8930.8582817998,11393.1134108903,14347.6978888308
561070928425,36488,-2,0,6557.7680350278,8459.7980669964,13414.9587534745,759.1304370865,-6909.0859453966,-4317.4030252004,-7126.0603151433,-21019.4164046054,-9596.2609502592,-3445.8552371667,-5315.1298292880,-558.3877749016,-22316.0183457549,8927.7676868068,11390.8137161908,14344.2665983267
561070928425,36488,-2,0,6554.8842908807,8459.6277192409,13410.4445379532,756.0641774871,-6911.9331864531,-4323.9735814848,-7126.2793336861,-21017.9684486834,-9599.7409115506,-3447.8020686584,-5319.7657217775,-554.8956459134,-22316.5415567183,8925.7478491342,11391.9939827826,14347.7222242244
561070928425,36488,-2,0,6553.4728380493,8457.3645276318,13401.8419762994,752.7545639513,-6912.4320620229,-4333.8659190018,-7123.5659372946,-21010.3149673818,-9598.8648373793,-3448.3009442281,-5314.8499722611,-547.5950278197,-22312.7695707032,8929.5076674524,11393.2837586459,14353.1976877947
561070928425,36488,-2,0,6555.7725327488,8459.6398869377,13401.2822622455,754.9204139858,-6911.7141679103,-4332.7951616814,-7118.5650139003,-21006.6038198508,-9595.5187207530,-3443.7137225259,-5306.1865721231,-543.8352095014,-22312.4045397985,8932.3914115995,11395.6199564359,14357.9552572525
561070961136,36489,-2,0,6562.2700828523,8466.8066603664,13413.3039467066,765.1169439234,-6907.7961695333,-4320.3111047411,-7114.9755433376,-21006.0076027065,-9593.1581875693,-3439.7835564521,-5302.0982259906,-544.7842898536,-22311.7474841700,8930.4567478046,11395.2549255312,14355.7894072180
561070961136,36489,-2,0,6568.0497388432,8472.6836579319,13423.4153027664,771.7970094792,-6906.7497476066,-4310.9419781874,-7116.4113315627,-21006.9080122714,-9594.1194356184,-3438.7736376158,-5305.1279824995,-546.2930842596,-22313.9863403855,8928.8141087335,11393.2959263427,14352.0782596870
561070961136,36489,-2,0,6563.9857281043,8468.0477654424,13421.0912726733,765.2872916789,-6908.8547591569,-4317.8288945892,-7122.0084721012,-21009.3293839392,-9596.4434657115,-3440.1120842663,-5312.5259421679,-547.6680340006,-22316.7484075643,8928.0962146210,11393.5149448855,14354.1711035406
561070961136,36489,-2,0,6557.7802027246,8460.6984765613,13409.4711222073,755.1272648318,-6909.8281749028,-4331.5662243023,-7125.3424210307,-21009.1955392741,-9597.3925460637,-3444.2734365797,-5315.8842264910,-547.1083199468,-22315.3734578233,8928.4004070416,11394.1233297266,14355.1688546800
561070961136,36489,-2,0,6554.6166015506,8457.1698444827,13400.3453495901,750.4183661613,-6909.7308333282,-4335.7154089189,-7125.2694148498,-21011.4708985800,-9596.6868196480,-3446.4757897047,-5314.3267612977,-548.0574002990,-22313.6091417840,8929.9578722349,11390.8745546749,14352.8934953742
561070961136,36489,-2,0,6553.8500366508,8456.5857950352,13403.9226524561,753.1439302496,-6912.9796083799,-4330.7996594025,-7126.9120539209,-21014.9751952650,-9597.9522601176,-3447.1085099395,-5313.5358610042,-553.5937023534,-22315.2152777646,8927.5365005671,11387.0417301757,14346.5662930262
561070961136,36489,-2,0,6552.7914470272,8458.8124835538,13409.5806314788,754.9812524699,-6914.2572165463,-4323.2921904627,-7129.2725871045,-21021.1198821606,-9601.0428551106,-3449.2743599740,-5320.1915911663,-558.8136442904,-22315.7993272121,8923.6793406743,11383.8659613049,14341.6140404193
561070961136,36489,-2,0,6551.5138388608,8454.8823174799,13406.5873780603,751.7324774182,-6916.1553772507,-4328.2687784633,-7133.5921194767,-21023.0788813491,-9602.5394818198,-3453.9224201603,-5326.4092842429,-559.6288799776,-22316.2130289041,8925.1637996867,11386.8592147233,14343.4878657300
561070990901,36490,-2,0,6547.0361264299,8448.2265873178,13394.6508674770,743.9451514515,-6919.6231708452,-4342.8821823476,-7136.5610375015,-21024.4538310901,-9603.6710776244,-3456.2586179503,-5329.2930283899,-557.3656883685,-22315.6046440629,8926.8429418482,11387.1512394471,14348.2089320973
561070990901,36490,-2,0,6544.3348977352,8446.5717805499,13387.2529078087,740.4651901601,-6919.3798169088,-4348.5523290671,-7135.8066402985,-21021.1928883415,-9604.3768040401,-3459.0085174323,-5325.8860732795,-555.8447262656,-22314.6555637107,8927.0862957847,11389.6942880831,14351.7497318728
561070990901,36490,-2,0,6546.2938969237,8451.8403932742,13392.0469803569,744.4075239308,-6919.6231708452,-4340.5459845576,-7132.4726913690,-21020.9130313146,-9604.5228164020,-3458.3392941070,-5321.2258453963,-557.1588375225,-22315.5194701852,8925.5166628945,11389.6699526894,14348.1967644005
561070990901,36490,-2,0,6551.2218141370,8455.4055284433,13403.6306277323,751.4161173008,-6918.6375874026,-4330.4954669819,-7133.6894610513,-21023.0788813491,-9605.0946981527,-3456.1247732853,-5321.5178701200,-560.3589417869,-22318.1841957894,8924.9447811438,11388.5870276722,14344.8993185615
561070990901,36490,-2,0,6551.0514663815,8456.3911118860,13407.6216322903,752.5842161958,-6918.8079351581,-4332.4057953831,-7135.1495846700,-21022.0811302096,-9603.6224068371,-3452.9368367177,-5325.0586698955,-558.1565886620,-22315.6898179407,8928.5220840098,11390.9475608559,14344.2544306299
561070990901,36490,-2,0,6547.9122006012,8450.4654435332,13395.5756124355,745.1862565274,-6918.4915750407,-4343.5149025824,-7137.3397700981,-21020.3776526544,-9602.6733264849,-3454.5794757888,-5327.0785075681,-555.8203908720,-22314.4852159552,8930.3837416237,11391.4586041224,14347.1138393833
561070990901,36490,-2,0,6545.5273320239,8447.8980595036,13387.9708019212,739.8568053190,-6918.8444382486,-4351.2778931555,-7139.5907940104,-21022.6165088698,-9604.0482762259,-3457.1225244247,-5325.3628623161,-559.2638490729,-22316.7727429579,8926.7699356673,11388.1611582834,14347.3936964102
561070990901,36490,-2,0,6544.5660839749,8448.2874258019,13390.4530120731,741.1709165759,-6921.1197975545,-4345.8145972820,-7139.0554153502,-21025.6827684692,-9607.3822251554,-3456.3924626154,-5324.7058066876,-563.6320522323,-22320.1796980683,8924.1903839408,11384.9610540190,14342.6604623461
561071020869,36491,-2,0,6544.5539162781,8449.6988786334,13397.1574130225,744.2371761752,-6924.0157093983,-4335.6302350412,-7139.3352723771,-21029.2844067288,-9609.8035968231,-3457.9377601119,-5327.8085693775,-568.1097646632,-22323.8178394184,8919.6518330259,11382.5640177448,14337.1241602916
561071020869,36491,-2,0,6544.2497238575,8448.9323137335,13400.7955543726,744.3101823562,-6924.8309450855,-4336.4211353347,-7143.9833325635,-21031.4502567633,-9613.2470550240,-3458.2297848356,-5333.9410885763,-570.9935088102,-22326.5190681131,8917.9970262579,11379.6437705073,14334.6541178366
561071020869,36491,-2,0,6541.1104580772,8444.6857875423,13393.0082284059,737.8491353432,-6927.2888198437,-4346.9096899960,-7146.1735179916,-21030.9757165872,-9613.6607567160,-3459.4830576084,-5335.0118458967,-569.1318511963,-22324.2437088072,8918.5324049182,11381.5419312117,14342.3197668350
561071020869,36491,-2,0,6539.5043220965,8444.3694274249,13384.4421698426,734.1744909027,-6923.9792063079,-4353.3342339185,-7142.4258673701,-21025.4272468359,-9609.2438827693,-3459.4830576084,-5328.1979356758,-561.6608853470,-22319.6808224986,8923.1439620140,11388.6722015500,14351.1170116380
561071020869,36491,-2,0,6542.8139356324,8448.7863013717,13391.1830738825,740.3921839792,-6919.6475062389,-4343.9772750617,-7136.7800560443,-21022.3001487524,-9606.5304863778,-3453.8494139794,-5318.9504860904,-559.0204951364,-22316.7484075643,8927.8771960782,11391.4707718192,14353.6235571835
561071020869,36491,-2,0,6546.8414432808,8452.8016413232,13404.5797080845,746.6950509335,-6918.4429042534,-4332.2354476276,-7134.6142060098,-21021.9594532414,-9604.6566610670,-3449.8219063310,-5317.9527349509,-560.8213142662,-22317.5271401609,8926.7334325768,11391.5559456970,14348.6104660925
561071020869,36491,-2,0,6548.3745730805,8453.1666722279,13407.8649862267,747.5711251047,-6918.1508795297,-4329.0840141504,-7137.1937577363,-21025.7557746501,-9607.0050265539,-3452.2067749083,-5324.8153159591,-562.0745870390,-22319.4983070463,8921.2214659160,11386.7010346646,14341.9912390208
561071020869,36491,-2,0,6543.2398050212,8446.7542960022,13398.4228534921,739.9906499840,-6921.5821700337,-4341.7992573304,-7141.3064392624,-21027.9337923814,-9608.7450071995,-3455.0783513585,-5330.7288166150,-562.8533196357,-22321.4451385379,8920.6860872558,11386.9930593884,14343.3905241554
561071082393,36492,-2,0,6539.8206822139,8441.7533726080,13388.0438081021,732.9333858267,-6922.7137658383,-4351.4969116983,-7142.3406934924,-21026.6926873055,-9607.1753743094,-3456.6723196423,-5329.4633761454,-562.2449347945,-22321.2504553888,8920.9051057986,11386.3116683663,14346.6392992072
561071082393,36492,-2,0,6544.9676179700,8444.9899799629,13390.6841983127,737.6787875877,-6920.1585495054,-4347.2868885975,-7137.8021425774,-21025.3664083518,-9604.4498102210,-3456.6723196423,-5325.3020238320,-561.8677361930,-22318.6344005718,8922.8641049871,11389.9254743227,14347.8195657990
561071082393,36492,-2,0,6551.4408326798,8451.5848716409,13404.0686648180,747.4859512270,-6916.9097744537,-4332.8925032560,-7134.3343489829,-21024.6241788456,-9602.7828357563,-3454.2874510650,-5323.3795277339,-562.7559780611,-22317.7339910069,8924.4459055741,11390.6190330416,14343.3296856713
561071082393,36492,-2,0,6552.8036147240,8453.4830323453,13412.2818601734,749.2989380536,-6914.8534336906,-4328.4391262188,-7134.4316905575,-21024.9770420535,-9603.1113635705,-3454.5916434856,-5326.3362780619,-563.3643629022,-22318.8655868115,8923.6915083711,11389.1832448165,14339.8497243800
561071082393,36492,-2,0,6548.6179270169,8449.0053199145,13404.7378881432,745.4904489480,-6915.5713278032,-4337.7717496820,-7136.3541866555,-21024.4903341805,-9604.7905057321,-3458.8503373736,-5331.4467107276,-560.7969788726,-22319.6078163177,8922.6572541411,11389.3292571784,14339.6185381403
561071082393,36492,-2,0,6543.8238544687,8442.4590990237,13390.6963660095,738.6157002430,-6915.1819615049,-4348.5523290671,-7134.9305661272,-21020.4384911385,-9603.5615683530,-3460.6876595939,-5327.8207370743,-557.2440114003,-22318.9020899019,8923.2413035886,11392.2495044159,14348.9754969972
561071082393,36492,-2,0,6543.5926682290,8443.9070549457,13390.7572044937,738.6157002430,-6915.6808370746,-4347.0922054484,-7133.9936534718,-21019.7814355101,-9603.5615683530,-3458.4731387721,-5322.5156212595,-556.1367509894,-22320.1796980683,8923.0587881363,11394.7073791741,14349.2553540241
561071082393,36492,-2,0,6542.1447123071,8443.9800611266,13395.5756124355,742.1686677153,-6917.2869730552,-4338.6599915501,-7135.4294416969,-21022.4096580238,-9605.7882568716,-3458.2176171388,-5323.9635771814,-560.3589417869,-22321.8101694426,8922.8884403808,11393.8313050029,14343.0863317349
561071089958,36493,-2,0,6544.2862269479,8441.9967265445,13399.6396231744,742.6675432851,-6918.8201028549,-4333.6347327622,-7140.6493836340,-21026.6318488214,-9607.4187282458,-3457.2685367866,-5330.0595932897,-563.9605800465,-22323.4649762105,8922.3530617206,11393.0282370126,14337.9393959788
561071089958,36493,-2,0,6543.4466558672,8441.0963169796,13399.3354307538,739.4796067175,-6919.2581399406,-4342.0426112669,-7143.6426370524,-21027.1915628752,-9607.8811007251,-3456.8913381851,-5335.1091874713,-563.9727477434,-22322.8565913694,8920.9659442827,11389.8403004450,14338.4869423358
561071089958,36493,-2,0,6545.5394997207,8439.9768888718,13392.8257129536,738.5791971526,-6914.8777690843,-4348.6618383385,-7139.3596077707,-21020.9860374955,-9604.0239408322,-3453.4478799842,-5329.4633761454,-558.1687563588,-22318.4397174227,8921.6595030016,11391.9696473890,14345.7632250359
561071089958,36493,-2,0,6548.4232438677,8445.3671785644,13396.2570034576,742.8743941311,-6910.2175412011,-4341.6045741812,-7131.9859834960,-21015.5105739252,-9598.9013404698,-3449.7002293628,-5319.2181754205,-554.2142548914,-22314.8624145567,8922.8397695935,11394.5126960250,14347.9169073736
561071089958,36493,-2,0,6554.3489122205,8451.1346668585,13408.6315511266,752.5355454085,-6910.7164167708,-4330.6049762533,-7128.5303575983,-21015.5227416220,-9597.7575769684,-3446.2811065555,-5316.0910773370,-555.7352169942,-22315.4221286106,8923.3629805569,11394.8655592328,14345.2278463757
561071089958,36493,-2,0,6553.2781549001,8449.9057294794,13414.9587534745,756.4535437855,-6910.7772552550,-4322.4404516851,-7129.1630778331,-21017.4209023264,-9598.6458188365,-3445.3198585065,-5317.6972133176,-555.6743785101,-22315.4342963074,8925.7965199214,11394.9872362011,14340.7501339449
561071089958,36493,-2,0,6551.1366402593,8447.2653392688,13410.6513887992,753.2291041274,-6910.4608951376,-4327.0033379937,-7130.7327107233,-21016.3136419155,-9598.1469432668,-3445.7578955921,-5322.6494659246,-555.4310245737,-22313.6334771776,8927.6581775354,11395.4374409835,14343.3661887618
561071089958,36493,-2,0,6546.1965553492,8441.9967265445,13400.9780698249,745.7703059749,-6909.6821625409,-4337.8812589534,-7131.3897663517,-21016.1067910695,-9597.3803783669,-3443.6893871322,-5320.2889327409,-552.3769326711,-22311.6501425955,8929.2886489096,11396.0093227342,14348.8051492416
561071118715,36494,-2,0,6546.2573938333,8440.9746400113,13395.7946309784,745.0037410751,-6909.3049639394,-4337.0173524790,-7129.4672702537,-21015.4375677443,-9595.4335468752,-3443.5920455576,-5315.7625495228,-551.5495292871,-22311.1025962384,8930.0065430222,11397.1530862356,14349.4378694764
561071118715,36494,-2,0,6549.9928767579,8446.3527620071,13405.6626331018,752.8640732227,-6908.6114052205,-4324.7401463846,-7127.4717679747,-21017.3965669328,-9597.3560429733,-3442.2292635135,-5312.9396438599,-553.6667085343,-22312.5870552508,8930.0430461127,11395.5956210422,14344.5099522631
561071118715,36494,-2,0,6551.0392986847,8447.2410038751,13415.4332936506,755.8573266412,-6913.1742915291,-4319.0334965747,-7129.4551025569,-21020.8035220432,-9600.0451039711,-3441.6087109755,-5317.5268655621,-556.4531111068,-22315.2152777646,8928.1205500146,11394.1354974235,14341.5897050256
561071118715,36494,-2,0,6549.2506472517,8444.1747442758,13412.3061955671,752.4138684403,-6916.8367682728,-4326.5287978176,-7132.3388467039,-21019.9274478719,-9602.6611587881,-3444.8088152399,-5323.6228816704,-555.2971799086,-22314.0106757791,8929.5320028461,11395.1210808661,14342.8794808889
561071118715,36494,-2,0,6546.2087230460,8439.2954978498,13399.1407476047,745.2714304052,-6919.2459722437,-4340.1687859561,-7132.4726913690,-21018.0292871676,-9603.0261896928,-3448.3861181059,-5322.5521243500,-551.1601629888,-22312.5627198572,8931.9412068170,11397.6519618053,14348.3914475497
561071118715,36494,-2,0,6544.0915437988,8438.5776037372,13392.4485143520,743.8721452706,-6921.9472009384,-4347.0557023579,-7131.0125677502,-21016.0702879791,-9603.7440838053,-3449.4812108199,-5317.2591762320,-551.5251938935,-22312.2828628303,8931.3084865822,11397.9439865290,14352.0660919902
561071118715,36494,-2,0,6546.7806047967,8442.8606330189,13400.9902375218,749.0920872076,-6923.9183678237,-4338.8546746992,-7130.2094997599,-21019.0513737007,-9606.4574801968,-3450.5884712308,-5315.9207295815,-554.5914534929,-22312.5262167667,8929.9943753254,11395.4009378930,14346.2134298184
561071118715,36494,-2,0,6549.4574980977,8446.7056252149,13408.4733710679,753.8253212717,-6924.4172433935,-4333.1480248893,-7132.2050020389,-21020.4993296226,-9608.1487900552,-3452.3162841797,-5319.2911816014,-556.7938066178,-22313.8281603268,8930.4202447142,11395.2427578344,14345.5928772804
561071192280,36495,-2,0,6546.3304000142,8440.0985658401,13405.2732668034,748.3133546109,-6926.9481243327,-4338.1854513740,-7138.1428380885,-21024.0644647917,-9610.8135156594,-3455.6380654124,-5326.9811659935,-558.3756072048,-22316.5050536278,8928.0962146210,11393.3445971300,14346.8826531436
561071192280,36495,-2,0,6539.1027881014,8432.3234075702,13393.7382902153,737.4232659544,-6928.7124403720,-4351.6185886665,-7142.1946811305,-21024.9892097503,-9611.9451114640,-3458.1324432611,-5330.4732949817,-556.4896141973,-22316.6145628992,8928.9357857018,11394.5126960250,14353.1733524011
561071192280,36495,-2,0,6535.1604543307,8426.7019316380,13381.6679349669,731.1690697874,-6929.4790052718,-4357.9336233176,-7142.8639044558,-21025.7801100438,-9611.5314097720,-3460.8458396526,-5326.5796319984,-554.8834782166,-22315.9575072708,8929.6050090270,11396.9584030864,14357.2495308368
561071192280,36495,-2,0,6536.9491057637,8428.7461047043,13387.1799016277,732.8117088585,-6928.7976142497,-4350.3288128033,-7142.7300597907,-21029.1505620637,-9610.8865218404,-3459.1301944005,-5324.1704280274,-559.3855260411,-22315.2152777646,8931.0286295553,11396.7758876340,14354.1711035406
561071192280,36495,-2,0,6541.3051412263,8432.2382336925,13398.2160026461,738.2141662479,-6929.1261420640,-4341.3125494575,-7144.7012266760,-21032.2168216631,-9610.6431679039,-3458.9963497355,-5327.1515137491,-562.7924811515,-22315.9696749676,8930.6149278633,11396.4108567294,14350.0705897112
561071192280,36495,-2,0,6541.6458367374,8431.9340412719,13398.0821579811,737.6301168004,-6929.2478190322,-4343.0525301032,-7146.3195303535,-21030.5255118047,-9611.1177080800,-3458.9720143418,-5331.0938475197,-560.3346063933,-22313.7794895395,8932.7077717169,11396.7637199372,14348.6348014861
561071192280,36495,-2,0,6538.4092293825,8430.9849609197,13390.9518876428,733.2740813378,-6929.0288004894,-4352.3121473854,-7143.8251525048,-21026.2181471294,-9608.4043116885,-3457.3172075739,-5329.1835191185,-555.2241737277,-22309.5816341356,8932.9024548660,11398.7227191257,14351.9200796283
561071192280,36495,-2,0,6540.3803962678,8432.6397676876,13387.0825600531,735.3790928881,-6927.5443414770,-4355.3175685007,-7138.2036765726,-21019.6232554514,-9604.2429593750,-3452.8759982335,-5320.0090757140,-548.2764188418,-22308.8880754167,8937.0029686954,11403.6019655517,14360.2914550425
561071201149,36496,-2,0,6545.3204811779,8437.9692188961,13392.6553651980,742.3876862582,-6924.9039512664,-4344.5369891156,-7133.1905854815,-21016.8246851821,-9603.2330405387,-3449.7854032405,-5314.4119351754,-547.3760092769,-22309.4477894705,8937.0394717858,11402.8719037423,14358.6731513651
561071201149,36496,-2,0,6548.6179270169,8443.3108378013,13405.8086454636,749.4692858091,-6923.7966908555,-4332.2962861117,-7132.4483559753,-21018.4429888595,-9602.1622832183,-3447.6438885997,-5314.1564135422,-550.0163994874,-22310.0318389180,8934.4112492721,11400.6573829206,14353.7452341518
561071201149,36496,-2,0,6547.3159834569,8440.6704475907,13408.4733710679,747.8996529190,-6924.0278770951,-4332.3449568990,-7136.3541866555,-21019.6110877545,-9602.6976618785,-3447.3153607855,-5319.8873987458,-552.5837835171,-22312.0881796811,8932.8659517756,11400.7425567983,14351.9565827188
561071201149,36496,-2,0,6544.7972702145,8436.9593000598,13398.0091518001,741.6332890551,-6923.8575293396,-4340.8136738877,-7137.3154347045,-21018.8810259452,-9603.1843697515,-3448.6538074360,-5322.4061119881,-550.3449273017,-22310.8470746051,8935.1656464751,11399.4527809351,14353.3437001566
561071201149,36496,-2,0,6543.9333637401,8436.8862938788,13390.8788814619,738.5913648494,-6921.0954621608,-4344.8655169298,-7134.6750444939,-21015.5835801062,-9599.9720977902,-3445.5875478366,-5315.5678663736,-546.5729412866,-22309.3261125023,8938.4995954046,11401.6064632727,14357.3225370177
561071201149,36496,-2,0,6548.6057593201,8443.3230054982,13400.1019956537,746.7193863271,-6914.8899367811,-4333.3792111289,-7127.2649171287,-21013.0040283797,-9594.2654479802,-3437.6177064176,-5306.1135659422,-544.6869482790,-22306.7708961695,8941.2008240993,11403.1030899820,14358.1864434921
561071201149,36496,-2,0,6554.7991170030,8451.1590022521,13414.6423933571,756.0763451840,-6909.0981130934,-4317.3543544131,-7122.2883291282,-21010.1324519295,-9589.5322139161,-3432.5924476297,-5303.0594740396,-544.3827558584,-22302.2323452545,8942.9286370481,11405.3906169847,14354.4996313548
561071201149,36496,-2,0,6558.2669105975,8453.5438708294,13422.2350361746,758.8992508469,-6906.7862506970,-4315.1520012882,-7122.7993723947,-21007.8814280172,-9588.7899844099,-3430.4631006857,-5304.6291069298,-542.4967628509,-22299.9691536454,8944.6564499970,11408.0431748921,14359.0381822697
561071223887,36497,-2,0,6555.2006509981,8447.4235193275,13416.1025169758,754.9569170763,-6909.9376841742,-4325.5918851622,-7123.6997819596,-21005.7520810732,-9589.6052200970,-3432.7506276884,-5307.2573294435,-540.0145526990,-22300.6018738802,8941.6875319722,11407.2644422954,14363.5402300942
561071223887,36497,-2,0,6552.4994223034,8444.3572597281,13404.7500558400,749.2746026599,-6912.2252111769,-4337.0660232663,-7122.4465091869,-21004.4866406036,-9592.1239333394,-3438.0192404127,-5305.2009886805,-539.6373540975,-22302.1715067704,8940.4707622899,11405.5122939529,14364.4771427496
561071223887,36497,-2,0,6552.1343913987,8445.2089985057,13403.1439198594,751.4282849976,-6914.4884027860,-4334.5351423271,-7121.1080625363,-21005.5939010145,-9593.7300693200,-3439.9417365108,-5303.3393310666,-543.7622033205,-22306.3206913870,8936.8569563335,11400.4748674682,14359.8169148664
561071223887,36497,-2,0,6553.8257012571,8448.6402890098,13413.2552759193,757.0010901425,-6914.0381980035,-4322.4039485946,-7120.1346467905,-21008.5384836457,-9593.6327277454,-3437.8002218699,-5302.9134616778,-545.3561716043,-22308.7298953580,8935.4090004116,11398.6253775511,14357.4928847732
561071223887,36497,-2,0,6555.5291788123,8453.3491876803,13422.2837069619,761.4666348765,-6910.5339013185,-4316.1497524276,-7119.6114358271,-21008.3681358901,-9592.0144240680,-3435.5613656545,-5306.0162243676,-544.8694637313,-22306.4788714457,8936.3824161574,11400.6330475269,14356.1179350322
561071223887,36497,-2,0,6556.4295883772,8451.4023561886,13418.4873855531,758.3152013994,-6906.9444307557,-4320.7978126140,-7119.6114358271,-21006.0441057970,-9588.7899844099,-3433.8335527056,-5306.9288016293,-539.5886833102,-22302.5852084624,8939.0714771553,11403.0787545883,14362.7736651944
561071223887,36497,-2,0,6557.0623086120,8448.8228044621,13412.4400402321,755.1029294381,-6902.7952461391,-4326.7478163604,-7114.3549907996,-21001.0066793123,-9584.9084891234,-3430.9984793459,-5301.4776734527,-534.5512568255,-22299.8961474645,8941.2494948866,11406.9602498748,14369.3320537819
561071223887,36497,-2,0,6560.4449283288,8454.4199450007,13415.3237843792,760.0795174387,-6899.3639556350,-4320.8464834013,-7109.8407752783,-20997.7700719574,-9580.7349691131,-3428.4189276194,-5294.3717385081,-532.0812143704,-22296.1606645399,8945.7758781047,11411.0972667946,14368.5533211853
561071243740,36498,-2,0,6564.6306160359,8459.6033838472,13427.1142826006,768.9741038163,-6896.1273482801,-4307.0848182945,-7106.4094847742,-20997.4780472336,-9580.4429443894,-3426.8979655166,-5292.8994471925,-533.2736486591,-22296.9028940461,8947.1629955425,11410.9147513423,14364.9760183193
561071243740,36498,-2,0,6564.2777528280,8460.6011349867,13433.3319756771,769.9596872589,-6900.6415638015,-4308.8247989402,-7111.5685882272,-20999.1085186079,-9583.4970362919,-3428.7717908273,-5300.4799223132,-538.6761060485,-22299.7623027994,8940.8357931946,11405.1959338355,14357.5537232573
561071243740,36498,-2,0,6557.9748858738,8453.7872247659,13421.8213344826,761.8438334780,-6908.2950451031,-4322.1240915677,-7117.8957905751,-21002.7466599579,-9590.3839526937,-3436.2792597671,-5310.5061044953,-540.1849004545,-22305.8583189077,8936.6987762748,11402.6528851995,14357.1643569590
561071243740,36498,-2,0,6552.1343913987,8447.1801653910,13406.1371732779,752.0488375356,-6910.7407521645,-4335.4355518920,-7120.2319883651,-21002.4059644469,-9592.8053243615,-3440.1120842663,-5311.3213401824,-539.5400125229,-22306.7587284726,8932.1115545726,11398.1021665877,14359.2206977221
561071243740,36498,-2,0,6552.2925714574,8449.9787356603,13406.4657010921,752.8032347386,-6908.5018959491,-4332.0529321752,-7118.6988585654,-21005.2532055035,-9591.9292501902,-3438.5181159825,-5306.7827892675,-541.0853100194,-22308.9854169912,8932.2697346313,11397.5302848371,14354.0372588755
561071243740,36498,-2,0,6557.0014701279,8455.1500068101,13418.8037456705,760.1160205292,-6906.0561888877,-4317.2205097481,-7117.0075487070,-21006.9445153619,-9588.8873259845,-3435.6830426227,-5305.2983302551,-543.7743710173,-22307.7808150058,8933.4986720104,11398.6375452480,14355.3026993451
561071243740,36498,-2,0,6560.2380774828,8456.6222981256,13427.0169410260,763.9245096348,-6902.1138551170,-4308.6666188815,-7117.1778964625,-21008.9643530345,-9585.9549110502,-3432.6897892043,-5309.0216454829,-545.0641468805,-22305.1769278857,8933.8515352182,11400.7547244951,14353.8669111200
561071243740,36498,-2,0,6556.1740667440,8453.4830323453,13422.1741976905,759.2886171452,-6903.0142646819,-4316.2592616990,-7122.6898631233,-21010.1811227168,-9586.3077742580,-3433.7118757374,-5315.5922017673,-545.7333702058,-22303.4004441495,8933.0362995311,11399.4041101478,14355.2783639514
561071271166,36499,-2,0,6550.5647585086,8445.7443771659,13405.6504654049,749.5301242932,-6906.6037352447,-4330.5563054660,-7125.3059179403,-21010.3514704723,-9587.4028669721,-3438.0800788968,-5315.8963941878,-544.6017744012,-22302.8407300957,8939.0471417616,11400.9007368570,14362.2504542310
561071271166,36499,-2,0,6550.3214045721,8445.6592032882,13403.4481122800,748.0334975840,-6906.8470891812,-4331.7122366642,-7123.0062232407,-21008.6114898266,-9587.0743391579,-3437.9584019286,-5310.4452660112,-543.5796878681,-22300.9182339976,8942.4784322657,11402.9205745296,14362.0557710818
561071271166,36499,-2,0,6553.7526950762,8451.1468345553,13414.3503686333,754.7013954430,-6906.0561888877,-4317.5733729559,-7120.5118453920,-21010.1932904136,-9586.6241343754,-3434.9651485102,-5305.8337089153,-545.1736561519,-22301.1615879341,8943.0138109259,11401.6916371505,14357.2130277463
561071271166,36499,-2,0,6557.6463580595,8453.0328275629,13424.8754263852,759.6171449594,-6905.6546548925,-4310.1754132876,-7120.0373052159,-21009.0130238218,-9585.6385509328,-3432.7749630820,-5307.3668387150,-546.6702828611,-22298.5820362076,8942.8312954736,11401.6551340600,14352.2486074425
561071271166,36499,-2,0,6560.0190589400,8454.6267958467,13423.5856505220,758.7897415755,-6903.8538357627,-4314.7869703835,-7121.6434411965,-21006.3117951271,-9585.8332340819,-3433.2130001677,-5309.1554901479,-542.2169058239,-22295.9173106034,8944.9484747208,11404.8187352340,14351.6767256919
561071271166,36499,-2,0,6554.0690551936,8449.7353817238,13411.7464815132,751.6838066309,-6906.2508720368,-4327.8064059840,-7122.0449751917,-21003.4767217673,-9584.6894705806,-3432.7992984757,-5308.2915836735,-538.8221184103,-22296.7568816842,8941.1764887056,11403.1760961629,14357.9430895557
561071271166,36499,-2,0,6548.6057593201,8445.7443771659,13403.9469878497,746.4395293002,-6910.0350257488,-4333.5982296717,-7124.1499867421,-21006.3969690048,-9587.7800655736,-3434.3689313658,-5307.5493541673,-540.9392976575,-22300.3828553374,8939.4608434536,11402.1905127202,14358.5758097905
561071271166,36499,-2,0,6549.9928767579,8448.2387550146,13408.8627373662,747.7171374666,-6911.9210187563,-4326.1394315193,-7126.0116443560,-21009.4753963010,-9590.4326234810,-3436.6321229749,-5307.4033418054,-545.4291777852,-22302.8285623988,8937.4896765683,11399.3311039669,14353.2950293693
561071306262,36500,-2,0,6550.0780506357,8447.2045007847,13415.4211259538,749.7734782297,-6914.0381980035,-4319.3985274794,-7128.6033637793,-21013.3690592844,-9593.5962246550,-3436.9484830923,-5309.9828935319,-548.7387913210,-22304.7632261937,8935.1899818688,11396.9462353896,14348.8659877258
561071306262,36500,-2,0,6546.2087230460,8441.4126770970,13412.9510834987,743.4462758818,-6916.0458679793,-4325.2146865607,-7131.8764742246,-21013.5880778272,-9595.2997022102,-3438.4451098015,-5314.2902582072,-547.3030030959,-22305.5054556999,8935.1413110815,11398.8322283971,14348.2576028846
561071306262,36500,-2,0,6542.2298861849,8437.3973371454,13400.7347158885,738.9928988446,-6915.8998556174,-4336.9930170853,-7129.0779039554,-21009.2077069709,-9595.2753668165,-3441.0368292248,-5313.9373949993,-541.8640426161,-22302.9867424575,8937.4775088715,11401.7646433314,14353.5383833058
561071306262,36500,-2,0,6540.6480855979,8435.0854747490,13393.4340977947,736.9243903847,-6915.6930047714,-4340.0592766847,-7125.5979426640,-21007.3703847507,-9593.7787401073,-3440.8299783788,-5308.2185774926,-539.9172111244,-22302.0254944085,8938.7429493411,11403.5897978549,14357.4077108955
561071306262,36500,-2,0,6544.5417485812,8441.7047018207,13402.1096656295,744.4318593244,-6913.8435148543,-4330.4832992851,-7121.7164473775,-21007.9666018950,-9593.1338521757,-3440.2337612345,-5305.5295164947,-542.3264150953,-22302.0254944085,8938.6091046760,11402.4338666567,14350.6668068556
561071306262,36500,-2,0,6548.5084177455,8448.5551151320,13412.2088539925,751.1727633643,-6912.9917760767,-4322.6351348343,-7123.6876142628,-21008.3072974060,-9593.3285353249,-3441.8277295183,-5309.5570241431,-545.7577055994,-22303.8628166288,8934.3382430912,11398.3333528274,14346.5176222389
561071306262,36500,-2,0,6546.3182323174,8443.3351731950,13409.6536376597,747.5102866206,-6915.5226570159,-4327.2953627174,-7130.1608289726,-21014.2573011525,-9598.0009309049,-3444.8574860272,-5317.5877040462,-548.5441081719,-22308.1336782136,8931.6491820933,11397.0557446610,14347.9412427672
561071306262,36500,-2,0,6542.5097432118,8439.5631871799,13398.6053689445,737.4354336512,-6919.0756244882,-4341.2152078829,-7135.6849633302,-21014.8900213872,-9600.5074764504,-3448.7024782233,-5322.2966027167,-546.8162952230,-22309.2166032309,8930.2255615650,11394.5126960250,14351.9200796283
561071341128,36501,-2,0,6542.0717061262,8436.2049028567,13389.2849131781,732.4223425602,-6919.2703076374,-4348.0169504069,-7135.3321001224,-21013.7949286732,-9599.6922407633,-3450.6614774118,-5320.1307526822,-545.5143516630,-22307.8659888835,8931.6248466996,11396.6785460595,14353.4045386407
561071341128,36501,-2,0,6542.4489047277,8437.5798525977,13393.3367562201,735.7076207024,-6919.7326801166,-4339.9132643228,-7133.9206472909,-21014.7440090254,-9599.3515452522,-3447.6925593870,-5315.7868849164,-548.7509590179,-22306.7100576853,8933.5230074040,11396.4716952135,14349.9854158335
561071341128,36501,-2,0,6544.8702763954,8441.2788324319,13404.9204035956,741.6819598424,-6919.6840093294,-4330.2764484391,-7135.3929386065,-21017.7737655343,-9600.0572716680,-3445.5267093525,-5317.8675610732,-553.0583236932,-22307.9633304581,8932.2210638440,11394.2936774822,14344.8141446837
561071341128,36501,-2,0,6545.7706859603,8441.2179939478,13406.1250055810,741.8158045075,-6920.0368725372,-4330.9943425516,-7137.6682979124,-21018.9661998229,-9601.3957183185,-3446.8651560030,-5323.4403662181,-553.4963607788,-22307.4036164043,8930.0430461127,11394.8168884455,14342.3319345318
561071341128,36501,-2,0,6544.8946117891,8439.3685040307,13397.4007669590,736.9365580815,-6920.0977110213,-4342.0547789637,-7138.9459060788,-21015.8634371331,-9600.7751657805,-3447.5100439346,-5325.3385269224,-549.7730455510,-22306.5397099298,8930.7609402252,11396.4595275166,14344.7776415933
561071341128,36501,-2,0,6540.8671041407,8436.2779090377,13388.6035221560,731.6922807508,-6923.5776723127,-4349.9029434145,-7139.6881355850,-21014.5614935730,-9601.9310969787,-3448.7754844042,-5322.3574412008,-550.2354180303,-22308.6325537834,8931.6491820933,11395.5956210422,14349.4378694764
561071341128,36501,-2,0,6541.6215013437,8436.8011200011,13390.8423783714,736.2916701499,-6922.7381012319,-4344.1841259077,-7138.7998937169,-21018.3213118913,-9604.4254748274,-3450.3694526880,-5320.9216529757,-552.6811250917,-22310.6523914560,8931.7221882742,11392.2008336286,14343.4270272459
561071341128,36501,-2,0,6545.3083134811,8442.6051113856,13403.1925906467,742.5336986200,-6924.0278770951,-4333.0385156179,-7139.7124709786,-21021.3267330066,-9605.8247599620,-3449.4082046390,-5321.1041684281,-557.0371605543,-22313.0372600333,8928.1205500146,11390.2540021369,14336.6496201155
561071377788,36502,-2,0,6545.4056550557,8442.3739251460,13407.8041477426,744.0181576324,-6924.2712310316,-4333.0385156179,-7141.5619608957,-21021.3023976129,-9606.4453125000,-3448.4469565900,-5324.5841297194,-555.3336829991,-22312.5505521604,8929.5198351493,11391.0692378241,14338.8033024532
561071377788,36502,-2,0,6541.7066752215,8438.4802621626,13396.5733635750,737.2772535925,-6924.8431127823,-4345.2670509249,-7143.2654384509,-21019.9274478719,-9607.7715914537,-3451.4888807957,-5327.9424140426,-552.9366467250,-22312.1733535589,8929.7266859953,11393.2959263427,14344.5951261409
561071377788,36502,-2,0,6538.0685338714,8435.8398719520,13385.9752996422,733.7242861202,-6925.8773670122,-4354.9525375960,-7142.7908982748,-21017.8224363216,-9609.0857027106,-3454.7741589379,-5325.6548870398,-551.6590385585,-22314.3878743806,8927.3783205084,11391.7992996335,14346.9069885373
561071377788,36502,-2,0,6535.5376529323,8434.1120590032,13385.7076103121,731.7166161444,-6928.7124403720,-4351.8984456934,-7142.6692213066,-21020.9251990114,-9611.0812049895,-3456.2951210408,-5323.4281985212,-556.5261172877,-22318.1720280926,8924.1903839408,11388.1246551929,14342.6239592556
561071377788,36502,-2,0,6536.0608638956,8434.8542885094,13392.7040359853,733.8581307853,-6930.5619302891,-4343.8677657903,-7144.9202452188,-21025.9382901025,-9613.2227196304,-3459.3857160338,-5325.8617378858,-561.1498420804,-22321.2626230856,8921.7203414858,11385.5937742538,14333.7293728780
561071377788,36502,-2,0,6536.1582054702,8434.1485620937,13395.0889045626,732.7143672839,-6934.9179657517,-4345.8754357661,-7149.9698394004,-21029.4182513938,-9615.4980789363,-3462.4398079364,-5333.2475298574,-564.3012755576,-22320.4838904889,8921.9150246349,11386.1169852171,14332.7316217385
561071377788,36502,-2,0,6530.6949095967,8428.4540799805,13386.3281628501,725.0000474982,-6936.3172508863,-4356.6560151512,-7152.8170804569,-21029.5764314525,-9616.2524761393,-3463.7904222837,-5336.3624602440,-560.3589417869,-22317.9165064593,8926.2710600975,11388.6113630658,14342.4536115001
561071377788,36502,-2,0,6529.6606553668,8425.5338327430,13378.2488121597,722.2258126225,-6935.8670461039,-4363.7132793085,-7149.9090009162,-21024.9405389630,-9614.1717999826,-3464.8368442105,-5331.7995739354,-554.9564843976,-22313.9376695982,8928.3274008606,11390.1809959560,14348.2576028846
561071398553,36503,-2,0,6532.3010455774,8429.4883342105,13379.3682402674,726.0099663345,-6933.4578421329,-4358.8462005793,-7146.0761764170,-21022.5921734762,-9612.2614715814,-3464.8246765137,-5326.3119426683,-554.1047456200,-22313.2197754856,8930.3959093205,11393.5271125823,14351.0318377602
561071398553,36503,-2,0,6536.2555470448,8435.2436548077,13392.7162036822,732.6656964966,-6931.8882092428,-4345.3643924995,-7144.0198356539,-21023.5777569188,-9610.3024723929,-3458.9111758577,-5322.4791181690,-555.1268321531,-22312.4532105858,8930.3350708364,11393.1985847681,14348.7564784544
561071398553,36503,-2,0,6540.3438931773,8440.8529630431,13401.9393178739,738.9442280573,-6926.7047703962,-4336.6401538775,-7140.9900791450,-21021.7160993049,-9607.3700574585,-3455.0053451776,-5323.6107139736,-552.9123113313,-22311.6866456859,8931.1989773108,11395.1454162598,14347.0651685960
561071398553,36503,-2,0,6539.9058560917,8440.4635967448,13396.6950405433,736.5593594800,-6923.0179582588,-4340.7893384941,-7138.2280119662,-21016.6665051234,-9606.2871324413,-3452.3771226638,-5324.0487510592,-548.2520834481,-22310.1413481894,8933.5595104945,11397.7493033799,14349.9610804398
561071398553,36503,-2,0,6539.1757942823,8436.2900767345,13387.9099634371,732.1303178364,-6920.4749096228,-4347.6762548959,-7135.3686032128,-21012.9431898956,-9601.7607492232,-3451.2455268593,-5320.4592804964,-544.7842898536,-22309.6546403165,8935.4211681084,11399.7204702652,14355.6190594625
561071398553,36503,-2,0,6539.6625021552,8435.6695241965,13388.4818451878,732.5683549220,-6918.6740904931,-4343.7582565189,-7133.7016287481,-21014.0139472160,-9600.8603396583,-3451.1116821942,-5316.8941453273,-546.5607735897,-22309.6789757101,8934.0340506706,11400.1220042603,14353.8790788168
561071398553,36503,-2,0,6539.2853035537,8437.6041879914,13394.3710104501,735.9144715484,-6919.5988354516,-4336.0682721268,-7135.1617523668,-21017.0802068154,-9603.1843697515,-3452.5353027225,-5319.3276846919,-552.0605725537,-22312.6600614318,8932.6347655359,11398.3211851306,14345.7997281264
561071398553,36503,-2,0,6539.3339743410,8438.2977467103,13401.4891130915,737.0338996561,-6920.7425989530,-4332.1989445371,-7138.8607322010,-21020.9495344051,-9605.3015489986,-3452.6569796907,-5324.4867881448,-555.6378754196,-22314.2053589283,8930.6635986506,11396.6542106658,14342.9889901603
561071433620,36504,-2,0,6536.1825408639,8433.5158418589,13395.8919725529,730.7310327018,-6921.8133562734,-4338.7451654278,-7141.5741285925,-21022.5921734762,-9606.5061509841,-3454.5794757888,-5331.2641952752,-555.1268321531,-22312.8182414905,8930.5419216824,11395.4861117708,14346.6392992072
561071433620,36504,-2,0,6533.9680200421,8429.5005019073,13384.5151760235,726.4115003296,-6921.2171391290,-4349.0877077273,-7140.6493836340,-21018.1996349231,-9604.0361085291,-3453.3992091969,-5326.8838244190,-550.0042317906,-22307.7686473089,8932.9389579565,11398.1265019814,14351.7010610855
561071433620,36504,-2,0,6537.7156706636,8432.7979477463,13387.5205971388,731.4245914207,-6917.4694885076,-4342.3224682938,-7135.8674787826,-21015.7174247712,-9599.2298682840,-3448.3617827122,-5318.0744119191,-547.2056615213,-22306.0773374506,8934.8857894482,11396.8488938150,14352.5527998631
561071433620,36504,-2,0,6540.8427687471,8438.2125728325,13398.8487228809,740.3435131919,-6912.9796083799,-4327.6725613190,-7130.5866983614,-21014.9751952650,-9594.2532802834,-3441.3410216454,-5313.0734885249,-548.0817356926,-22303.1935933035,8935.2386526561,11397.2747632038,14347.1625101705
561071433620,36504,-2,0,6543.8238544687,8443.0188130776,13404.9934097765,745.5756228258,-6911.2274600374,-4319.6540491126,-7129.1387424395,-21014.7196736317,-9593.0608459948,-3438.7249668285,-5314.8256368674,-548.5076050814,-22301.1615879341,8936.0903914337,11396.3500182452,14343.3661887618
561071433620,36504,-2,0,6542.8139356324,8442.5077698110,13404.9812420797,744.2858469625,-6911.9818572404,-4324.7888171719,-7127.7759603953,-21011.4587308832,-9592.5011319409,-3437.6298741144,-5316.4804436353,-545.8550471740,-22298.7158808727,8939.6068558155,11397.5546202307,14345.0453309234
561071433620,36504,-2,0,6539.7233406393,8437.8232065342,13393.0812345868,737.2042474116,-6912.0426957245,-4334.8880055350,-7127.3987617938,-21009.9986072644,-9591.9170824934,-3437.5081971462,-5314.2415874199,-542.3385827922,-22296.4891923541,8942.4905999625,11399.6839671747,14352.5162967726
561071433620,36504,-2,0,6540.9157749280,8437.8840450183,13389.8567949288,737.9343092210,-6910.8745968295,-4335.5693965570,-7126.7173707717,-21008.1247819537,-9589.7634001557,-3438.4086067111,-5309.9342227446,-540.9879684448,-22296.1484968430,8943.1841586814,11401.2170969744,14354.9376684404
561071462448,36505,-2,0,6546.9509525522,8444.1990796694,13401.4282746074,744.4075239308,-6909.1832869712,-4323.4747059150,-7124.5636884341,-21007.8327572299,-9588.8629905908,-3436.4009367353,-5305.6146903725,-542.6792783032,-22298.3021791807,8940.1665698693,11403.1274253756,14352.6988122250
561071462448,36505,-2,0,6549.2993180390,8447.4721901148,13413.8514930636,749.9073228947,-6909.2684608489,-4317.2813482322,-7125.3545887275,-21011.2640477340,-9590.3231142096,-3435.1719993562,-5309.2163286320,-545.3926746947,-22300.1516690978,8938.2562414681,11400.0611657762,14348.1845967037
561071462448,36505,-2,0,6552.2560683670,8448.9809845208,13413.8879961541,749.7126397456,-6908.6235729173,-4321.8198991471,-7125.9751412655,-21009.0495269122,-9590.0675925763,-3437.4960294493,-5313.3411778550,-543.4093401126,-22299.7744704963,8939.1201479426,11399.3797747542,14349.2188509336
561071462448,36505,-2,0,6551.4408326798,8446.3770974007,13404.9934097765,745.6364613099,-6907.7840018365,-4333.2210310702,-7124.3203344976,-21005.7885841637,-9589.2523568892,-3437.9705696254,-5312.6232837425,-539.3574970706,-22297.6086204618,8941.5171842167,11397.8466449545,14353.1368493106
561071462448,36505,-2,0,6550.4309138435,8446.1459111611,13401.2092560646,744.2250084784,-6906.9809338462,-4335.0705209873,-7121.0107209618,-21004.4014667259,-9587.1108422483,-3438.1165819873,-5307.3303356245,-538.4205844152,-22296.5865339287,8942.8799662609,11399.7204702652,14354.1102650564
561071462448,36505,-2,0,6553.8013658635,8450.7574682570,13409.1060913027,750.1385091344,-6904.8150838117,-4323.4138674309,-7118.2243183893,-21005.0828577480,-9587.6218855149,-3438.0435758064,-5306.4420937564,-541.0731423226,-22298.9592348091,8940.9087993755,11398.7227191257,14348.9268262099
561071462448,36505,-2,0,6555.4683403282,8452.6312935677,13417.0029265407,753.9956690272,-6905.7154933766,-4315.5657029801,-7119.5505973430,-21007.3217139634,-9588.8143198036,-3438.4207744079,-5310.1532412874,-543.8230418046,-22298.1439991220,8936.7231116685,11394.4275221472,14342.7334685270
561071462448,36505,-2,0,6555.3101602695,8450.8791452252,13418.7915779737,753.0344209782,-6906.7619153034,-4321.0898373377,-7123.9066328056,-21009.1103653963,-9590.3717849969,-3439.7348856648,-5317.1861700511,-544.5287682203,-22298.4238561489,8937.8912105635,11396.5690367881,14345.4590326153
561071492218,36506,-2,0,6552.9861301764,8445.2941723835,13408.1205078600,745.3201011925,-6909.0251069125,-4335.3382103174,-7126.8025446495,-21009.4267255137,-9592.9148336329,-3443.6042132545,-5320.5687897678,-542.0100549780,-22296.7325462905,8938.0858937126,11397.4329432625,14349.6690557161
561071492218,36506,-2,0,6549.7251874278,8442.2400804809,13397.8631394383,741.9739845662,-6911.8723479690,-4341.7505865431,-7127.3014202192,-21010.9233522230,-9593.4137092026,-3446.6096343697,-5316.7603006623,-542.7036136969,-22298.3143468775,8938.6821108569,11396.8123907245,14351.3360301808
561071492218,36506,-2,0,6551.2826526211,8449.9300648730,13405.8816516446,747.8023113444,-6912.2860496610,-4334.5108069335,-7126.8025446495,-21011.4100600959,-9594.3627895548,-3446.0134172254,-5314.0225688771,-547.1448230372,-22301.2710972055,8938.2684091650,11397.9804896195,14348.2576028846
561071492218,36506,-2,0,6552.5480930907,8452.0959149075,13413.9853377287,752.0123344451,-6913.1134530450,-4327.1980211429,-7129.4916056473,-21015.7904309521,-9595.1780252420,-3446.8286529125,-5318.6462936698,-551.2331691697,-22303.0597486385,8936.0295529495,11392.9795662253,14340.0200721355
561071492218,36506,-2,0,6555.2249863918,8452.5096165995,13416.4553801837,753.2291041274,-6913.0526145609,-4328.0132568300,-7131.9251450119,-21015.6322508934,-9595.0685159705,-3447.4370377537,-5322.6738013182,-549.6635362796,-22304.1426736557,8937.1733164509,11394.0503235457,14343.3053502777
561071492218,36506,-2,0,6555.3466633600,8451.7308840028,13410.4688733468,750.7955647628,-6910.8015906486,-4336.2994583664,-7131.0247354470,-21012.1401219053,-9593.9734232565,-3446.4027835237,-5320.7756406138,-544.5774390076,-22301.9889913180,8938.0980614094,11395.7538011009,14350.5451298873
561071492218,36506,-2,0,6555.5656819028,8452.7651382328,13405.0664159574,750.0533352566,-6909.5239824822,-4340.6676615259,-7128.4208483269,-21008.0274403791,-9592.6228089091,-3446.4514543110,-5317.1618346574,-542.1317319462,-22299.7257997090,8939.2296572140,11396.4351921230,14354.5726375357
561071492218,36506,-2,0,6557.8897119960,8455.7705593480,13406.4170303048,753.1439302496,-6908.7087467951,-4332.0894352657,-7125.5736072704,-21007.6502417776,-9593.6692308359,-3446.7921498221,-5314.3145936009,-544.5287682203,-22299.5919550439,8936.9299625144,11397.0679123578,14349.8394034716
561071570032,36507,-2,0,6559.1064816783,8459.0801728839,13418.9984288197,757.7189842551,-6910.3027150789,-4323.8519045166,-7127.8733019699,-21012.1887926925,-9594.7643235500,-3445.0034983891,-5316.1154127307,-548.1060710862,-22300.7113831516,8935.5185096830,11394.7317145678,14344.7411385028
561071570032,36507,-2,0,6556.2470729249,8455.8070624385,13416.7595726043,754.4823769002,-6912.6875836562,-4328.0497599205,-7133.2635916625,-21016.2649711282,-9597.6115646065,-3446.9138267903,-5323.3916954308,-550.9898152333,-22303.5707919050,8930.2255615650,11393.0404047094,14340.7988047321
561071570032,36507,-2,0,6551.7206897068,8448.4212704670,13404.6040434782,745.8798152463,-6915.6443339841,-4341.6654126653,-7136.9990745871,-21015.9486110108,-9600.2762902108,-3450.6979805022,-5327.3826999887,-549.9068902160,-22304.5563753477,8929.7510213889,11394.0138204552,14344.9479893488
561071570032,36507,-2,0,6549.1533056771,8444.7222906328,13396.0988233989,741.7062952361,-6918.0778733487,-4351.4482409110,-7138.8607322010,-21015.4254000475,-9600.5683149345,-3452.2919487860,-5325.3628623161,-550.4544365731,-22306.5032068394,8930.4324124110,11393.1255785872,14348.0142489482
561071570032,36507,-2,0,6547.0847972172,8446.5352774594,13394.4683520247,740.2583393141,-6923.4681630413,-4351.8011041189,-7143.2045999668,-21021.3875714907,-9605.5814060256,-3457.0495182438,-5326.6526381793,-556.1610863830,-22309.3626155927,8928.9236180049,11389.5847788117,14341.1881710305
561071570032,36507,-2,0,6546.8414432808,8449.0661583986,13401.9636532676,744.5535362926,-6927.0576336041,-4344.4761506314,-7146.4412073217,-21026.4249979754,-9609.5724105835,-3460.6633242002,-5330.5828042531,-561.8920715866,-22310.3238636418,8925.7478491342,11382.9777194368,14331.5635228435
561071570032,36507,-2,0,6546.8292755839,8447.2653392688,13404.8717328083,742.8500587374,-6930.2090670812,-4346.3864790326,-7151.2231121731,-21027.6539353545,-9610.9960311118,-3460.8701750462,-5335.5715599505,-563.6320522323,-22309.3869509864,8928.0110407432,11384.8758801412,14334.1187391764
561071570032,36507,-2,0,6542.1325446103,8441.4978509747,13396.0623203085,735.5494406437,-6930.7444457414,-4356.8020275131,-7153.7539931123,-21028.8342019463,-9610.8865218404,-3462.7440003569,-5339.4895583275,-560.3954448774,-22307.2576040424,8930.5054185919,11388.2706675548,14339.8010535927
561071578647,36508,-2,0,6539.5529928838,8437.9935542897,13385.2817409233,730.4998464621,-6929.1626451544,-4363.7862854895,-7152.6710680950,-21025.6949361660,-9609.3290566470,-3463.5470683473,-5334.7928273539,-556.4166080163,-22304.8240646778,8931.4058281568,11391.3612625478,14345.4225295249
561071578647,36508,-2,0,6540.6845886884,8440.0012242655,13387.0582246595,732.2763301983,-6928.0553847435,-4357.5685924129,-7148.4975480848,-21024.3808249091,-9607.5282375172,-3463.0968635648,-5328.6481404583,-557.1953406130,-22306.6370515044,8930.3472385332,11392.0426535699,14345.5807095836
561071578647,36508,-2,0,6541.1104580772,8442.0575650286,13397.0235683575,736.4620179054,-6927.7998631103,-4346.7758453310,-7149.0694298355,-21027.0577182102,-9608.0879515711,-3461.7705846111,-5328.3196126441,-561.4905375915,-22308.9124108103,8929.6293444207,11389.9254743227,14338.5964516072
561071578647,36508,-2,0,6539.8328499108,8439.7091995417,13397.8874748319,735.5372729468,-6929.5155083623,-4345.7050880106,-7151.3691245350,-21028.9193758241,-9609.5359074930,-3464.2284593693,-5335.0483489871,-564.1674308925,-22311.5893041113,8929.7753567825,11389.1467417261,14331.7947090832
561071578647,36508,-2,0,6533.8828461643,8433.9417112477,13388.8590437893,726.9590466867,-6930.9147934969,-4356.5221704862,-7155.3236260024,-21029.9049592668,-9611.4462358942,-3464.4353102153,-5337.8225838628,-560.8456496599,-22312.0395088938,8928.6315932812,11389.0128970610,14334.9218071667
561071578647,36508,-2,0,6533.7855045897,8430.6807684991,13381.4854195146,722.5786758304,-6929.5520114528,-4363.0927267705,-7152.9874282124,-21025.5489238041,-9609.2073796788,-3463.2793790172,-5333.6003930652,-557.0979990384,-22311.1756024194,8928.5342517066,11388.3923445230,14338.4869423358
561071578647,36508,-2,0,6536.2798824385,8435.5843503188,13384.6976914758,727.6891084960,-6924.3564049094,-4355.5487547403,-7146.2465241725,-21021.3267330066,-9605.0338596685,-3460.1887840241,-5324.5476266290,-553.4598576883,-22306.7952315631,8933.2188149834,11393.1377462840,14343.4756980332
561071578647,36508,-2,0,6544.4322393098,8443.3473408918,13398.0456548906,738.8955572700,-6921.0954621608,-4341.6775803622,-7141.7323086512,-21020.5236650163,-9601.9676000692,-3455.1148544490,-5321.7247209660,-554.9321490039,-22307.0994239837,8933.5595104945,11392.9308954380,14340.8839786099
561071609868,36509,-2,0,6547.4254927283,8448.0075687750,13407.0984213269,742.8013879501,-6919.5379969675,-4333.9267574860,-7141.5497931989,-21022.5191672952,-9602.0527739469,-3453.1680229573,-5325.5453777684,-555.8447262656,-22307.7686473089,8932.2210638440,11392.4563552619,14339.7280474117
561071609868,36509,-2,0,6546.0383752905,8445.0143153565,13400.5522004361,738.7252095145,-6919.9516986595,-4343.5027348856,-7145.0054190966,-21022.4461611143,-9602.9045127245,-3455.2730345077,-5331.1060152165,-554.7983043389,-22307.7321442185,8932.2697346313,11393.2837586459,14342.2954314414
561071609868,36509,-2,0,6542.1933830944,8438.9182992482,13388.4453420973,733.6756153329,-6919.6718416325,-4351.9471164807,-7144.5673820110,-21019.5867523609,-9602.4178048516,-3455.9057547425,-5328.3804511282,-552.1822495219,-22305.9313250887,8934.8492863577,11394.0138204552,14346.7488084786
561071609868,36509,-2,0,6542.0595384293,8441.0233107986,13389.8567949288,734.3570063550,-6917.8831901996,-4348.4549874925,-7141.1360915069,-21019.7449324196,-9600.0207685775,-3452.6326442971,-5321.7855594501,-552.6446220012,-22305.9191573919,8936.0295529495,11393.4176033109,14346.9678270214
561071609868,36509,-2,0,6544.1280468893,8443.4081793759,13396.5125250909,739.2849235683,-6919.4771584834,-4338.8668423961,-7140.0288310960,-21019.8787770847,-9600.4466379663,-3451.3063653434,-5322.0775841739,-555.7717200847,-22305.5906295776,8934.5937647244,11391.8236350271,14341.6627112066
561071609868,36509,-2,0,6544.7607671240,8444.6614521487,13404.6040434782,742.3025123804,-6919.5258292707,-4331.4810504245,-7141.4037808370,-21023.3100675887,-9601.3348798344,-3451.3185330402,-5325.2168499542,-557.1345021289,-22306.3328590838,8932.9511256533,11392.6145353206,14339.3751842039
561071609868,36509,-2,0,6542.3637308499,8444.3450920313,13401.7568024216,739.2362527810,-6920.0977110213,-4338.5504822787,-7142.7665628812,-21021.9229501509,-9602.2839601866,-3451.2090237688,-5328.1857679790,-555.2850122118,-22304.7997292841,8935.2021495656,11394.3788513599,14340.5797861893
561071609868,36509,-2,0,6542.1325446103,8440.0498950528,13392.8378806504,735.7319560960,-6918.7592643708,-4347.3720624753,-7140.3695266071,-21017.2383868741,-9600.4831410568,-3450.9413344387,-5324.5111235385,-550.6126166318,-22302.2445129513,8939.4365080600,11397.1895893260,14343.2080087031
561071622174,36510,-2,0,6546.2208907428,8445.5131909263,13395.1132399563,740.5868671284,-6913.8800179448,-4343.5149025824,-7135.0279077018,-21013.2838854066,-9596.6016457702,-3448.2157703504,-5317.4538593812,-549.5418593114,-22301.5996250197,8941.0791471311,11396.6663783626,14343.2080087031
561071622174,36510,-2,0,6551.8667020686,8452.1689210884,13407.4512845347,748.6905532124,-6912.2130434801,-4330.8118270993,-7131.3775986549,-21014.8291829031,-9596.2001117751,-3445.8065663794,-5315.9815680656,-551.1966660793,-22302.5000345846,8939.7407004805,11394.3666836631,14338.6694577881
561071622174,36510,-2,0,6557.1109793993,8455.4420315338,13416.2241939441,755.5409665238,-6912.8944345022,-4323.7302275483,-7131.4749402295,-21015.9486110108,-9597.0518505527,-3447.7777332647,-5321.1041684281,-553.1800006614,-22306.3815298711,8936.6987762748,11392.2130013254,14335.5180243110
561071622174,36510,-2,0,6556.2349052281,8456.6344658224,13413.3891205843,753.4967934575,-6914.2937196368,-4329.8019082630,-7133.7624672322,-21014.1477918810,-9598.9135081666,-3449.3838692454,-5325.6305516462,-552.1822495219,-22305.8704866046,8935.3968327147,11392.1034920540,14337.7203774359
561071622174,36510,-2,0,6552.0613852178,8452.5217842963,13403.4237768863,746.6342124494,-6914.4153966050,-4341.0448601274,-7134.5411998289,-21013.6732517049,-9598.4754710810,-3449.8584094215,-5323.7080555482,-548.6171143528,-22303.9358228097,8937.1368133604,11392.2130013254,14341.7235496907
561071622174,36510,-2,0,6552.6332669685,8452.9719890787,13401.0145729154,746.5490385716,-6913.2959684973,-4342.8578469540,-7132.9472315451,-21011.7629233037,-9597.4898876383,-3449.8705771183,-5318.6949644571,-547.4125123673,-22301.5144511420,8936.5892670034,11391.4707718192,14344.3639399013
561071622174,36510,-2,0,6556.0888928662,8456.9508259398,13409.7023084470,753.0100855846,-6911.1909569469,-4332.4179630799,-7130.0026489139,-21010.7408367706,-9596.0054286259,-3447.5708824187,-5313.6940410629,-547.9722264212,-22298.5698685108,8939.6555266028,11395.6442918295,14342.1129159890
561071622174,36510,-2,0,6558.7292830768,8459.6155515441,13420.1421923211,757.7068165582,-6910.7894229518,-4325.5553820718,-7129.6862887965,-21013.5150716462,-9596.6624842544,-3445.3806969906,-5315.1176615912,-550.7464612968,-22301.7456373816,8938.5239307982,11396.9584030864,14340.5067800084
561071652507,36511,-2,0,6558.1939044166,8460.7106442581,13419.7893291132,757.0375932330,-6911.2274600374,-4328.8893310013,-7131.9251450119,-21012.5659912941,-9598.7918311984,-3447.6317209029,-5320.4471127996,-549.2498345876,-22303.0110778512,8938.8889617029,11395.8146395850,14341.8817297494
561071652507,36511,-2,0,6554.9329616680,8456.1720933432,13406.9037381777,750.8807386406,-6912.0913665118,-4339.4752272372,-7131.8643065278,-21009.9742718708,-9598.3659618096,-3449.0431737343,-5320.5201189806,-545.8672148708,-22301.6726312007,8938.9376324902,11397.0070738737,14345.3008525566
561071652507,36511,-2,0,6551.9032051591,8452.2784303598,13398.1673318588,745.8433121559,-6914.0138626099,-4343.7825919125,-7130.1486612758,-21009.7917564184,-9597.2343660050,-3450.1626018420,-5316.1397481243,-546.0862334136,-22302.4391961005,8938.8524586125,11396.3865213357,14346.3594421802
561071652507,36511,-2,0,6554.9207939712,8455.6245469861,13407.0254151459,751.5742973595,-6912.8214283212,-4333.1723602829,-7128.3235067523,-21011.9332710593,-9596.6381488607,-3450.2112726293,-5313.1951654931,-548.1182387831,-22301.8186435625,8938.2684091650,11396.0214904310,14342.0277421113
561071652507,36511,-2,0,6556.3687498931,8458.3987818618,13415.8956661299,757.3782887440,-6911.2639631279,-4323.8519045166,-7127.7516250017,-21013.0405314702,-9596.5529749829,-3449.0066706438,-5314.1077427549,-548.6292820496,-22302.4513637973,8938.1588998936,11396.3865213357,14339.4360226880
561071652507,36511,-2,0,6554.5192599760,8457.3401922382,13416.7474049075,755.5044634333,-6912.5659066879,-4328.1471014951,-7131.1464124153,-21012.9675252892,-9597.4290491542,-3448.6173043455,-5317.9770703446,-547.7410401816,-22302.6703823401,8937.5991858397,11398.0291604068,14340.6041215830
561071652507,36511,-2,0,6551.2583172275,8452.3027657535,13407.5729615030,747.1087526255,-6912.5050682038,-4339.2805440880,-7132.8620576673,-21011.1545384626,-9597.5628938193,-3450.0287571770,-5320.2280942568,-544.7477867631,-22300.2125075819,8939.5581850282,11397.0070738737,14344.4856168695
561071652507,36511,-2,0,6551.9640436432,8451.5848716409,13399.5787846903,744.4196916276,-6911.5681555485,-4343.8921011839,-7130.0756550948,-21007.6624094744,-9594.4236280389,-3450.6493097149,-5317.6485425303,-542.6792783032,-22300.3463522470,8943.3910095274,11399.9394888080,14348.0994228259
561071682120,36512,-2,0,6559.4593448862,8460.5159611090,13410.4202025595,751.4282849976,-6909.4996470886,-4333.1480248893,-7128.3721775396,-21008.8061729758,-9593.8152431978,-3448.9823352502,-5313.8400534248,-546.1592395946,-22301.4536126578,8942.2959168134,11398.5402036734,14344.6559646250
561071682120,36512,-2,0,6564.6549514296,8465.5047168064,13422.0403530254,759.0209278151,-6910.3878889566,-4322.7933148930,-7129.2482517109,-21013.2960531034,-9594.9590066991,-3447.1328453331,-5318.0135734350,-548.7996298052,-22302.2810160418,8940.6532777423,11395.6442918295,14339.8740597736
561071682120,36512,-2,0,6567.1858323687,8468.9968457946,13422.5635639888,760.9677593068,-6909.6943302377,-4324.6914755973,-7132.2780082198,-21011.7994263942,-9596.3704595306,-3447.9724164139,-5322.5156212595,-547.7167047879,-22303.2909348781,8939.9962221138,11395.7903041914,14338.4991100326
561071682120,36512,-2,0,6568.1349127209,8468.1937778042,13417.8546653184,757.8649966169,-6908.2828774063,-4333.8172482145,-7130.7205430265,-21008.1491173473,-9594.2289448898,-3446.4879574015,-5322.2235965358,-543.4458432031,-22300.8938986040,8942.1012336642,11398.6983837321,14344.5342876568
561071682120,36512,-2,0,6570.7509675378,8469.4957213643,13412.7685680464,756.2953637268,-6907.8083372302,-4339.0980286357,-7128.5425252952,-21005.2775408971,-9591.4182069237,-3445.8795725604,-5315.9572326720,-540.2214035450,-22296.8907263492,8944.6564499970,11402.8110652582,14349.8515711684
561071682120,36512,-2,0,6576.1169218368,8477.6115751452,13416.1633554600,760.8582500354,-6910.0715288392,-4335.5693965570,-7129.8688042489,-21007.3217139634,-9594.4601311294,-3449.1891860962,-5315.2028354689,-544.7721221568,-22300.0421598264,8943.4518480115,11401.8741526029,14347.8073981022
561071682120,36512,-2,0,6585.6442284491,8486.9441986084,13429.1097848796,768.6212406084,-6912.7484221403,-4329.4490450551,-7134.3343489829,-21015.1820461110,-9598.5363095651,-3452.7543212653,-5318.8531445158,-550.5517781477,-22302.7920593084,8936.9664656049,11395.6077887390,14339.0223209960
561071682120,36512,-2,0,6592.0687723716,8494.2569843990,13437.9678681667,773.3666423694,-6915.8876879206,-4330.9335040675,-7138.1793411789,-21016.4109834901,-9599.2420359808,-3452.6448119939,-5324.1825957243,-550.5639458445,-22304.8727354651,8938.5969369792,11396.1796704897,14341.1881710305
561071714582,36513,-2,0,6604.4189846469,8502.8352106592,13439.3914886950,776.2138834259,-6912.2738819642,-4337.6622404106,-7137.2789316140,-21011.7994263942,-9597.4533845478,-3452.2919487860,-5324.7909805654,-545.6238609344,-22300.6870477580,8941.5050165199,11399.1850916050,14346.1404236374
561071714582,36513,-2,0,6615.2238994257,8508.2620034422,13439.2333086363,778.2215534017,-6907.2729585700,-4340.3026306212,-7130.0148166107,-21006.1292796747,-9592.2091072172,-3446.0377526190,-5315.3488478308,-539.0046338627,-22296.8055524715,8945.8610519825,11402.0688357520,14351.8105703569
561071714582,36513,-2,0,6630.3848496671,8521.1232589840,13451.5105147306,789.6591884153,-6901.5419733663,-4329.2056911186,-7122.0449751917,-21002.5763122024,-9586.4659543167,-3440.0390780853,-5307.0626462944,-535.8288649919,-22292.7902125199,8948.3675975280,11404.6118843880,14351.3968686649
561071714582,36513,-2,0,6646.5435510480,8535.4933089319,13472.0739223614,803.1531641919,-6897.9281674099,-4315.6995476452,-7118.2608214798,-20999.4248787253,-9585.5655447518,-3438.7371345253,-5305.2009886805,-536.1330574125,-22294.2990069259,8946.9926477870,11405.3054431069,14346.9556593246
561071714582,36513,-2,0,6656.1195284476,8543.2562995050,13481.7837444261,808.7016339432,-6898.2445275273,-4313.7527161535,-7120.5970192698,-21000.5686422266,-9586.8431529182,-3438.9074822808,-5309.6543657177,-536.9969638869,-22297.0245710143,8942.3324199038,11402.7137236836,14344.6803000187
561071714582,36513,-2,0,6662.2277122527,8552.0535443080,13481.4917197023,810.0157452001,-6897.6969811703,-4322.2214331423,-7120.8403732062,-20997.7214011701,-9587.3298607912,-3438.6519606475,-5310.1897443779,-533.3223194464,-22296.3188445986,8944.6686176938,11404.6848905690,14351.1656824253
561071714582,36513,-2,0,6669.7108457988,8560.5465966904,13477.4642120539,813.7633958215,-6894.1926844853,-4327.3683688984,-7114.7808601884,-20990.2260999271,-9582.5844590302,-3438.4816128920,-5302.4997599858,-527.0437878857,-22291.5369397471,8946.9804800902,11407.1792684177,14355.9232518831
561071714582,36513,-2,0,6678.0335504257,8570.5362757820,13485.0933579619,822.3537897785,-6890.5423754384,-4319.7027198999,-7107.9912853612,-20985.9795737359,-9580.4429443894,-3434.3567636690,-5293.7876890606,-523.1014541151,-22291.3057535075,8949.1584978215,11410.5010496503,14359.3545423871
561071748447,36514,-2,0,6689.7632101630,8581.4872029227,13502.5296675092,835.0446975649,-6889.6297981767,-4307.7418739230,-7107.3950682169,-20987.3910265674,-9580.4551120862,-3431.7650442457,-5292.4614101069,-525.6201673574,-22294.2746715323,8946.8344677283,11406.6803928479,14354.0494265723
561071748447,36514,-2,0,6695.7618846968,8586.4272878328,13511.2295707376,840.1429625337,-6890.9317417367,-4305.7950424313,-7110.6438432686,-20990.1774291398,-9582.4019435779,-3433.8335527056,-5299.6281835356,-529.1731348297,-22296.4891923541,8943.1111525005,11402.4460343535,14348.4157829433
561071748447,36514,-2,0,6697.5748715234,8587.8874114515,13505.6445978959,838.4516526753,-6892.7690639570,-4314.2029209360,-7116.1679776262,-20991.6375527586,-9583.4727008983,-3436.1210797084,-5305.0914794091,-530.2073890597,-22297.0975771952,8942.7704569895,11401.5577924855,14350.4964591000
561071748447,36514,-2,0,6695.7253816063,8586.3907847423,13497.2245516944,833.0978660732,-6893.0854240744,-4323.8397368197,-7115.7786113279,-20990.9074909492,-9582.0247449764,-3436.6199552781,-5303.6921942744,-528.4065699299,-22297.3896019190,8942.5879415371,11400.9007368570,14357.8944187684
561071748447,36514,-2,0,6695.6158723349,8590.1992738479,13494.0852859141,834.7770082348,-6892.6960577761,-4321.1385081250,-7113.3694073569,-20990.1287583526,-9581.4041924384,-3436.9606507891,-5300.3947484354,-529.7815196709,-22296.8663909556,8943.0624817132,11401.2657677617,14355.6312271593
561071748447,36514,-2,0,6699.1566721104,8595.6260666309,13505.2308962039,841.8099369984,-6888.9240717610,-4308.3745941578,-7110.8993649019,-20990.4086153795,-9579.4451932499,-3433.5780310724,-5298.3505753692,-530.5480845707,-22295.6252858796,8944.9728101144,11402.7623944709,14350.4356206159
561071748447,36514,-2,0,6702.6731364922,8598.7409970176,13514.9893890559,846.0442954928,-6886.3810231250,-4300.6481066752,-7109.9016137624,-20990.1409260494,-9577.6565418169,-3428.4432630131,-5299.7498605038,-529.5016626440,-22291.5734428376,8945.1918286572,11402.9327422264,14346.6027961167
561071748447,36514,-2,0,6705.4230359742,8596.4047992276,13513.1277314420,844.7910227200,-6884.8235579316,-4304.3349188126,-7108.8551918356,-20984.7384686600,-9574.7484622762,-3425.3039972328,-5300.3582453449,-522.9919448437,-22287.9961399717,8952.8331422620,11412.7642412594,14356.5438044210
561071775928,36515,-2,0,6709.0855127179,8600.9068470521,13508.6013482239,843.8662777615,-6876.8780519062,-4308.1069048277,-7102.1142877957,-20975.9168884634,-9567.0463101873,-3419.0011302785,-5290.2468892851,-512.7954149061,-22279.6369322543,8961.0098345270,11421.7926723020,14370.1716248627
561071775928,36515,-2,0,6711.8232445030,8603.5837403531,13509.5625962729,846.3971587007,-6873.3859229181,-4303.7630370619,-7096.4928118635,-20974.0552308494,-9562.1548960645,-3414.4990824540,-5281.3523029075,-509.4492982798,-22278.4201625720,8964.0030879455,11424.7615903268,14372.4469841686
561071775928,36515,-2,0,6714.0621007185,8606.5648260747,13515.6342769875,850.5220079236,-6874.3350032703,-4293.8341964544,-7098.5126495361,-20977.4500182631,-9563.2864918690,-3415.4846658966,-5281.6808307217,-513.7931660455,-22281.7784468951,8963.6745601313,11422.1333678131,14366.1441172143
561071775928,36515,-2,0,6714.8286656183,8608.2683036300,13521.0975728610,852.7121933518,-6876.3913440333,-4289.4538255981,-7100.9096858103,-20980.5284455593,-9565.3793357226,-3417.2976527233,-5287.9593622824,-518.6602447747,-22283.3845828758,8961.3261946444,11419.6754930548,14359.6222317172
561071775928,36515,-2,0,6709.0125065369,8601.7342504360,13515.6951154716,847.9302885004,-6878.3746786155,-4298.5552628217,-7106.2756401092,-20981.4045197305,-9566.9733040064,-3419.1471426403,-5292.7656025274,-519.1226172540,-22285.8546253308,8959.2455184877,11418.7385803995,14361.2770384852
561071775928,36515,-2,0,6698.3292687264,8594.7013216724,13499.4025694257,836.9793613597,-6878.9830634566,-4310.9541458842,-7106.1904662314,-20980.7961348894,-9568.8349616203,-3421.6658558827,-5293.1549688258,-516.7620840703,-22286.0858115705,8959.0508353385,11417.8746739250,14363.5402300942
561071775928,36515,-2,0,6693.5595315718,8589.8220752464,13492.4548145398,834.6674989634,-6882.8523910463,-4315.5535352833,-7105.9106092045,-20981.7573829384,-9571.8525504324,-3426.4599284309,-5291.9625345371,-518.4777293224,-22287.4972644019,8954.8043091473,11413.4699676751,14359.0625176634
561071775928,36515,-2,0,6693.1823329703,8588.9581687719,13497.7234272641,836.8090136042,-6887.5734574136,-4310.5647795859,-7108.4414901437,-20986.1377537946,-9575.2473378460,-3426.3625868564,-5292.6560932560,-524.6345839148,-22291.8654675614,8952.2612605113,11410.4888819535,14353.8912465136
561071812140,36516,5,0,6693.7177116305,8590.0532614860,13504.6346790596,839.8631055067,-6887.0502464502,-4303.4223415508,-7109.6704275228,-20987.8290636530,-9575.6975426284,-3426.8857978197,-5295.1991418920,-526.9829494016,-22290.2958346712,8950.7402984085,11408.5907212491,14349.4987079606
561071812140,36516,5,0,6691.9290601975,8587.3520327913,13502.7121829615,838.0866217706,-6885.5536197410,-4306.8901351454,-7111.3860727748,-20987.8777344403,-9574.3347605843,-3426.9223009102,-5300.4434192227,-523.2231310833,-22287.1200658004,8950.8619753767,11409.1139322125,14350.9344961857
561071812140,36516,5,0,6686.9038014097,8583.0690035096,13489.9847720848,830.4818112563,-6884.9330672030,-4316.8311434497,-7110.2666446671,-20985.6510459217,-9572.7042892100,-3426.2409098881,-5298.1680599168,-519.5971574301,-22283.4575890567,8953.9647380666,11410.6835651027,14359.6830702014
561071812140,36516,5,0,6681.6838594726,8578.6642972597,13483.2682034385,825.4200493779,-6883.7406329144,-4320.1894277728,-7110.3274831512,-20984.4829470267,-9572.3757613958,-3427.9930582306,-5293.1549688258,-519.8161759729,-22282.6666887632,8955.5222032599,11411.9490055722,14362.1896157469
561071812140,36516,5,0,6676.2692343864,8575.3546837239,13481.6498997610,823.6922364291,-6889.1430903038,-4314.2880948137,-7112.5541716698,-20990.3964476827,-9576.2937597728,-3431.6311995807,-5295.5763404935,-526.5692477096,-22286.5603517466,8952.1152481495,11409.1869383934,14351.1778501221
561071812140,36516,5,0,6667.5449957644,8566.9589729161,13481.6255643674,818.1559343746,-6897.6361426862,-4316.0280754594,-7122.0693105853,-20998.1837736493,-9584.9571599107,-3437.0458246669,-5304.8116223821,-536.1573928061,-22290.7703748473,8943.7195373416,11400.4626997714,14346.1282559406
561071812140,36516,5,0,6658.2002046043,8560.4857582063,13474.9211634180,811.5610426966,-6902.1746936011,-4322.1484269613,-7129.1509101363,-21003.7809141879,-9589.8729094272,-3440.6961337138,-5313.8765565152,-538.4205844152,-22295.6617889701,8943.3666741338,11400.1706750476,14345.5198710995
561071812140,36516,5,0,6649.9383384616,8550.9341162003,13457.2049968437,800.7317925242,-6905.5451456211,-4334.6446515985,-7130.5015244836,-21003.0751877722,-9592.7079827869,-3443.4703685894,-5315.5313632832,-534.8919523365,-22294.1773299577,8943.5978603734,11401.7159725442,14349.9124096525
561071846382,36517,5,0,6646.5435510480,8547.3203102438,13450.8047883149,798.7849610325,-6904.4013821197,-4337.2242033250,-7126.3036690797,-21000.0819343537,-9589.5565493098,-3442.1075865452,-5307.4885156832,-532.3732390942,-22295.2845903686,8945.6298657428,11402.7745621678,14353.9155819073
561071846382,36517,5,0,6648.0401777572,8548.9872847086,13460.2104179590,804.9904864122,-6900.8484146474,-4324.7401463846,-7120.9255470840,-20997.3198671749,-9587.0865068547,-3437.1309985447,-5302.1712321716,-531.9838727958,-22294.0313175958,8946.8344677283,11405.9624987354,14353.5018802153
561071846382,36517,5,0,6649.9261707647,8551.3599855891,13470.2487678379,808.3366030385,-6897.4779626275,-4312.6454557426,-7119.2829080129,-20997.9525874097,-9585.5655447518,-3436.2062535861,-5302.6457723477,-533.2736486591,-22291.4152627789,8950.6551245307,11407.7024793810,14349.0971739654
561071846382,36517,5,0,6647.4196252192,8547.7583473295,13469.9932462047,806.9494856007,-6899.2909494541,-4315.8698954007,-7124.3811729817,-21001.3838779138,-9587.2568546102,-3436.8389738209,-5309.3380056003,-534.8311138524,-22292.3521754343,8950.1927520514,11407.6051378065,14347.1625101705
561071846382,36517,5,0,6637.3326045530,8536.0165198953,13456.1342395233,795.2076581666,-6903.0264323787,-4329.9114175344,-7127.7881280921,-21002.1504428136,-9589.3740338574,-3438.1895881683,-5312.4286005933,-534.3565736763,-22293.8488021435,8948.1485789852,11408.2986965254,14349.3891986891
561071846382,36517,5,0,6630.7985513591,8530.8452487456,13443.4676671306,788.9169589091,-6902.9047554105,-4335.5815642539,-7126.5226876225,-21000.0089281728,-9587.7192270895,-3439.7713887552,-5307.8292111942,-531.5701711039,-22291.2692504170,8945.4595179873,11406.8264052098,14352.1025950807
561071846382,36517,5,0,6630.0928249433,8532.1471923056,13449.7340309945,793.1634851003,-6900.5928930142,-4326.0542576415,-7122.3369999155,-20998.3784567985,-9586.7701467373,-3436.4861106130,-5301.6601889050,-532.6774315148,-22291.4517658694,8947.7713803837,11409.4667954204,14353.0395077360
561071846382,36517,5,0,6629.4601047085,8532.3418754548,13458.9084743990,796.8502972376,-6901.4202963981,-4315.7238830388,-7123.9553035929,-21000.9336731313,-9588.4127858084,-3435.0016516006,-5302.6336046508,-535.1839770603,-22293.8853052340,8949.2558393961,11408.2986965254,14349.9002419557
561071917802,36518,5,0,6622.9625546051,8526.8542441876,13453.2869984668,793.3094974622,-6904.7420776308,-4318.3399378558,-7127.2405817351,-21002.5763122024,-9591.1626852904,-3439.0291592490,-5310.6277814635,-535.8653680824,-22293.9583114149,8951.4703602179,11407.1184299335,14348.1115905227
561071917802,36518,5,0,6613.7881112006,8516.4386957072,13438.0895451349,782.1152163851,-6908.0638588634,-4332.1989445371,-7130.1851643663,-21003.7930818847,-9593.1825229630,-3443.0201638070,-5314.8013014738,-534.8919523365,-22294.4206838942,8953.5023655873,11408.2256903444,14350.7763161270
561071917802,36518,5,0,6605.9521144466,8507.2034138186,13425.9461837056,774.3278904184,-6908.4045543745,-4338.0394390121,-7129.1144070458,-21002.1261074200,-9593.6935662296,-3442.8619837483,-5310.2627505588,-532.7991084830,-22292.6563678549,8954.8043091473,11409.4302923299,14357.3590401082
561071917802,36518,5,0,6605.6479220260,8509.6734562737,13429.3653065129,777.3454792305,-6905.8980088290,-4330.4711315882,-7125.9386381750,-21001.5055548820,-9591.1991883809,-3442.4604497531,-5306.3934229691,-532.7991084830,-22291.1840765393,8954.1229181253,11410.7322358900,14354.9133330468
561071917802,36518,5,0,6604.6988416739,8510.5373627481,13438.6249237951,782.1030486882,-6903.6469849167,-4319.4837013571,-7126.2793336861,-21002.4059644469,-9590.3961203905,-3442.2901019976,-5307.6466957419,-535.8410326887,-22291.5491074440,8950.9714846481,11408.2865288285,14346.7853115690
561071917802,36518,5,0,6598.6028255656,8505.0740668746,13439.2941471204,777.3454792305,-6906.4942259733,-4321.5643775138,-7131.3532632613,-21006.9445153619,-9593.0000075106,-3445.4537031715,-5314.5822829310,-539.6738571879,-22296.7690493810,8945.7150396206,11404.0400026373,14339.9835690450
561071917802,36518,5,0,6592.2391201272,8497.4814240571,13426.8952640578,768.9862715131,-6908.5262313427,-4335.3138749238,-7135.1130815795,-21006.5916521540,-9596.6868196480,-3452.1094333337,-5320.3011004377,-538.3110751438,-22298.6307069949,8943.1719909846,11401.4361155172,14338.0245698565
561071917802,36518,5,0,6589.1241897405,8489.7549365745,13412.3061955671,760.1038528324,-6911.8358448786,-4345.1210385631,-7135.2955970319,-21005.8250872542,-9597.3317075796,-3455.8327485615,-5318.2447596747,-538.1528950851,-22298.7767193568,8941.9187182118,11397.4694463529,14339.0101532992
561071924695,36519,5,0,6591.1075243226,8490.8256938949,13415.4089582569,762.9024231016,-6911.1301184628,-4339.4022210563,-7129.8688042489,-21003.8782557625,-9596.1027702005,-3451.4523777053,-5312.8544699821,-536.6441006790,-22298.8740609314,8944.4130960605,11399.2094269986,14340.8353078226
561071924695,36519,5,0,6596.3152985628,8497.1407285460,13427.8321767132,772.2228788680,-6905.3017916846,-4324.4481216609,-7125.4154272117,-21001.5785610629,-9592.9513367234,-3445.2711877192,-5307.9752235561,-535.2934863317,-22295.8199690288,8946.2504182808,11401.0102461284,14340.4216061306
561071924695,36519,5,0,6597.2278758246,8497.7977841745,13433.2954725867,775.2648030737,-6902.6857368677,-4317.9992423447,-7123.9309681993,-21002.1139397232,-9591.0288406253,-3441.5843755819,-5311.3700109697,-534.2835674954,-22295.5157766082,8946.4816045204,11401.8133141187,14341.6627112066
561071924695,36519,5,0,6590.4504686942,8491.5192526138,13424.5955693583,769.0836130877,-6904.0485189119,-4327.7333998031,-7128.5181899015,-21002.5884798992,-9592.3794549727,-3441.4140278263,-5314.3632643881,-534.6972691874,-22297.0245710143,8943.3301710433,11399.3189362700,14344.5586230504
561071924695,36519,5,0,6582.9064966640,8485.5084103833,13412.3913694449,761.0042623973,-6904.5838975721,-4336.0926075204,-7127.2770848256,-21000.9458408281,-9590.7003128111,-3440.6839660170,-5311.0414831555,-532.1542205514,-22296.6717078064,8945.0458162953,11399.8178118398,14349.0120000876
561071924695,36519,5,0,6582.0669255832,8485.5935842611,13408.7288927011,763.3404601873,-6903.0629354692,-4330.4832992851,-7122.6411923360,-20998.1837736493,-9589.9337479113,-3437.4716940557,-5302.7066108318,-531.0104570500,-22295.5766150924,8946.7614615474,11400.8277306761,14349.0728385718
561071924695,36519,5,0,6581.7383977690,8489.2073902175,13422.0403530254,769.1566192686,-6902.0773520266,-4316.6972987847,-7122.0084721012,-20999.4735495126,-9587.9260779355,-3431.2905040696,-5300.5772638878,-532.8477792703,-22294.8952240703,8945.3256733223,11399.6596317811,14344.7411385028
561071924695,36519,5,0,6581.8357393435,8487.3822356940,13426.0921960675,768.9741038163,-6902.5762275963,-4311.3678475762,-7125.4397626053,-21001.8827534835,-9589.2888599797,-3430.4509329889,-5304.6291069298,-533.1884747813,-22295.4549381241,8947.1143247552,11402.6893882900,14346.2621006057
561071932165,36520,5,0,6577.9299086634,8483.2330510774,13419.9475091719,762.9389261921,-6902.9534261978,-4319.5080367508,-7127.7516250017,-21001.0431824027,-9588.1572641751,-3430.5604422603,-5307.4641802895,-530.8644446881,-22294.5058577719,8948.8178023105,11405.7313124957,14350.4112852223
561071932165,36520,5,0,6572.3449358217,8475.2510419616,13408.1448432536,755.2489418000,-6903.8295003691,-4332.0285967816,-7128.7128730507,-21000.6051453171,-9589.2523568892,-3433.4806894978,-5305.7120319470,-530.0613766978,-22294.7735471020,8946.4937722173,11406.2301880655,14353.9399173009
561071932165,36520,5,0,6568.1349127209,8471.1626958290,13403.0952490721,751.9271605673,-6907.6379894746,-4333.3305403416,-7129.6011149187,-21002.0409335422,-9592.2942810949,-3437.0458246669,-5304.8116223821,-532.7747730893,-22297.6451235523,8945.3621764127,11404.0400026373,14349.4743725669
561071932165,36520,5,0,6568.7919683494,8472.2456208463,13409.7388115375,755.1150971350,-6909.6821625409,-4325.5918851622,-7131.9859834960,-21006.3482982175,-9595.6647331149,-3440.1972581440,-5305.8093735216,-537.0334669774,-22300.0421598264,8945.9340581634,11403.4681208867,14342.6847977397
561071932165,36520,5,0,6567.0519877037,8470.7246587434,13415.7009829807,754.4093707192,-6912.4198943261,-4323.3773643405,-7135.6484602398,-21009.7065825407,-9597.7089061811,-3440.6839660170,-5310.6886199476,-541.9978872811,-22302.8528977925,8944.5104376351,11401.7038048473,14338.3896007612
561071932165,36520,5,0,6561.1993255318,8463.5213822242,13408.2908556155,748.3985284887,-6915.6565016810,-4332.1746091434,-7139.7124709786,-21010.0351103549,-9599.5218930077,-3443.0931699879,-5315.4583571022,-539.8807080339,-22304.5077045604,8943.0016432291,11401.8984879965,14339.4481903848
561071932165,36520,5,0,6558.6197738054,8460.0292532361,13396.4881896973,743.2880958231,-6913.7705086734,-4341.9209342986,-7137.3397700981,-21004.3892990290,-9597.4533845478,-3444.4194489416,-5313.4020163391,-534.3322382827,-22300.8817309072,8943.4761834052,11404.2346857865,14344.5464553536
561071932165,36520,5,0,6561.2723317128,8462.6331403562,13399.0677414237,745.7946413686,-6909.4023055140,-4338.7451654278,-7129.7957980679,-20999.7655742363,-9593.5353861709,-3439.7957241489,-5303.8868774236,-529.2339733139,-22295.2115841877,8947.7470449900,11408.2743611317,14349.0363354813
561071959904,36521,5,0,6567.0763230973,8468.9603427041,13413.4742944621,755.5166311301,-6904.3527113324,-4325.4580404972,-7124.5515207372,-20998.2567798303,-9588.0234195101,-3437.5812033271,-5299.9445436530,-529.5259980376,-22292.5103554930,8949.3653486675,11409.9413355965,14347.0043301118
561071959904,36521,5,0,6569.6315394301,8469.7755783912,13419.6433167513,757.8406612233,-6904.1945312737,-4320.1285892887,-7127.0580662828,-21002.0774366327,-9589.0090029527,-3441.1463384962,-5307.5006833800,-533.2249778718,-22293.9948145054,8946.7979646378,11408.3595350095,14342.1615867763
561071959904,36521,5,0,6563.3165047790,8464.9571704493,13414.1678531810,751.2701049389,-6909.2441254553,-4331.3837088500,-7134.2978458924,-21006.0076027065,-9595.2388637261,-3448.0819256853,-5316.3100958798,-535.9992127474,-22296.6108693223,8945.5690272587,11407.7998209556,14344.0354120871
561071959904,36521,5,0,6557.5003456977,8456.5006211574,13399.3962692380,740.6963763998,-6914.8290982970,-4348.2968074338,-7140.2600173356,-21007.7840864426,-9600.3736317854,-3457.1225244247,-5322.4304473818,-536.9239577060,-22299.2512595329,8944.4861022415,11405.1472630482,14348.8416523321
561071959904,36521,5,0,6555.3831664505,8455.2473483846,13390.2704966207,739.2484204778,-6917.7493455345,-4354.3806558453,-7143.0585876049,-21009.5970732693,-9603.9387669545,-3463.6444099218,-5322.8319813769,-540.2700743323,-22298.5942039044,8942.9408047450,11402.8354006519,14345.4712003122
561071959904,36521,5,0,6557.3178302453,8456.3424410987,13396.6098666655,742.4850278327,-6918.7227612803,-4346.3743113358,-7145.6503070282,-21017.9562809866,-9606.0802815953,-3464.3866394280,-5324.3894465703,-547.7653755752,-22300.0178244327,8938.9741355807,11396.2770120643,14334.1795776605
561071959904,36521,5,0,6561.1384870477,8457.3158568445,13406.0763347937,747.0722495350,-6919.4041523024,-4340.5094814672,-7149.3006160751,-21022.2393102683,-9606.7860080110,-3463.4740621663,-5330.3029472262,-552.1214110378,-22298.2778437871,8943.4153449211,11397.8344772576,14331.5026843594
561071959904,36521,5,0,6560.6031083875,8455.3811930497,13404.0078263338,745.4782812512,-6918.3455626788,-4343.1012008904,-7150.6390627256,-21020.1586341116,-9604.9365180940,-3462.8170065379,-5335.3890444982,-549.4323500399,-22292.3278400406,8947.4428525695,11401.8376495124,14333.9727268145
561071993841,36522,5,0,6558.6684445927,8454.2617649420,13395.6364509197,740.8667241553,-6914.5979120574,-4351.0467069158,-7147.7674862754,-21015.3158907760,-9601.2253705630,-3458.1324432611,-5331.4102076371,-543.3241662348,-22288.0204753653,8953.7578872206,11408.8340751856,14343.5608719110
561071993841,36522,5,0,6559.7392019131,8454.4807834848,13392.2173281124,741.3290966346,-6911.6776648199,-4350.1584650478,-7143.0342522113,-21011.4100600959,-9597.8427508462,-3455.1878606299,-5323.5742108831,-540.3430805132,-22286.2318239323,8956.1792588883,11410.7444035868,14347.6735534371
561071993841,36522,5,0,6562.9271384807,8457.2428506636,13397.7657978637,746.5612062684,-6912.8822668053,-4340.0957797752,-7140.4668681816,-21011.1910415531,-9597.7332415748,-3454.5673080919,-5321.2745161836,-542.4237566699,-22288.5558540255,8953.5875394650,11408.0066718016,14340.6162892798
561071993841,36522,5,0,6563.3165047790,8459.5668807568,13405.7599746763,750.1385091344,-6913.1377884386,-4331.2011933976,-7141.6836378639,-21014.6588351476,-9599.9964331838,-3453.6182277397,-5322.7224721055,-546.8162952230,-22292.5468585834,8949.6817087849,11404.8674060213,14335.7370428538
561071993841,36522,5,0,6561.1993255318,8455.9287394067,13404.9569066860,747.4616158333,-6917.9805317741,-4334.9001732318,-7146.1126795075,-21016.7516790012,-9602.3326309738,-3452.7543212653,-5329.4147053581,-548.1182387831,-22295.1994164908,8947.2603371171,11401.9714941774,14334.0092299049
561071993841,36522,5,0,6555.7847004456,8448.9323137335,13392.9960607091,741.2560904536,-6918.4185688598,-4345.2183801376,-7147.1225983438,-21015.2307168983,-9603.3425498101,-3453.5938923461,-5329.7432331723,-544.1272342251,-22295.0047333417,8947.0778216648,11402.9570776201,14341.7357173875
561071993841,36522,5,0,6553.9352105285,8448.3969350733,13387.3745847769,739.5161098079,-6919.1851337596,-4348.3576459180,-7146.0640087202,-21014.2329657588,-9602.1257801279,-3453.1071844732,-5324.5111235385,-543.4701785967,-22294.8587209798,8944.8633008430,11403.3221085248,14344.6072938377
561071993841,36522,5,0,6557.7193642405,8453.0571629565,13397.8144686510,746.0258276082,-6916.4960727617,-4336.1534460045,-7141.3794454434,-21013.9652764287,-9598.4633033842,-3447.4248700569,-5318.0379088287,-544.3340850711,-22295.2359195813,8946.8709708188,11402.6285498059,14341.9912390208
561072032306,36523,5,0,6563.3043370822,8455.6245469861,13410.5053764373,752.1461791102,-6911.9210187563,-4321.7955637535,-7138.4226951154,-21012.5294882036,-9594.1802741025,-3441.8033941247,-5314.6066183246,-543.1538184793,-22291.9749768328,8950.7159630148,11406.2058526718,14340.2147552846
561072032306,36523,5,0,6565.1173239088,8455.1621745069,13414.6302256603,751.9028251737,-6908.6844114014,-4319.7878937777,-7138.0211611202,-21011.2883831277,-9591.8562440093,-3440.1242519631,-5316.2614250925,-540.4890928751,-22290.0159776443,8951.9205650003,11408.5055473714,14338.7546316659
561072032306,36523,5,0,6558.8387923482,8447.8980595036,13405.5044530431,743.7383006055,-6908.5262313427,-4331.1281872167,-7137.6317948219,-21008.3559681933,-9590.3717849969,-3440.0025749949,-5315.6287048577,-535.6341818427,-22290.0281453411,8953.4536948000,11410.2090249266,14337.7203774359
561072032306,36523,5,0,6556.7946192819,8444.7466260264,13395.7459601911,739.7351283508,-6907.3216293572,-4336.3237937601,-7132.8255545768,-21002.2234489946,-9589.1063445273,-3439.3333516696,-5308.1455713116,-529.0514578615,-22287.3147489496,8954.7434706632,11413.2996199196,14334.8731363794
561072032306,36523,5,0,6560.5057668129,8449.7110463302,13400.2723434092,746.5368708748,-6905.2166178069,-4325.5675497686,-7123.9431358961,-20998.4027921922,-9585.6507186296,-3436.6564583686,-5301.0761394575,-528.0537067220,-22286.5116809593,8956.4956190057,11412.6790673816,14326.6964441144
561072032306,36523,5,0,6563.5598587155,8453.5438708294,13413.3526174939,755.3462833746,-6902.6857368677,-4314.4584425692,-7122.3491676123,-20998.4027921922,-9585.2856877249,-3432.9331431407,-5299.8837051688,-529.5503334313,-22288.7627048715,8953.3563532254,11409.1747706966,14324.2872401434
561072032306,36523,5,0,6562.1119027936,8452.3514365408,13417.0881004185,754.4337061129,-6903.4766371612,-4314.6287903248,-7123.6632788692,-20999.6925680554,-9586.8674883119,-3434.4662729404,-5306.5394353310,-530.5602522676,-22288.6166925096,8954.1472535189,11410.4767142567,14324.6522710481
561072032306,36523,5,0,6557.5611841818,8447.4113516307,13405.7964777668,747.8266467380,-6903.8173326722,-4325.9690837637,-7127.0702339796,-21000.8606669504,-9586.9648298865,-3437.8367249604,-5311.6863710871,-530.2682275438,-22289.6022759523,8953.5997071619,11410.2211926234,14327.2561581682
561072058862,36524,5,0,6552.9009562986,8443.2013285299,13396.8410529051,741.6576244488,-6905.0827731418,-4335.2652041365,-7128.5790283856,-21000.6294807108,-9586.9769975833,-3439.0291592490,-5310.2140797715,-530.0857120915,-22288.5680217223,8952.6019560224,11410.0508448679,14330.4075916454
561072058862,36524,5,0,6556.7581161915,8445.2698369898,13399.7978032331,745.3444365861,-6903.0751031660,-4328.0497599205,-7127.2649171287,-21002.4668029310,-9585.8332340819,-3439.2116747014,-5307.2573294435,-532.4705806688,-22289.2859158349,8951.8232234257,11410.5253850440,14326.4774255715
561072058862,36524,5,0,6559.2889971306,8448.1657488337,13408.2543525251,750.6738877946,-6902.8804200169,-4316.5634541196,-7126.4983522289,-21004.0486035180,-9586.3564450453,-3438.1774204714,-5309.2893348130,-535.0866354857,-22290.5878593949,8951.2026708878,11409.3937892394,14320.8559496393
561072058862,36524,5,0,6558.2304075070,8445.2698369898,13411.1745997626,750.2480184058,-6903.2819540120,-4315.7360507357,-7130.4285183027,-21006.7133291222,-9586.9891652801,-3438.7858053126,-5315.3366801340,-536.8022807377,-22291.0015610869,8949.5843672103,11409.2599445744,14320.1745586173
561072058862,36524,5,0,6554.7626139125,8440.9746400113,13401.7811378152,741.7793014170,-6906.0075181004,-4328.9988402727,-7133.9084795941,-21005.7885841637,-9588.1450964783,-3442.2170958166,-5320.2402619536,-534.7581076715,-22288.9208849302,8950.6064537434,11409.4667954204,14326.0880592732
561072058862,36524,5,0,6548.4719146550,8435.1219778395,13387.3502493832,735.5616083405,-6908.1977035285,-4338.9885193643,-7133.4096040243,-21002.2721197819,-9588.3154442338,-3445.8187340762,-5316.5291144226,-530.0613766978,-22288.2029908177,8952.6141237192,11411.4379623057,14333.0479818559
561072058862,36524,5,0,6547.8756975107,8436.0953935853,13386.2794920628,734.1258201154,-6911.7506710008,-4335.8127504935,-7133.7137964449,-21004.1581127894,-9590.8949959603,-3446.6096343697,-5312.4894390774,-531.4119910452,-22289.8212944951,8953.1008315921,11411.2797822470,14333.3156711860
561072058862,36524,5,0,6547.0726295204,8437.7015295660,13394.2493334818,737.8126322527,-6914.7074213288,-4328.6094739743,-7135.5876217556,-21007.8814280172,-9595.2753668165,-3447.7655655679,-5314.0469042708,-535.9383742633,-22291.4639335662,8952.8574776557,11410.4037080757,14328.3025800950
561072095068,36525,5,0,6545.3204811779,8434.6596053602,13393.9938118486,736.0848193039,-6919.5136615738,-4329.1813557250,-7141.0265822355,-21011.9332710593,-9599.3393775554,-3450.9048313482,-5320.2645973473,-538.1042242978,-22292.7658771263,8952.2734282082,11409.2234414839,14326.6112702366
561072095068,36525,5,0,6541.4268181946,8430.6564331055,13387.1920693245,731.5949391762,-6922.1905548749,-4340.0106058974,-7143.1194260890,-21010.0837811422,-9601.3105444407,-3450.4302911721,-5323.9027386973,-536.0965543220,-22292.6442001580,8952.4559436605,11411.0364283105,14332.5126031957
561072095068,36525,5,0,6538.2753847174,8427.2616456919,13376.0707944284,726.2168171805,-6923.3586537699,-4348.7348445195,-7141.2334330815,-21007.1391985110,-9599.7044084601,-3450.3694526880,-5319.7900571712,-531.8743635244,-22293.4229327547,8954.2445950935,11413.2266137387,14339.5333642626
561072095068,36525,5,0,6535.9148515338,8427.0061240586,13371.5930819975,727.7377792833,-6923.0666290461,-4345.4617340741,-7138.3010181472,-21005.3140439876,-9600.4223025726,-3450.9535021355,-5315.8477234005,-531.1199663214,-22294.9195594639,8951.5677017924,11412.7764089562,14336.6617878123
561072095068,36525,5,0,6538.1293723555,8429.6951850565,13382.8603692556,733.2862490346,-6923.4194922540,-4333.1115217988,-7135.3564355160,-21006.8106706968,-9600.2154517267,-3446.8408206094,-5312.3920975028,-534.1983936176,-22298.3873530585,8947.9295604424,11409.1869383934,14331.2714981198
561072095068,36525,5,0,6538.6160802285,8432.0435505433,13390.6963660095,736.2916701499,-6922.7015981414,-4327.8672444681,-7136.0256588413,-21008.1369496505,-9599.7165761569,-3445.4050323843,-5314.4119351754,-535.6463495396,-22299.9204828581,8944.8024623589,11407.6659762906,14327.7306983443
561072095068,36525,5,0,6537.1681243065,8431.9462089687,13384.8802069282,732.6170257093,-6922.1783871781,-4333.9510928796,-7136.1960065968,-21005.4965594399,-9599.3758806459,-3446.8529883062,-5317.4051885939,-532.2880652164,-22298.6185392981,8947.5401941440,11409.7466524473,14330.9064672151
561072095068,36525,5,0,6533.0554427804,8428.5879246456,13375.0852109857,729.3804183544,-6921.8376916670,-4343.9407719712,-7134.4803613447,-21002.9900138944,-9597.6967384843,-3446.0499203159,-5313.5480287010,-528.2970606585,-22298.1805022125,8949.8033857531,11411.4257946089,14336.0412352744
561072122366,36526,5,0,6533.6151568342,8427.2008072078,13373.7589320320,730.1591509511,-6920.0977110213,-4342.0912820541,-7131.2680893835,-21000.8850023440,-9595.3605406943,-3445.6483863207,-5306.7584538738,-528.0050359347,-22295.4792735178,8952.6506268097,11411.3162853375,14335.7492105506
561072122366,36526,5,0,6541.6093336469,8435.9007104362,13387.5205971388,740.9032272458,-6915.8390171333,-4328.8163248203,-7126.7173707717,-20999.7655742363,-9592.6836473933,-3442.6916359927,-5303.3028279761,-527.8833589665,-22293.1674111214,8952.4194405700,11411.5839746676,14330.5536040072
561072122366,36526,5,0,6546.0262075936,8440.6096091066,13399.3232630570,745.4174427671,-6916.3378927030,-4321.7712283598,-7128.2383328746,-21001.1770270678,-9593.1216844789,-3441.3531893422,-5306.9409693262,-530.5237491771,-22293.2647526960,8951.0079877386,11409.0409260316,14326.3679163001
561072122366,36526,5,0,6545.3326488747,8437.6163556882,13397.6684562891,740.6963763998,-6917.7493455345,-4331.1281872167,-7130.1973320631,-21001.0431824027,-9593.0486782979,-3441.3166862517,-5312.1974143537,-530.1100474851,-22294.0191498990,8949.1098270342,11408.5785535523,14329.0691449948
561072122366,36526,5,0,6545.1257980287,8436.8619584852,13389.1997393003,737.7882968591,-6915.4253154413,-4339.2683763912,-7130.4650213932,-20999.2910340602,-9592.3429518822,-3443.0688345943,-5311.3091724856,-527.5791665459,-22293.9704791117,8948.0025666233,11406.0355049163,14330.6752809755
561072122366,36526,5,0,6544.6755932463,8436.4360890964,13384.7706976568,737.4476013480,-6915.2671353826,-4339.1101963325,-7127.9463081508,-21000.3131205934,-9592.3551195790,-3443.2635177434,-5307.9143850720,-528.9297808933,-22293.9704791117,8948.1485789852,11402.6285498059,14329.4706789900
561072122366,36526,5,0,6547.2794803664,8439.1981562752,13395.7702955847,739.9663145904,-6915.8390171333,-4328.6338093680,-7127.1675755542,-21004.2432866672,-9593.7909078041,-3440.8056429852,-5307.2938325340,-533.5413379892,-22293.9096406276,8945.9583935571,11398.5523713702,14325.2484881924
561072122366,36526,5,0,6550.8932863228,8444.1990796694,13404.8230620210,747.1574234128,-6914.3058873336,-4320.7004710394,-7128.4330160237,-21005.1801993225,-9592.7201504837,-3442.0954188484,-5310.0802351065,-534.4904183414,-22295.1142426131,8945.8975550729,11398.4063590083,14320.6247633997
561072156316,36527,5,0,6551.7328574036,8443.6515333124,13404.8595651115,746.7802248112,-6913.3324715878,-4325.5432143749,-7130.7692138138,-21004.4014667259,-9592.5376350314,-3442.8741514451,-5314.2659228136,-533.2979840527,-22293.5081066325,8947.1386601489,11400.5600413460,14321.3426575123
561072156316,36527,5,0,6550.7959447482,8441.3518386128,13396.4395189100,742.3025123804,-6912.3833912356,-4336.1777813982,-7130.0026489139,-21001.8462503930,-9591.3086976523,-3442.5942944182,-5312.3312590187,-529.5746688249,-22292.4373493120,8948.6231191613,11403.1639284661,14327.1588165936
561072156316,36527,5,0,6550.7107708705,8440.4149259575,13388.8468760925,738.7738803017,-6911.1666215533,-4339.9497674133,-7129.1144070458,-21000.8971700409,-9589.4227046447,-3444.2004303988,-5310.6886199476,-529.2461410107,-22292.5833616739,8949.8277211468,11404.8674060213,14326.7086118112
561072156316,36527,5,0,6551.4164972862,8441.5221863684,13393.3367562201,742.1078292312,-6912.8822668053,-4331.7730751483,-7128.9562269871,-21003.1725293467,-9590.6273066302,-3443.8232317973,-5309.3136702066,-533.4683318082,-22293.1430757278,8946.9318093029,11404.6727228721,14325.2728235861
561072156316,36527,5,0,6552.4750869098,8442.6659498697,13403.8009754879,746.1475045764,-6913.1012853481,-4322.3796132010,-7129.4916056473,-21004.8151684178,-9590.5299650556,-3440.9394876502,-5312.6597868329,-536.2425666839,-22293.4716035420,8948.6839576454,11403.5654624612,14325.3701651607
561072156316,36527,5,0,6551.8788697655,8442.3009189650,13402.6693796833,745.8189767622,-6911.0692799787,-4322.7811471961,-7130.0026489139,-21004.4988083005,-9591.5763869824,-3441.1706738899,-5317.0523253860,-532.8477792703,-22293.7879636594,8950.7524661053,11403.8453194882,14327.3656674396
561072156316,36527,5,0,6550.0902183325,8440.2080751115,13393.4097624011,740.8058856712,-6909.6091563600,-4330.8361624929,-7127.4596002779,-20999.7899096300,-9589.7390647621,-3439.9295688139,-5315.3975186181,-527.2141356413,-22291.6707844122,8953.9647380666,11406.0841757036,14330.8942995183
561072156316,36527,5,0,6548.7274362883,8439.5753548767,13389.3822547527,740.8423887616,-6907.4311386287,-4331.7365720578,-7123.1400679058,-20995.8719112530,-9587.3906992753,-3437.3500170875,-5308.2794159767,-525.4498196019,-22291.3544242948,8952.6749622033,11406.5587158797,14333.4008450638
561072182437,36528,5,0,6550.9054540196,8441.6073602461,13396.4273512132,744.8333933196,-6906.8835922716,-4320.7491418267,-7120.0494729127,-20996.0787620990,-9586.7336436468,-3435.4275209894,-5303.9842189982,-527.2993095190,-22293.1795788182,8950.4239382911,11405.6583063148,14331.1376534547
561072182437,36528,5,0,6556.1253959567,8448.0684072591,13407.3052721729,753.0344209782,-6904.1093573960,-4309.5913638401,-7118.7962001400,-20996.5654699719,-9584.4339489473,-3431.8380504267,-5303.5096788221,-528.1753836903,-22291.9749768328,8950.8619753767,11407.6173055033,14329.7018652296
561072182437,36528,5,0,6555.4805080251,8446.7542960022,13410.1038424421,750.1993476185,-6904.5960652689,-4312.4629402903,-7122.8967139693,-20999.0111770333,-9584.4339489473,-3430.8159638935,-5308.2185774926,-529.1244640425,-22292.2426661629,8952.9426515334,11407.7389824715,14331.2593304230
561072182437,36528,5,0,6550.9176217165,8442.0332296349,13398.8608905777,742.8257233438,-6907.6014863842,-4326.0299222479,-7126.0116443560,-20999.7899096300,-9585.7845632946,-3434.1742482167,-5310.9684769745,-527.6400050301,-22290.7217040600,8952.7601360811,11408.6150566428,14334.8731363794
561072182437,36528,5,0,6551.2461495307,8441.0598138891,13391.9253033887,739.7959668349,-6906.4333874892,-4331.9312552070,-7125.5127687862,-20998.1107674684,-9585.1883461503,-3435.7317134100,-5307.1356524753,-525.1699625750,-22288.8113756588,8954.4149428490,11410.6713974058,14336.3940984822
561072182437,36528,5,0,6552.7914470272,8443.7367071901,13399.2259214824,743.2150896421,-6904.7664130244,-4325.4580404972,-7124.8192100673,-20998.8529969746,-9582.9981607222,-3434.4176021531,-5303.6556911840,-527.0924586730,-22286.9618857417,8954.3784397585,11408.6150566428,14332.4639324084
561072182437,36528,5,0,6554.7382785189,8446.2432527357,13408.7288927011,747.9361560094,-6905.5816487116,-4317.9019007701,-7126.3280044734,-21000.5686422266,-9583.7890610157,-3436.0237381338,-5306.5029322405,-530.4872460866,-22288.9087172334,8955.4857001694,11407.2279392049,14325.0781404369
561072182437,36528,5,0,6558.9117985291,8448.9931522176,13413.7054807017,750.9172417310,-6902.2720351757,-4316.2470940022,-7126.1333213242,-21000.2036113220,-9581.6840494653,-3435.7438811068,-5310.2870859525,-528.0050359347,-22283.5670983281,8957.5298732357,11408.0796779826,14324.2385693561
561072206374,36529,5,0,6557.6341903627,8446.2189173420,13406.4900364857,745.7094674908,-6900.0818497476,-4325.7378975241,-7125.7926258132,-20997.1008486321,-9580.5159505703,-3434.8069684515,-5311.3456755761,-524.5615777339,-22281.8757884697,8962.0684241506,11411.2676145502,14332.4517647116
561072206374,36529,5,0,6555.2006509981,8443.8218810679,13397.0600714479,741.6332890551,-6899.4126264223,-4331.9069198133,-7124.1499867421,-20995.2635264118,-9579.5425348245,-3434.7096268769,-5307.9873912529,-521.6534981932,-22280.4034971541,8961.1315114953,11411.5474715771,14336.4306015727
561072206374,36529,5,0,6556.5025945582,8445.2941723835,13399.0920768174,744.3831885371,-6900.5685576205,-4325.6283882527,-7121.9354659203,-20997.7335688669,-9579.5547025213,-3435.7317134100,-5305.8702120057,-525.5836642670,-22281.0970558731,8957.5907117198,11408.6272243396,14331.0768149706
561072206374,36529,5,0,6554.6287692474,8447.8980595036,13406.5022041825,746.7923925081,-6903.9268419436,-4317.7315530146,-7125.6466134513,-21004.4988083005,-9583.7160548347,-3436.0115704369,-5311.0414831555,-532.7382699989,-22286.5846871402,8953.1495023794,11402.3243573853,14321.3669929059
561072206374,36529,5,0,6551.4408326798,8445.5496940168,13407.2809367792,745.1862565274,-6907.3337970541,-4319.8365645650,-7131.3775986549,-21006.6646583349,-9587.4028669721,-3438.5302836793,-5319.5467032347,-535.6585172364,-22289.1885742603,8952.1395835431,11399.0755823336,14317.4733299226
561072206374,36529,5,0,6549.2019764644,8441.6560310334,13396.9018913892,739.4917744143,-6908.9399330347,-4331.2133610944,-7133.1175793006,-21003.9755973371,-9588.0234195101,-3439.1751716109,-5321.0554976408,-531.9108666149,-22286.8888795608,8954.7069675728,11405.5122939529,14329.6410267455
561072206374,36529,5,0,6547.1943064886,8439.3198332434,13386.5593490897,735.6467822183,-6907.2364554795,-4336.2994583664,-7130.5015244836,-20999.5100526030,-9585.7845632946,-3438.6154575571,-5314.4484382659,-527.8955266633,-22284.8325387977,8955.5465386535,11403.9183256691,14334.4350992938
561072206374,36529,5,0,6548.6909331979,8443.0431484712,13391.4264278189,740.2340039205,-6908.4288897681,-4330.5441377692,-7128.6155314761,-21000.8241638599,-9585.8575694756,-3440.7448045011,-5310.9928123682,-528.9906193774,-22285.7207806658,8955.5222032599,11404.9404122022,14334.5446085652
561072283173,36530,5,0,6550.6621000832,8445.3063400803,13397.4737731399,745.6486290067,-6911.9331864531,-4323.1705134945,-7131.4141017454,-21005.4843917431,-9591.0531760190,-3444.3221073670,-5314.9716492293,-534.7094368842,-22291.8776352582,8950.6429568339,11399.7204702652,14326.6477733271
561072283173,36530,5,0,6549.7373551246,8445.9633957087,13401.1119144900,746.5490385716,-6915.7051724683,-4323.9979168784,-7136.0013234476,-21009.0495269122,-9596.6868196480,-3446.8408206094,-5321.8707333279,-537.4228332757,-22296.2945092049,8947.5036910536,11396.6177075753,14322.6932718596
561072283173,36530,5,0,6547.1578033982,8441.7290372143,13394.3466750564,740.6963763998,-6917.2626376616,-4334.1944468161,-7137.0964161617,-21008.3924712838,-9598.1712786604,-3448.7024782233,-5326.0199179445,-536.9117900091,-22297.1705833762,8946.2382505840,11396.8367261182,14323.8248676641
561072283173,36530,5,0,6542.9721156911,8436.9349646661,13383.7121080332,734.6611987756,-6919.0512890946,-4343.4297287047,-7136.7435529538,-21006.5308136699,-9596.6746519512,-3450.9291667419,-5322.2722673231,-534.6729337937,-22297.8641420951,8947.5036910536,11398.9904084558,14325.6865252781
561072283173,36530,5,0,6544.6269224590,8438.9669700355,13384.0649712410,736.5715271768,-6917.1774637838,-4339.1588671198,-7134.7723860685,-21007.6867448681,-9597.2952044891,-3448.4591242868,-5318.8774799095,-536.7657776473,-22298.7402162663,8946.2504182808,11396.8123907245,14321.0506327885
561072283173,36530,5,0,6545.7463505667,8444.8561352978,13395.4174323768,742.4728601359,-6915.5956631968,-4326.7478163604,-7133.6772933544,-21009.4632286042,-9595.0563482737,-3443.6285486481,-5317.7702194986,-539.7103602784,-22297.2679249507,8945.3378410191,11395.3644348026,14318.2642302161
561072283173,36530,5,0,6549.2263118581,8448.5186120415,13403.7523047006,748.2525161268,-6911.4099754898,-4320.5057878902,-7131.9616481024,-21008.6114898266,-9590.6151389334,-3438.9196499776,-5318.4394428238,-536.9117900091,-22291.8654675614,8951.8110557289,11400.0855011699,14321.0506327885
561072283173,36530,5,0,6552.7549439367,8449.7353817238,13402.9857398007,749.2015964790,-6909.6943302377,-4326.9911702969,-7131.6696233786,-21003.5862310387,-9589.0333383464,-3438.6762960412,-5319.7413863839,-531.6431772848,-22289.4927666809,8955.0111599933,11403.5411270676,14326.5991025398
561072289885,36531,5,0,6549.7738582151,8444.3450920313,13391.5846078776,741.3412643314,-6912.2738819642,-4339.4387241467,-7132.0589896770,-21002.9048400166,-9588.8386551972,-3441.8033941247,-5317.8067225890,-529.6841780963,-22288.4220093605,8955.5465386535,11404.5997166912,14332.0502307165
561072289885,36531,5,0,6548.4597469582,8443.4690178600,13387.1433985372,740.2340039205,-6914.3667258177,-4340.9596862496,-7131.7426295596,-21001.6150641534,-9591.6615608601,-3444.6993059685,-5315.3610155276,-529.7815196709,-22290.9285549060,8953.2468439540,11404.8309029308,14329.3368343249
561072289885,36531,5,0,6549.1046348898,8446.6204513372,13394.6386997802,745.2349273147,-6915.0967876271,-4332.3692922926,-7133.3609332370,-21004.6813237528,-9593.5353861709,-3446.0255849222,-5315.8842264910,-534.7094368842,-22294.5910316497,8950.9958200418,11401.8498172092,14325.2849912829
561072289885,36531,5,0,6547.7540205425,8445.1724954152,13401.0875790963,745.4052750702,-6916.8246005760,-4329.5950574170,-7136.5367021078,-21008.4168066774,-9596.9058381908,-3445.9647464381,-5320.4106097091,-537.7756964836,-22297.8033036110,8948.6717899486,11400.9007368570,14321.9510423534
561072289885,36531,5,0,6547.5836727870,8444.2599181535,13395.5026062546,742.1443323217,-6918.0657056519,-4337.3702156868,-7140.9779114482,-21009.0495269122,-9597.7089061811,-3449.5785523945,-5325.9712471572,-537.5566779408,-22298.2656760902,8947.1629955425,11401.2049292776,14320.1015524363
561072289885,36531,5,0,6543.5318297449,8439.4415102116,13385.0992254710,735.7197883992,-6920.8277728307,-4348.3698136148,-7141.3551100497,-21008.4776451616,-9598.0982724795,-3451.5618869767,-5324.8518190495,-534.5755922191,-22295.3697642464,8946.2382505840,11401.5091216982,14324.7009418354
561072289885,36531,5,0,6543.6900098036,8440.7799568622,13382.8360338619,734.9653911962,-6922.3852380240,-4348.5523290671,-7139.8584833405,-21007.4920617189,-9597.9887632081,-3451.3307007370,-5320.0455788045,-535.8897034760,-22296.5135277477,8950.6307891371,11403.8939902755,14328.7406171806
561072289885,36531,5,0,6548.8247778629,8446.8516375768,13392.5701913203,741.1465811822,-6922.7015981414,-4338.1367805867,-7139.6881355850,-21011.3857247022,-9598.7188250174,-3452.7178181748,-5320.6052928583,-539.5278448261,-22298.3021791807,8950.0467396896,11400.3288551063,14323.8005322705
561072307474,36532,5,0,6548.9707902248,8447.1801653910,13397.5954501082,744.3466854467,-6925.2446467774,-4333.2453664639,-7143.3627800255,-21016.3379773092,-9601.4565568026,-3453.0463459891,-5325.5940485557,-544.4679297362,-22301.3197679928,8949.0003177628,11397.3477693847,14321.1601420599
561072307474,36532,5,0,6547.3524865473,8443.1891608331,13394.8698860198,739.8081345317,-6925.9017024059,-4339.3292148753,-7146.2830272630,-21015.9242756172,-9600.7629980837,-3451.2576945561,-5329.5850531136,-543.8717125919,-22300.5045323056,8948.5501129803,11398.0778311941,14325.3945005543
561072307474,36532,5,0,6544.9919533637,8438.7357837959,13385.1965670456,734.2353293868,-6923.3464860731,-4346.4351498199,-7143.7764817175,-21012.0792834211,-9597.4655522447,-3449.6028877882,-5326.7743151475,-538.0068827232,-22296.5865339287,8951.8110557289,11402.0079972679,14332.4274293180
561072307474,36532,5,0,6545.2839780874,8438.8209576737,13379.0032093627,733.5904414552,-6920.1585495054,-4345.8997711597,-7138.5565397804,-21008.3559681933,-9594.8251620341,-3447.8872425361,-5320.4957835869,-535.7680265078,-22295.3940996400,8952.4924467510,11402.6772205932,14333.7658759685
561072307474,36532,5,0,6546.0018722000,8441.4856832779,13388.3845036132,738.1654954606,-6921.2171391290,-4336.2872906696,-7139.6394647977,-21012.4929851131,-9597.1735275209,-3446.8529883062,-5319.4736970538,-541.0974777162,-22300.6140415771,8947.2116663298,11399.8664826271,14327.9983876744
561072307474,36532,5,0,6545.8680275349,8442.3009189650,13395.3322584991,739.2970912651,-6923.8696970364,-4331.4932181214,-7142.4258673701,-21015.8877725267,-9601.4443891058,-3449.6150554850,-5325.6427193430,-545.0641468805,-22304.3738598953,8943.5613572829,11397.5667879275,14324.1290600847
561072307474,36532,5,0,6544.2862269479,8439.6848641481,13391.4142601221,738.2385016415,-6924.9039512664,-4336.7253277552,-7143.8251525048,-21014.8048475095,-9602.0892770374,-3450.3937880817,-5328.8428236074,-540.5255959656,-22304.7997292841,8943.7925435226,11400.2193458349,14326.6112702366
561072307474,36532,5,0,6545.4908289334,8442.8971361093,13387.4110878674,736.5836948736,-6922.1540517844,-4342.5049837461,-7139.2014277121,-21007.4798940221,-9598.4024649000,-3445.9890818318,-5323.2456830689,-533.0424624194,-22301.0155755722,8946.1287413126,11402.5312082313,14335.0921549222
561072356349,36533,5,0,6546.6345924348,8444.7466260264,13383.6877726395,737.7152906782,-6919.3554815151,-4343.1255362841,-7133.5069455989,-21002.2477843882,-9595.8715839609,-3445.5997155334,-5316.0424065497,-530.2682275438,-22298.9592348091,8946.6154491855,11403.1639284661,14338.3774330644
561072356349,36533,5,0,6551.9397082496,8448.9809845208,13391.2439123666,742.8743941311,-6918.5037427375,-4333.3305403416,-7132.4970267626,-21004.2797897576,-9594.7643235500,-3444.5532936067,-5314.2659228136,-533.6873503511,-22302.1958421640,8944.1819098209,11400.9372399475,14333.2791680956
561072356349,36533,5,0,6554.5679307633,8450.5749528046,13402.8762305293,747.4372804397,-6920.0125371436,-4326.9181641159,-7133.8719765036,-21007.0661923301,-9595.6403977212,-3442.8254806578,-5317.8675610732,-537.6053487280,-22302.0985005895,8940.4950976836,11395.4252732867,14327.9862199776
561072356349,36533,5,0,6550.7472739609,8448.1292457432,13402.7423858643,743.9329837547,-6920.6939281657,-4331.4323796372,-7137.5831240346,-21007.5529002030,-9597.1613598241,-3445.4172000811,-5324.0974218465,-537.0699700678,-22302.9867424575,8945.4716856841,11397.9926573163,14331.0159764865
561072356349,36533,5,0,6548.0703806599,8441.8020433953,13391.5602724840,737.3867628639,-6921.0467913735,-4343.8677657903,-7137.9968257266,-21007.6867448681,-9598.2807879318,-3447.6803916901,-5325.0221668050,-534.5269214318,-22301.2102587214,8947.8200511710,11398.0899988909,14331.8068767800
561072356349,36533,5,0,6546.2330584396,8440.6217768035,13386.0848089137,734.3570063550,-6918.7835997645,-4346.2282989739,-7135.3807709096,-21006.0319381001,-9595.9445901418,-3446.2567711619,-5318.1717534937,-532.9816239353,-22297.9128128824,8946.3842629459,11399.0512469399,14338.3409299739
561072356349,36533,5,0,6550.2849014817,8444.1260734885,13393.4462654915,740.0149853777,-6917.4086500235,-4337.3702156868,-7133.7868026258,-21007.9300988045,-9595.7377392958,-3444.8696537240,-5316.9549838114,-535.7193557205,-22296.7082108969,8947.7105418996,11397.3112662942,14330.0547284375
561072356349,36533,5,0,6555.9672158980,8449.6380401493,13405.2854345003,747.0844172318,-6915.6565016810,-4327.0155056905,-7132.5700329435,-21008.7940052789,-9595.6890685085,-3443.9570764623,-5319.7170509902,-538.4084167184,-22298.1074960315,8948.7326284327,11399.1242531209,14326.2584070287
561072377387,36534,5,0,6556.4782591645,8448.3117611956,13409.2642713614,746.5003677843,-6914.3423904241,-4327.4048719889,-7134.6750444939,-21008.5749867361,-9594.1437710120,-3443.8962379782,-5323.9149063942,-538.1528950851,-22298.2048376061,8947.6862065059,11397.9683219227,14326.2462393319
561072377387,36534,5,0,6554.4584214919,8445.0508184470,13401.3796038201,741.5967859647,-6913.4298131624,-4336.4333030315,-7134.4195228606,-21005.1436962321,-9592.8053243615,-3443.5677101640,-5323.9635771814,-534.8554492461,-22296.2093353271,8951.1053293132,11398.5158682797,14330.6266101882
561072377387,36534,5,0,6554.0568874968,8445.1116569311,13394.6508674770,741.3777674219,-6909.5361501790,-4339.1832025135,-7130.4406859995,-21001.5785610629,-9589.3983692511,-3444.7844798463,-5317.6728779240,-530.6210907517,-22292.1209891946,8951.8962296067,11400.5478736492,14335.0678195285
561072377387,36534,5,0,6557.2204886707,8449.3946862128,13400.6252066171,747.8631498285,-6907.4311386287,-4330.3251192264,-7127.8611342731,-21000.9945116154,-9587.6097178181,-3442.3266050881,-5312.9396438599,-531.5580034070,-22293.1795788182,8951.9327326971,11400.0124949889,14334.3864285065
561072377387,36534,5,0,6560.7856238399,8454.8701497831,13415.0439273523,754.2025198732,-6906.5672321542,-4318.8388134255,-7128.1288236032,-21002.3329582660,-9586.7458113437,-3439.7105502711,-5312.7692961043,-532.2028913387,-22293.0700695468,8950.3996028974,11400.6573829206,14331.7582059927
561072377387,36534,5,0,6562.2457474586,8455.1621745069,13415.3846228633,755.5774696142,-6905.6789902861,-4317.7437207114,-7130.6353691487,-21002.8683369262,-9586.2956065612,-3440.2580966282,-5318.0257411319,-531.5093326198,-22293.4837712388,8951.3000124623,11401.7889787251,14329.8113745010
561072377387,36534,5,0,6559.1794878592,8449.3216800319,13404.5918757813,748.6905532124,-6906.7375799097,-4327.5873874412,-7133.1540823910,-21002.5763122024,-9587.1595130356,-3441.1463384962,-5320.3984420123,-529.8666935487,-22293.8974729308,8954.0255765507,11405.6704740116,14333.0114787655
561072377387,36534,5,0,6556.5147622550,8448.2022519242,13396.9018913892,743.9086483610,-6906.4820582765,-4335.3017072269,-7132.5335298531,-21000.2887851997,-9586.6363020723,-3440.5501213519,-5316.7481329654,-528.3578991426,-22292.5468585834,8955.5587063504,11407.7268147747,14337.3918496217
561072408860,36535,5,0,6556.1862344408,8449.6867109366,13396.2691711545,746.1596722733,-6907.4189709318,-4329.2543619059,-7131.5114433200,-21001.2865363392,-9586.8066498278,-3440.9881584375,-5314.7526306865,-530.4507429962,-22293.2647526960,8954.9503215092,11404.7700644467,14333.8388821494
561072408860,36535,5,0,6558.9969724069,8454.5781250594,13406.8550673904,752.5233777117,-6907.6744925651,-4319.1673412397,-7131.8764742246,-21005.2532055035,-9587.4393700626,-3439.5888733029,-5315.9937357624,-533.5048348987,-22295.1020749163,8952.7723037779,11401.5942955759,14329.9330514693
561072408860,36535,5,0,6563.4016786568,8457.2306829668,13415.7739891616,754.4823769002,-6908.9521007315,-4318.0965839193,-7134.6507091003,-21008.1247819537,-9588.8873259845,-3439.5888733029,-5321.8829010247,-535.2934863317,-22296.0998260557,8952.1882543304,11400.5113705587,14328.9961388139
561072408860,36535,5,0,6561.8077103730,8454.7971436022,13409.7631469311,751.0754217897,-6912.5172359006,-4331.9555906006,-7137.8629810615,-21006.1171119779,-9591.4668777110,-3443.2635177434,-5327.2001845364,-533.8820335002,-22295.4427704273,8950.8254722862,11401.0954200062,14331.3201689071
561072408860,36535,5,0,6558.5467676244,8452.4001073281,13398.4715242794,746.8167279017,-6914.9872783557,-4341.8235927240,-7138.3496889344,-21005.3018762908,-9594.2532802834,-3445.7578955921,-5325.4967069811,-533.0059593290,-22296.5865339287,8948.9394792787,11397.8588126513,14330.9429703056
561072408860,36535,5,0,6559.6418603385,8455.6367146830,13399.9681509886,748.5080377601,-6916.2283834316,-4339.4630595404,-7139.0554153502,-21006.2387889461,-9595.8350808704,-3446.7921498221,-5322.5156212595,-535.7193557205,-22298.8010547504,8945.8245488920,11397.4329432625,14329.6288590487
561072408860,36535,5,0,6562.5012690919,8457.2550183604,13408.1570109505,751.9879990515,-6915.9606941015,-4330.0817652899,-7139.5299555263,-21009.9499364771,-9596.9423412813,-3447.8750748393,-5323.6958878513,-540.2335712418,-22301.2710972055,8943.7317050385,11394.1598328171,14322.6811041628
561072408860,36535,5,0,6564.7766283978,8457.8025647175,13414.8005734158,755.5287988269,-6915.4983216223,-4327.1493503556,-7141.3672777465,-21011.3978923991,-9595.7377392958,-3447.2545223013,-5328.0762587076,-540.6229375401,-22302.9380716702,8942.7461215958,11393.6244541569,14320.8681173362
561072427565,36536,5,0,6562.7081199379,8455.0404975386,13410.1160101390,750.3453599804,-6916.6299174268,-4337.0173524790,-7142.8639044558,-21010.1811227168,-9597.2830367923,-3449.1891860962,-5330.8139904928,-539.0776400436,-22303.3517733622,8942.0038920896,11395.5469502549,14326.3800839970
