timestamp,sequence,battery,flags,EEG-ch1,EEG-ch2,EEG-ch3,EEG-ch4,EEG-ch5,EEG-ch6,EEG-ch7,EEG-ch8,EEG-ch9,EEG-ch10,EEG-ch11,EEG-ch12,EEG-ch13,EEG-ch14,EEG-ch15,EEG-ch16
11002356847,19440,-2,0,28375.8842267879,6223.6552479666,4573.3018570837,12550.1762048744,-46087.5487531669,-3893.3831263145,-51657.1051230227,-58516.2305052642,-11171.2841301113,-39439.3990661384,-53518.8114077201,-23091.2101426477,-36824.8895467023,-8738.7181812687,-15298.4573831818,-2868.1938304975
11002356847,19440,-2,0,28371.5768621126,6201.1085057537,4573.2653539932,12544.4208842771,-46086.1007972450,-3893.0059277130,-51655.8031794626,-58514.8190524328,-11171.4544778668,-39437.9511102164,-53516.7307315634,-23089.9203667845,-36825.8021239641,-8739.1562183543,-15297.2406134995,-2867.0378992994
11002356847,19440,-2,0,28370.5061047921,6200.1715930983,4573.8737388344,12542.1820280617,-46086.3928219688,-3891.4606302165,-51654.4525651153,-58514.7703816455,-11170.1403666099,-39437.7199239768,-53516.7063961697,-23088.6184232244,-36823.9161309565,-8741.3464037825,-15302.8864248254,-2872.0631580872
11002356847,19440,-2,0,28372.4772716775,6224.8111791648,4570.8196469318,12543.2406176853,-46088.0719641303,-3893.3101201336,-51656.4480673942,-58518.2016721495,-11172.2453781603,-39438.3648119084,-53519.3102832898,-23090.2853976892,-36824.9382174896,-8744.0598001740,-15310.3208875842,-2882.6125512327
11002356847,19440,-2,0,28370.0924031002,6218.2284551836,4571.0143300810,12541.4397985555,-46088.6073427905,-3894.6485667841,-51657.7378432574,-58519.2359263795,-11172.4522290063,-39439.6910908621,-53520.7339038181,-23091.0397948922,-36826.6903658321,-8742.3928257092,-15311.5741603569,-2883.1966006802
11002356847,19440,-2,0,28371.2361666015,6225.0301977076,4573.5087079297,12541.2086123158,-46088.2301441890,-3893.3466232240,-51655.8883533404,-58517.6784611862,-11170.8217576320,-39438.8028489940,-53518.2273582726,-23089.8108575131,-36826.2888318370,-8739.5820877431,-15308.7025839067,-2879.2786023032
11002356847,19440,-2,0,28374.8256371643,6244.8027050449,4573.4965402329,12542.8999221742,-46088.6195104874,-3893.0424308035,-51656.5940797561,-58518.1895044527,-11171.8803472556,-39438.5108242703,-53520.0281774024,-23091.5265027651,-36826.7633720131,-8738.5965043005,-15307.4614788308,-2879.6192978143
11002356847,19440,-2,0,28369.7882106796,6222.8643476731,4572.9611615726,12537.9841726578,-46090.0674664093,-3894.5390575127,-51657.7865140447,-58519.3576033477,-11173.5229863267,-39440.7618481825,-53521.0015931482,-23092.4634154205,-36828.7223712016,-8742.4779995870,-15309.2257948701,-2881.0185829489
11002391800,19441,-2,0,28367.0869819849,6212.3757930117,4571.0508331714,12532.3505290287,-46091.9291240232,-3896.1938642806,-51659.7090101428,-58521.4261118076,-11175.5793270898,-39441.7109285347,-53522.2426982241,-23092.9987940807,-36829.3672591332,-8744.0354647803,-15307.9846897942,-2882.6612220200
11002391800,19441,-2,0,28367.9630561561,6239.0595521444,4567.8020581197,12534.6015529410,-46091.4667515439,-3895.7679948918,-51658.6747559128,-58518.1773367559,-11174.4720666789,-39441.2607237523,-53521.0624316323,-23092.1105522126,-36828.2234956318,-8741.9061178363,-15302.6917416762,-2881.3349430663
11002391800,19441,-2,0,28369.3015028067,6236.7476897481,4569.2013432544,12536.2806951026,-46088.9358706048,-3892.6408968083,-51655.5598255261,-58519.5644541937,-11171.3449685954,-39438.3283088179,-53518.9087492947,-23089.3241496402,-36826.3618380179,-8738.1341318212,-15297.5326382233,-2876.3583550657
11002391800,19441,-2,0,28369.0581488702,6221.8179257463,4573.9589127121,12534.9057453616,-46085.3220646483,-3890.7914068912,-51653.0654476774,-58518.6762123256,-11169.3007955291,-39435.5784093360,-53516.8767439252,-23088.3629015911,-36820.6430205111,-8734.5933320457,-15297.5448059201,-2872.9027291680
11002391800,19441,-2,0,28371.9418930172,6235.1293860706,4573.6912233820,12536.7430675818,-46085.5532508880,-3889.5868049058,-51653.6981679122,-58519.9173174016,-11168.7897522626,-39435.6514155169,-53519.6144757104,-23089.7986898162,-36818.9760460464,-8731.9286064415,-15300.0391837688,-2872.7932198966
11002391800,19441,-2,0,28368.1820746990,6221.0513608465,4569.7975603987,12535.2099377821,-46086.8551944480,-3890.0613450818,-51656.2290488514,-58522.7280553677,-11169.7023295243,-39437.8050978546,-53521.5734748989,-23091.8063597920,-36818.6110151417,-8733.6077486031,-15303.0081017936,-2873.8639772170
11002391800,19441,-2,0,28365.5295167916,6207.4478757984,4568.4956168386,12531.8273180654,-46085.3098969515,-3890.9374192531,-51656.9347752671,-58522.3873598566,-11170.7487514511,-39439.5815815907,-53522.0480150750,-23091.4291611905,-36818.1729780561,-8733.7172578745,-15306.2203737548,-2874.0099895789
11002391800,19441,-2,0,28367.7927084006,6228.9481960846,4566.4027729851,12536.0130057725,-46089.2522307222,-3890.7427361039,-51658.4314019764,-58524.8939054022,-11170.7974222384,-39440.3359787937,-53521.4031271434,-23090.8572794398,-36817.3212392785,-8731.8069294733,-15299.8688360133,-2874.0099895789
11002424499,19442,-2,0,28364.9332996472,6218.8368400247,4565.3806864520,12534.1756835522,-46090.3959942235,-3892.1906920259,-51660.1957180157,-58525.2589363068,-11171.7343348937,-39440.5793327302,-53521.2327793878,-23090.7356024716,-36821.8354547998,-8728.9840238104,-15293.8823291764,-2870.1771650797
11002424499,19442,-2,0,28359.6890223165,6188.8434673562,4563.1296625397,12530.8417346227,-46092.0508009914,-3894.5025544222,-51661.4368230916,-58524.8330669180,-11174.1557065615,-39441.7839347157,-53520.6000591530,-23088.9104479482,-36821.5434300760,-8728.3878066660,-15292.1058454402,-2869.4957740576
11002424499,19442,-2,0,28359.9688793435,6201.4126981743,4560.8543032338,12533.7011433761,-46092.5375088643,-3895.9140072537,-51663.0551267691,-58523.9204896563,-11174.7762590995,-39442.5018288282,-53520.9772577546,-23089.4823296989,-36822.3099949759,-8729.4950670769,-15289.6844737725,-2870.7612145272
11002424499,19442,-2,0,28362.5849341604,6209.0175086886,4561.8277189797,12537.9476695673,-46091.5884285122,-3895.0379330824,-51660.6337551013,-58522.0709997392,-11174.7275883122,-39442.0272886521,-53520.9407546641,-23088.0952122610,-36821.6407716506,-8731.2350477226,-15289.6114675915,-2870.1163265956
11002424499,19442,-2,0,28363.8625423268,6198.5167863304,4564.1517490728,12538.7507375576,-46091.2477330011,-3894.6363990873,-51659.0276191207,-58519.6496280715,-11172.0263596175,-39440.7618481825,-53519.1886063216,-23086.8297717915,-36819.4749216161,-8730.7848429402,-15291.5582990832,-2868.9117246101
11002424499,19442,-2,0,28365.0184735250,6211.3537064786,4561.2436695322,12539.9431718463,-46091.8561178423,-3895.9505103442,-51659.2466376635,-58521.4991179886,-11173.9488557155,-39442.2219718013,-53519.7239849818,-23089.6283420607,-36821.4460885015,-8731.1863769353,-15293.3591182130,-2867.1839116612
11002424499,19442,-2,0,28362.3294125271,6212.8868362783,4558.3599253851,12540.8192460175,-46095.2144021654,-3897.1429446328,-51660.0618733506,-58523.2999371184,-11176.0173641754,-39444.5581695913,-53521.3179532656,-23091.2831488287,-36824.4271742231,-8731.4297308718,-15294.7462356508,-2867.5732779596
11002424499,19442,-2,0,28356.2820672061,6185.9353878155,4556.3765908030,12536.5240490390,-46094.7763650798,-3899.1019438213,-51658.5774143382,-58521.7424719250,-11176.8812706498,-39446.1886409656,-53521.2936178720,-23091.1006333763,-36825.8872978418,-8733.2670530920,-15297.7273213724,-2869.6296187226
11002448201,19443,-2,0,28358.4722526343,6203.7002251770,4557.4595158202,12538.0571788387,-46096.2364886985,-3899.6251547847,-51661.1691337615,-58524.5167068006,-11178.0737049385,-39446.4441625988,-53521.2692824783,-23091.0641302858,-36825.6074408149,-8735.4329031265,-15300.7935809718,-2874.6670452073
11002448201,19443,-2,0,28363.8747100236,6222.5844906462,4558.8466332580,12544.2262011279,-46094.6668558084,-3896.9604291805,-51657.6770047733,-58520.1485036412,-11174.8857683709,-39443.4874122709,-53518.6653953582,-23088.7035971022,-36823.6606093232,-8733.7050901777,-15296.6443963552,-2878.4755343129
11002448201,19443,-2,0,28365.2131566742,6204.2964423213,4563.7137119872,12545.0901076024,-46090.3351557394,-3893.5169709796,-51654.7445898390,-58518.2260075432,-11170.6635775733,-39439.5937492875,-53515.5139618811,-23084.0433692190,-36821.1783991713,-8728.8258437517,-15292.4952117386,-2879.3151053937
11002448201,19443,-2,0,28365.9188830899,6205.9877521797,4567.2180086722,12545.3943000229,-46089.2278953285,-3890.6210591357,-51652.7612552569,-58516.6807100467,-11168.3760505706,-39436.5883281723,-53513.1899317879,-23083.0699534732,-36816.9927114643,-8726.7086645045,-15287.6403007062,-2874.5210328455
11002448201,19443,-2,0,28366.5394356279,6214.4686368653,4563.9814013173,12544.0558533724,-46089.2765661158,-3892.0933504513,-51652.2502119903,-58518.6397092352,-11171.0894469621,-39438.1214579720,-53514.5405461352,-23084.8951079966,-36818.7326921099,-8728.0592788518,-15287.2022636206,-2869.8364695686
11002448201,19443,-2,0,28362.2929094367,6197.7380537337,4562.5699484859,12540.1621903891,-46090.1161371966,-3893.9185049747,-51654.2822173597,-58522.2778505852,-11171.8803472556,-39439.4842400161,-53515.7573158175,-23086.9392810629,-36820.9837160222,-8731.2228800258,-15290.7917341833,-2869.2889232116
11002448201,19443,-2,0,28362.0373878034,6208.9079994172,4562.0832406129,12536.7674029755,-46090.8461990060,-3894.2592004858,-51654.4769005089,-58523.4337817834,-11171.3449685954,-39439.0462029305,-53516.3900360523,-23087.8761937182,-36822.6141873965,-8731.6852525051,-15292.5925533131,-2870.3110097447
11002448201,19443,-2,0,28365.5903552757,6228.3154758498,4563.6650411999,12539.2982839146,-46090.9557082774,-3892.2028597227,-51654.5255712962,-58523.2877694215,-11170.0916958226,-39436.8560175024,-53515.3922849128,-23088.2168892293,-36823.5267646582,-8726.2341243284,-15286.6303818699,-2869.8973080527
11002476621,19444,-2,0,28362.6214372509,6204.3816161991,4566.1107482613,12535.1977700853,-46088.5221689128,-3892.5192198401,-51654.7689252326,-58523.7744772944,-11169.1547831673,-39437.3062222848,-53516.5968868983,-23087.4138212390,-36821.9327963744,-8724.7618330128,-15285.4136121876,-2869.9946496273
11002476621,19444,-2,0,28361.2343198131,6197.0809981053,4563.3000102952,12532.0950073955,-46090.8705343996,-3894.3443743635,-51657.7378432574,-58527.0354200430,-11171.6734964096,-39439.8736063145,-53520.0281774024,-23090.3340684765,-36822.7236966679,-8726.8181737759,-15286.0950032097,-2870.2745066543
11002476621,19444,-2,0,28360.1513947958,6214.2009475352,4559.8200490039,12527.8849842947,-46092.8295335881,-3898.1163603786,-51658.4800727636,-58529.1525992902,-11173.1944585125,-39442.2949779822,-53524.1408589285,-23095.7000227754,-36824.1473171961,-8732.0259480161,-15287.4821206475,-2869.1550785465
11002476621,19444,-2,0,28355.5033346095,6203.7610636611,4558.5424408375,12525.0985817223,-46096.8935443270,-3898.6030682516,-51667.5815099872,-58539.0449368072,-11176.1755442341,-39444.7406850436,-53526.8785907137,-23098.7662823748,-36826.0333102037,-8734.2526365347,-15291.1080943007,-2871.1384131287
11002476621,19444,-2,0,28357.0729674996,6204.7831501942,4560.6839554783,12524.0399920987,-46096.1148117303,-3899.2601238800,-51667.4354976253,-58538.7529120835,-11175.5063209088,-39445.5315853371,-53526.4648890217,-23098.2430714114,-36826.4713472893,-8733.5590778158,-15292.8115718560,-2872.7202137157
11002476621,19444,-2,0,28361.1248105417,6223.5457386952,4561.1341602607,12526.9724070330,-46095.8349547034,-3898.2988758310,-51666.9244543588,-58538.8502536581,-11175.3846439406,-39445.5072499435,-53526.0998581170,-23097.7928666289,-36827.2014090987,-8731.8312648669,-15291.6191375673,-2875.2754300485
11002476621,19444,-2,0,28360.0175501308,6205.7078951528,4561.1949987449,12525.6582957761,-46093.1337260087,-3898.8585898848,-51663.1403006468,-58537.3657946457,-11175.8348487231,-39445.0813805547,-53524.6519021951,-23097.4643388147,-36824.5366834945,-8730.5658243973,-15293.1644350638,-2874.8252252660
11002476621,19444,-2,0,28360.4434195196,6195.3288497628,4561.0489863830,12525.4271095365,-46094.9102097448,-3899.0167699435,-51665.2209768036,-58538.8989244454,-11174.8492652804,-39443.8889462660,-53526.2458704789,-23097.1601463941,-36824.2811618612,-8733.4252331507,-15297.8368306438,-2877.9158202591
11002511643,19445,-2,0,28365.8337092121,6221.0391931497,4560.6961231751,12527.9093196884,-46094.5816819306,-3897.1307769360,-51666.8636158747,-58539.7628309198,-11174.1070357742,-39443.2562260312,-53526.9029261073,-23098.0605559590,-36824.7313666436,-8735.8101017280,-15300.1000222529,-2881.9798309979
11002511643,19445,-2,0,28364.7994549822,6212.2662837403,4562.2900914589,12527.9336550820,-46095.2144021654,-3897.3376277820,-51667.3016529603,-58540.3468803673,-11173.8393464441,-39443.9254493565,-53527.0489384692,-23098.9244624335,-36826.3009995338,-8736.5279958406,-15301.0977733924,-2885.8734939813
11002511643,19445,-2,0,28360.0662209181,6192.7492980363,4562.0589052193,12525.6339603825,-46097.0638920825,-3899.8685087211,-51666.9974605397,-58540.8579236339,-11176.2120473246,-39445.5680884276,-53525.3819640045,-23097.4035003306,-36827.8341293335,-8737.6474239483,-15301.9008413827,-2889.0492628521
11002511643,19445,-2,0,28360.3217425513,6207.9710867618,4560.8664709306,12528.4933691359,-46095.9687993684,-3900.0631918703,-51666.4620818795,-58539.6654893452,-11175.6036624834,-39444.7893558309,-53524.6032314078,-23096.6126000371,-36829.1604082872,-8735.4937416106,-15300.0391837688,-2886.5062142161
11002511643,19445,-2,0,28359.2874883214,6203.1526788199,4558.8588009549,12528.4203629549,-46095.7619485224,-3899.7346640561,-51665.6103431019,-58539.8601724944,-11175.1534577010,-39444.3634864421,-53523.3256232414,-23094.3615761249,-36828.3695079937,-8737.0390391071,-15300.0148483751,-2882.5030419613
11002511643,19445,-2,0,28359.1049728690,6192.9561488823,4560.4771046323,12529.3329402167,-46093.2310675833,-3896.0235165251,-51664.7951074147,-58539.9818494626,-11173.1214523315,-39442.1246302267,-53523.2404493636,-23093.8870359488,-36824.5488511913,-8738.9858705988,-15301.4871396907,-2882.0771725725
11002511643,19445,-2,0,28363.8747100236,6212.2176129530,4562.0345698256,12530.0995051165,-46091.8439501454,-3894.6363990873,-51664.8924489893,-58539.9818494626,-11170.6027390892,-39440.2264695223,-53523.9583434762,-23094.9577932692,-36824.9382174896,-8738.2071380022,-15297.9463399152,-2881.2741045822
11002511643,19445,-2,0,28363.7895361459,6205.3428642481,4560.7569616592,12527.9458227788,-46094.8250358671,-3896.9360937868,-51668.3724102807,-58543.4496430571,-11172.6712475491,-39442.8790274297,-53526.8177522296,-23097.1844817878,-36825.9968071132,-8735.4085677329,-15295.0504280714,-2878.6093789780
11002541647,19446,-2,0,28357.9733770645,6181.3481661132,4561.2680049258,12523.8939797368,-46094.4843403560,-3900.8054213765,-51671.2318190341,-58546.8079273803,-11175.6036624834,-39446.1156347846,-53529.1539500196,-23099.3868349127,-36827.2135767955,-8733.2548853952,-15296.2306946632,-2878.5972112811
11002541647,19446,-2,0,28359.9567116466,6199.0643326874,4559.8078813070,12526.4491960696,-46096.9178797206,-3902.2533772984,-51672.1930670831,-58546.3942256883,-11175.3603085470,-39447.3810752542,-53530.1882042495,-23100.9077970156,-36829.2577498618,-8733.6320839967,-15297.1311042281,-2881.1767630076
11002541647,19446,-2,0,28359.7498608007,6217.2307040441,4561.0976571703,12531.0242500750,-46095.5916007669,-3899.8685087211,-51669.0781366964,-58544.2648787443,-11174.3990604980,-39445.3247344911,-53528.4968943911,-23099.1556486731,-36828.7345388984,-8736.3454803882,-15297.4474643455,-2882.8437374724
11002541647,19446,-2,0,28355.4181607317,6205.4037027322,4559.5280242801,12529.7831449991,-46095.7132777351,-3900.3917196845,-51668.4089133712,-58543.3157983921,-11174.3503897107,-39445.7019330926,-53528.7402483276,-23100.4332568395,-36828.4790172651,-8739.5455846527,-15299.3334573531,-2880.2520180491
11002541647,19446,-2,0,28356.9147874409,6222.0004411987,4560.7934647497,12533.3482801682,-46095.2874083463,-3903.4944823744,-51666.3404049113,-58538.7650797803,-11176.6622521070,-39445.7992746672,-53526.4040505376,-23099.6666919397,-36831.1437428693,-8737.9029455816,-15299.4673020181,-2876.0541626452
11002541647,19446,-2,0,28358.1802279105,6228.7535129354,4560.5501108132,12538.4465451370,-46097.3559168062,-3901.9856879683,-51665.9997094002,-58538.3392103915,-11176.4675689579,-39444.4121572294,-53525.4671378822,-23097.4643388147,-36830.7787119647,-8734.6054997426,-15296.8390795043,-2872.0996611777
11002541647,19446,-2,0,28354.6880989223,6204.8196532847,4559.8078813070,12535.7209810487,-46098.3293325521,-3902.9834391078,-51664.7829397179,-58538.8380859613,-11177.0759537990,-39444.7528527405,-53525.3697963076,-23096.7829477926,-36830.4501841504,-8734.1066241728,-15297.1189365313,-2869.6539541163
11002541647,19446,-2,0,28357.3893276170,6224.2758005046,4559.5645273706,12538.0450111419,-46097.9764693442,-3901.7301663351,-51664.5760888719,-58537.2562853743,-11175.7740102389,-39443.0615428821,-53523.0579339113,-23094.5927623645,-36830.8152150551,-8735.1287107059,-15293.6998137240,-2871.5521148207
11002577999,19447,-2,0,28362.4875925858,6245.1434005559,4561.9128928574,12543.8368348296,-46094.3018249037,-3896.1208580997,-51661.1326306710,-58531.8538279849,-11170.7852545415,-39438.9245259623,-53518.8965815978,-23090.1272176305,-36827.7976262430,-8731.5270724464,-15287.1170897428,-2874.6913806010
11002577999,19447,-2,0,28365.3956721265,6224.6529991061,4567.3031825500,12546.9274298226,-46090.0552987125,-3891.3754563387,-51657.4458185337,-58525.6604703020,-11166.2223682329,-39435.1160368567,-53513.9808320814,-23085.1627973267,-36822.4438396409,-8726.7695029886,-15282.9557374294,-2874.9103991438
11002577999,19447,-2,0,28368.3402547577,6219.6399080150,4565.7335496598,12545.9783494704,-46090.2499818616,-3893.1884431653,-51657.3363092623,-58526.3296936273,-11167.9258457881,-39435.7974278788,-53514.8204031621,-23084.9437787839,-36822.3951688536,-8727.5847386757,-15283.5276191800,-2870.9558976763
11002577999,19447,-2,0,28368.2550808799,6223.2172108810,4562.4726069113,12544.0680210692,-46093.7786139403,-3897.6783232930,-51660.9136121282,-58527.8628234270,-11172.1358688889,-39440.6523389111,-53519.4076248644,-23087.9370322023,-36828.1748248445,-8730.5414890037,-15281.8484770185,-2865.6629495584
11002577999,19447,-2,0,28365.3835044297,6202.3009400423,4562.6916254541,12540.3325381446,-46096.3459979699,-3900.6959121051,-51663.0551267691,-58531.1481015692,-11173.0362784538,-39443.2683937281,-53520.7217361213,-23089.7500190290,-36829.7444577347,-8734.8975244663,-15286.1923447843,-2866.8188807565
11002577999,19447,-2,0,28364.1667347474,6203.8584052357,4563.0323209651,12537.1811046675,-46095.3239114368,-3900.8784275574,-51663.6391762166,-58533.5086347528,-11173.4864832362,-39444.5946726818,-53522.6077291288,-23093.1326387457,-36828.7710419889,-8738.6938458751,-15290.6092187310,-2871.9901519063
11002577999,19447,-2,0,28366.5759387183,6219.9684358293,4563.6163704126,12537.5461355721,-46095.3725822241,-3901.5233154891,-51666.8636158747,-58537.0129314378,-11173.5959925076,-39446.1521378751,-53526.8420876232,-23097.9875497781,-36829.4889361014,-8738.8155228433,-15297.4596320423,-2877.8793171686
11002577999,19447,-2,0,28360.5164257005,6193.0534904569,4561.2315018353,12530.3793621434,-46099.9476362295,-3904.3948919393,-51670.5990987993,-58542.4518919177,-11176.4554012610,-39448.9142050539,-53530.1030303718,-23100.8226231378,-36831.7156246200,-8741.7966085649,-15304.9549332852,-2882.2840234185
11002606700,19448,-2,0,28358.0463832454,6188.1012378500,4560.5257754196,12527.9944935661,-46098.1711524934,-3904.6747489662,-51669.5891799630,-58542.3302149494,-11176.6135813197,-39448.4274971810,-53528.7402483276,-23100.6766107760,-36831.7034569232,-8740.3121495525,-15305.6241566105,-2884.6567242990
11002606700,19448,-2,0,28361.0761397544,6215.4663880048,4559.5036888865,12528.6880522850,-46097.7331154077,-3902.9104329269,-51667.4233299285,-58539.4708061960,-11175.2629669724,-39446.4684979925,-53526.9150938041,-23099.4233380032,-36831.4966060772,-8738.6330073910,-15303.3001265173,-2886.6643942748
11002606700,19448,-2,0,28360.0783886149,6209.3338688060,4561.4626880750,12529.9291573610,-46094.8372035639,-3900.4403904718,-51665.2939829845,-58537.5483100980,-11172.0141919207,-39443.8402754787,-53525.5766471536,-23097.0871402132,-36828.3695079937,-8734.3621458061,-15298.8467494801,-2886.4453757319
11002606700,19448,-2,0,28363.4853437253,6208.3726207570,4566.9746547358,12534.1270127649,-46090.2864849521,-3895.5003055617,-51661.4003200012,-58534.3847089241,-11167.9745165754,-39439.6180846812,-53522.1331889527,-23094.8361163009,-36822.9670506043,-8730.5171536101,-15295.5493036411,-2884.5107119371
11002606700,19448,-2,0,28367.2329943468,6224.0202788713,4567.0719963103,12536.0981796502,-46091.5884285122,-3894.1861943048,-51661.9478663582,-58534.2021934717,-11169.2277893482,-39438.7663459036,-53522.7294060971,-23096.3205753133,-36824.4515096167,-8733.2062146079,-15295.7561544871,-2882.3570295994
11002606700,19448,-2,0,28364.6777780139,6207.7520682190,4565.9038974153,12533.4821248333,-46092.8295335881,-3898.0311865009,-51664.4787472974,-58538.2783719074,-11172.3548874317,-39443.2197229408,-53525.1507777648,-23098.9366301303,-36827.7976262430,-8740.0079571319,-15301.4384689034,-2881.0185829489
11002606700,19448,-2,0,28362.1834001652,6200.8529841204,4564.6262892489,12530.9999146814,-46095.9687993684,-3901.9370171810,-51666.5350880604,-58540.5050604260,-11174.6059113439,-39445.7141007895,-53528.0953603960,-23101.6986973091,-36828.5276880524,-8746.0674701498,-15304.8819271043,-2881.7243093646
11002606700,19448,-2,0,28367.6466960387,6230.7125121239,4565.8917297185,12535.5262978995,-46095.1778990749,-3901.8640110001,-51666.3282372144,-58539.6776570420,-11173.7420048695,-39445.3490698848,-53527.7790002786,-23101.4066725853,-36829.6714515538,-8745.7389423356,-15303.8720082680,-2884.1091779419
11002660284,19449,-2,0,28369.0946519607,6225.8332656979,4567.5830395769,12537.4122909071,-46093.2067321896,-3898.3475466183,-51664.3205672387,-58535.6501493936,-11171.1867885367,-39442.0029532585,-53525.3332932172,-23098.4134191669,-36829.0022282285,-8742.6605150393,-15302.2537045906,-2887.3579529937
11002660284,19449,-2,0,28368.2672485767,6207.9710867618,4570.6127960858,12537.5461355721,-46090.5298388886,-3895.9018395569,-51661.5463323630,-58531.9268341658,-11169.9578511576,-39440.0682894636,-53523.1309400922,-23095.2376502961,-36825.6074408149,-8739.0467090829,-15302.3997169524,-2886.6035557906
11002660284,19449,-2,0,28373.5723643915,6225.6629179424,4573.9467450153,12543.5691454995,-46089.6902678078,-3894.4903867254,-51658.7355943969,-58529.0795931093,-11170.1647020036,-39438.2187995465,-53519.8943327373,-23092.9257878997,-36824.8287082182,-8734.1796303538,-15296.5592224774,-2881.8824894233
11002660284,19449,-2,0,28373.9738983867,6227.1717123484,4574.8228191866,12547.8521747812,-46092.0386332946,-3896.7414106376,-51656.7887629053,-58526.8407368938,-11170.5419006051,-39439.0583706273,-53518.7992400232,-23092.3539061491,-36827.6516138812,-8732.8290160064,-15293.3469505162,-2877.2952677211
11002660284,19449,-2,0,28374.4971093501,6215.8800896967,4576.1490981403,12548.3753857446,-46092.1116394755,-3898.1528634691,-51654.1605403915,-58524.8208992212,-11169.8361741893,-39439.3503953511,-53518.0083397298,-23090.1637207209,-36829.2820852554,-8732.6586682509,-15294.5880555921,-2875.7621379214
11002660284,19449,-2,0,28377.2470088321,6233.5232500900,4578.5948052017,12554.1793771291,-46090.6758512504,-3896.0843550092,-51652.5422367140,-58523.3121048152,-11167.7676657294,-39436.7830113214,-53515.4409557001,-23088.8374417672,-36827.8097939399,-8733.4008977571,-15295.5128005506,-2879.9843287190
11002660284,19449,-2,0,28376.8819779274,6227.8409356737,4576.6479737100,12553.7291723467,-46087.2567284432,-3896.0356842219,-51652.0068580538,-58523.7988126881,-11167.0619393137,-39436.0651172089,-53515.7938189080,-23089.5918389703,-36826.8728812845,-8734.3864811997,-15295.4032912792,-2880.6657197410
11002660284,19449,-2,0,28373.2681719709,6198.9791588097,4577.0251723115,12550.6507450505,-46087.3784054114,-3893.6994864319,-51654.5742420835,-58528.3495312999,-11165.7599957537,-39436.3084711453,-53517.8014888838,-23090.9546210144,-36822.1274795235,-8735.4572385202,-15295.8291606680,-2875.7378025278
11002669219,19450,-2,0,28375.3488481277,6215.5637295793,4576.6114706195,12550.1640371775,-46086.4901635433,-3892.1055181481,-51655.4259808611,-58529.5176301949,-11163.1682763304,-39432.3052988906,-53516.5603838078,-23089.5675035766,-36822.1031441299,-8734.0336179919,-15292.2396901053,-2870.2258358670
11002669219,19450,-2,0,28377.8432259764,6229.0455376592,4576.9765015242,12553.6318307721,-46083.9836179978,-3889.6476433899,-51656.2290488514,-58529.1039285029,-11162.1583574941,-39430.9911876337,-53516.5238807174,-23089.6283420607,-36821.6042685601,-8734.5081581680,-15293.1766027606,-2871.9658165126
11002669219,19450,-2,0,28374.4606062596,6209.8084089821,4577.4753770940,12552.7435889040,-46083.8376056359,-3890.2681959278,-51655.7058378880,-58527.7411464587,-11162.0853513131,-39431.1371999956,-53514.9785832208,-23088.2655600166,-36820.6673559048,-8737.6474239483,-15295.7196513966,-2872.9270645617
11002669219,19450,-2,0,28375.3853512181,6219.0801939612,4576.4532905608,12552.4758995739,-46084.7988536850,-3891.7039841529,-51656.7035890275,-58527.2422708890,-11162.4260468242,-39433.6437455411,-53516.7915700475,-23091.1006333763,-36822.7967028488,-8736.8200205643,-15296.7052348393,-2877.5994601417
11002669219,19450,-2,0,28374.3389292914,6223.7525895412,4574.5186267660,12554.4470664592,-46085.7844371276,-3891.1686054927,-51655.2312977119,-58525.8673211480,-11164.1903628635,-39432.6581620985,-53515.4531233969,-23089.7500190290,-36821.7746163157,-8734.7758474981,-15294.7949064381,-2878.5363727970
11002669219,19450,-2,0,28372.4651039806,6201.9237414408,4575.1391793040,12552.0378624883,-46084.0931272692,-3889.9640035073,-51653.7590063963,-58524.6992222530,-11163.2656179050,-39432.2201250128,-53514.1755152305,-23088.6549263149,-36817.5889286086,-8731.4175631749,-15293.5051305749,-2877.3804415989
11002669219,19450,-2,0,28374.3024262009,6220.1631189784,4575.7353964483,12553.3763091388,-46083.7159286677,-3889.1122647297,-51652.8829322251,-58523.2390986342,-11161.8176619830,-39430.6018213354,-53513.7739812354,-23087.4138212390,-36818.5136735671,-8729.2030423532,-15291.4852929023,-2873.0000707426
11002669219,19450,-2,0,28376.5777855068,6238.9500428730,4577.5118801844,12555.4569852955,-46084.6771767167,-3888.9054138837,-51651.3376347286,-58521.5721241695,-11160.5522215134,-39429.7987533451,-53512.5815469467,-23087.6085043881,-36821.1905668682,-8730.4806505196,-15291.0229204230,-2871.4426055493
11002699283,19451,-2,0,28375.4948604895,6215.5272264889,4577.8160726050,12552.6219119358,-46085.6627601594,-3890.1586866564,-51652.4813982299,-58523.5432910548,-11162.7059038511,-39431.6847463526,-53513.1412610006,-23088.3142308039,-36824.2203233771,-8734.2283011410,-15295.5371359443,-2874.5210328455
11002699283,19451,-2,0,28374.2537554136,6211.5362219310,4576.4289551672,12550.4317265076,-46086.9768714163,-3893.5291386764,-51653.8320125773,-58524.6383837689,-11164.7500769174,-39432.9501868222,-53514.9420801304,-23088.8739448577,-36824.7557020373,-8737.0268714103,-15296.9972595630,-2880.6170489538
11002699283,19451,-2,0,28374.5214447437,6225.7480918201,4574.7741483993,12550.9184343806,-46086.6118405116,-3892.3245366909,-51654.4282297216,-58523.6041295389,-11164.3120398317,-39432.7555036730,-53515.2949433382,-23087.8275229309,-36823.2834107217,-8735.9439463931,-15296.8755825948,-2883.1357621961
11002699283,19451,-2,0,28368.1699070021,6211.0008432707,4573.8007326534,12547.2681253337,-46083.1683823107,-3890.2316928374,-51652.0676965380,-58521.4382795044,-11162.7545746384,-39430.3949704894,-53512.4355345849,-23086.0510391948,-36820.7403620857,-8731.0890353607,-15295.0260926777,-2878.7553913398
11002699283,19451,-2,0,28366.0648954518,6211.0008432707,4575.9179119006,12545.7593309276,-46073.5193987301,-3887.2019363285,-51645.3389601949,-58515.7316296945,-11157.3642849458,-39425.4305501856,-53508.5418716015,-23083.1064565636,-36812.2351420065,-8724.6158206509,-15289.1734305059,-2868.6196998863
11002699283,19451,-2,0,28375.5191958832,6232.9757037330,4581.3203692900,12550.3100495394,-46077.6929187404,-3882.0428328755,-51647.5778164103,-58518.3841876019,-11154.7725655225,-39423.5080540876,-53507.2885988287,-23082.3398916638,-36813.2937316301,-8720.9655116040,-15284.3793579577,-2863.3024163747
11002699283,19451,-2,0,28378.1960891842,6212.9720101561,4582.9021698770,12545.8931755927,-46075.6730810678,-3884.3303598782,-51649.6706602638,-58522.4238629471,-11156.2326891413,-39426.3187920537,-53511.7419758659,-23085.0776234489,-36815.0945507599,-8726.5018136585,-15287.0562512587,-2864.7138692062
11002699283,19451,-2,0,28381.2745164804,6210.8304955152,4581.1743569281,12542.5348912696,-46080.0777873177,-3885.4862910764,-51655.3043038929,-58527.3639478572,-11158.4715453567,-39429.8717595260,-53514.7839000717,-23088.1560507452,-36812.1743035224,-8730.5293213069,-15290.2076847358,-2873.3529339505
11002728099,19452,-2,0,28383.3795280308,6235.9811248482,4578.4001220525,12542.8025805997,-46081.5257432396,-3886.3258621572,-51657.1416261131,-58526.8772399843,-11159.1772717725,-39430.0299395847,-53517.6068057346,-23090.6139255034,-36814.8998676107,-8730.8213460306,-15293.3834536066,-2881.2376014917
11002728099,19452,-2,0,28377.8432259764,6224.6529991061,4576.3437812894,12539.6024763352,-46084.5676674453,-3888.7228984313,-51658.8451036683,-58528.9579161410,-11160.9294201150,-39431.6604109590,-53518.6045568741,-23092.4025769364,-36817.9417918164,-8731.1012030576,-15295.8048252744,-2884.2065195165
11002728099,19452,-2,0,28378.5976231794,6212.9963455497,4581.3325369868,12539.8701656653,-46081.9151095379,-3888.4673767980,-51656.7035890275,-58527.3152770699,-11158.6540608091,-39429.5432317118,-53515.6964773334,-23089.7743544226,-36817.5524255181,-8728.5338190279,-15292.7629010687,-2875.9568210706
11002728099,19452,-2,0,28383.3308572435,6230.3718166129,4584.2771196180,12544.7372443945,-46080.6253336747,-3885.9121604652,-51653.3209693107,-58522.9470739105,-11157.0722602221,-39426.7203260489,-53513.3724472402,-23086.7932687010,-36814.7295198552,-8723.9709327193,-15287.5064560412,-2868.6318675832
11002728099,19452,-2,0,28383.9027389942,6220.3334667339,4584.8855044591,12546.0756910450,-46079.2868870242,-3885.2916079273,-51653.1506215552,-58522.7645584581,-11156.2813599286,-39426.7446614425,-53513.3602795434,-23086.4404054931,-36814.6200105838,-8726.0881119665,-15286.0950032097,-2868.2059981944
11002728099,19452,-2,0,28380.0455791013,6211.1833587231,4581.6002263169,12542.9729283552,-46081.1728800317,-3887.0194208761,-51655.4746516484,-58526.4513705955,-11158.4107068726,-39429.2633746849,-53515.1002601891,-23090.2853976892,-36817.0048791611,-8731.0281968766,-15290.4023678850,-2876.0054918579
11002728099,19452,-2,0,28379.8630636490,6233.7666040265,4576.6236383164,12542.8634190838,-46084.3121458120,-3889.4407925439,-51658.6869236096,-58527.2301031922,-11160.5157184230,-39432.4756466461,-53518.4098737249,-23092.4512477236,-36819.5600954939,-8734.6176674394,-15293.2982797289,-2885.4111215020
11002728099,19452,-2,0,28374.4606062596,6222.9616892477,4573.1801801155,12540.0161780272,-46085.5045801007,-3890.0856804755,-51659.7698486269,-58528.7267299014,-11161.9150035576,-39431.8550941081,-53519.0182585661,-23091.8671982762,-36818.2946550243,-8732.3544758303,-15293.3956213035,-2884.6932273894
11002768126,19453,-2,0,28371.7350421713,6200.5487916998,4574.7741483993,12538.8724145258,-46083.4239039440,-3888.7350661281,-51658.5652466414,-58527.5342956127,-11158.9825886233,-39429.2025362007,-53515.9885020571,-23089.7621867258,-36814.1576381045,-8727.7550864312,-15290.3536970977,-2877.0275783910
11002768126,19453,-2,0,28378.2934307588,6221.9517704114,4578.3514512652,12542.9485929615,-46081.0025322762,-3885.6809742256,-51654.6472482644,-58525.3197747910,-11156.1110121731,-39427.4503878582,-53514.0051674750,-23087.5354982072,-36811.9431172827,-8726.0272734824,-15284.0873332339,-2871.8563072412
11002768126,19453,-2,0,28380.2645976441,6227.2447185294,4578.1932712065,12544.6520705167,-46079.2747193273,-3883.1744286801,-51653.7833417900,-58524.9790792799,-11155.3201118796,-39425.8077487871,-53512.0461682865,-23086.3673993122,-36812.8435268476,-8726.9276830473,-15279.9624840109,-2870.0189850210
11002768126,19453,-2,0,28379.1330018396,6217.7417473107,4580.0427611236,12544.3357103993,-46078.7880114544,-3882.5417084453,-51652.6274105918,-58524.6748868593,-11154.4805407988,-39425.4183824888,-53510.8537339979,-23084.5422447887,-36814.8998676107,-8729.2152100500,-15282.0796632581,-2868.6805383705
11002768126,19453,-2,0,28379.4736973506,6233.7909394201,4580.1157673045,12547.4749761797,-46079.6154148384,-3884.0505028513,-51652.3110504744,-58523.9083219595,-11155.2106026082,-39426.2579535696,-53510.9875786629,-23086.1483807694,-36816.7980283151,-8730.4198120355,-15283.9534885689,-2867.5489425659
11002768126,19453,-2,0,28377.7215490081,6230.7125121239,4578.1811035097,12548.0590256272,-46080.6740044620,-3886.4840422159,-51651.0821130953,-58520.3431867904,-11155.7946520557,-39427.9127603375,-53511.3769449613,-23085.4791574441,-36817.6375993959,-8731.1863769353,-15284.9512397083,-2866.4051790646
11002768126,19453,-2,0,28372.5381101616,6201.8385675631,4577.4875447908,12546.5137281307,-46082.7546806187,-3889.5624695121,-51654.0145280296,-58523.5676264485,-11158.6175577186,-39430.9303491496,-53512.1921806484,-23087.2921442707,-36819.0733876210,-8731.6122463241,-15290.5605479437,-2870.2988420479
11002768126,19453,-2,0,28372.7327933107,6216.7318284743,4575.3947009372,12546.8909267322,-46084.6893444135,-3891.0590962213,-51656.5575766656,-58526.3905321114,-11160.6008923007,-39432.5729882207,-53516.2196882968,-23089.1416341878,-36818.9882137432,-8731.1255384512,-15292.3126962862,-2876.2001750070
11002794354,19454,-2,0,28376.0180714529,6232.5620020410,4576.3802843799,12550.2370433585,-46084.4459904771,-3888.3456998298,-51657.1902969004,-58525.4171163655,-11158.3255329948,-39431.0033553305,-53515.4287880033,-23088.3385661975,-36815.7272709947,-8730.3589735514,-15289.8061507407,-2878.0861680146
11002794354,19454,-2,0,28371.9905638045,6207.7885713095,4579.7264010062,12548.4848950160,-46081.0755384571,-3886.1068436144,-51654.8054283231,-58522.8984031232,-11155.3687826669,-39428.9105114770,-53512.1921806484,-23086.2943931312,-36811.6024217717,-8728.8015083580,-15285.4501152781,-2875.7864733150
11002794354,19454,-2,0,28373.1708303964,6214.2861214129,4580.4442951188,12549.1054475539,-46080.6131659779,-3885.2794402304,-51653.7468386995,-58521.6086272600,-11155.2714410923,-39426.9758476821,-53510.8780693915,-23083.2768043192,-36811.8701111018,-8724.6036529541,-15280.3396826124,-2871.0289038573
11002794354,19454,-2,0,28374.4241031691,6220.1022804943,4578.4244574461,12549.6773293046,-46081.9151095379,-3885.7783158002,-51653.3939754917,-58521.7911427123,-11156.6463908333,-39427.0245184694,-53509.6978027997,-23082.8631026272,-36813.7196010189,-8718.9943447187,-15275.2657530373,-2869.5809479353
11002794354,19454,-2,0,28370.1045707970,6200.5487916998,4575.9544149911,12543.8976733137,-46081.6960909951,-3887.6034703236,-51653.0654476774,-58522.6063783994,-11156.8410739824,-39428.2047850613,-53509.4666165601,-23082.5345748130,-36814.8390291266,-8719.2498663520,-15278.2711741525,-2871.9049780285
11002794354,19454,-2,0,28371.0049803619,6213.7142396623,4577.4145386098,12544.7980828786,-46080.3698120414,-3885.6201357415,-51652.0433611443,-58520.9759070252,-11153.2272680260,-39426.0511027236,-53507.9456544572,-23082.0478669400,-36813.1477192682,-8720.1137728264,-15276.3365103577,-2870.2015004733
11002794354,19454,-2,0,28372.7692964012,6229.2888915956,4577.2441908543,12546.1121941355,-46079.5789117479,-3882.8580685627,-51651.5688209682,-58520.9515716315,-11151.2804365344,-39424.4814698334,-53508.2620145746,-23082.5467425098,-36811.6875956495,-8718.8483323569,-15272.0656487728,-2867.2325824485
11002794354,19454,-2,0,28369.2406643226,6205.5983858814,4578.7164821699,12543.7273255582,-46079.4450670829,-3884.8292354480,-51652.9559384060,-58520.9880747220,-11152.8257340309,-39427.1948662249,-53509.3449395918,-23083.2037981382,-36809.1567147103,-8721.2210332373,-15272.4671827680,-2865.2979186537
11002822981,19455,-2,0,28364.7507841949,6197.9327368829,4575.5893840864,12538.6290605894,-46077.5712417721,-3891.1564377959,-51655.4503162547,-58521.4382795044,-11158.5445515377,-39432.7555036730,-53515.0029186145,-23087.5841689945,-36820.2536542128,-8727.4265586170,-15280.1693348569,-2865.8576327075
11002822981,19455,-2,0,28364.5804364394,6214.5903138335,4569.1405047702,12536.3537012835,-46091.4789192408,-3895.7193241045,-51664.9289520798,-58529.6271394663,-11165.0664370348,-39438.4743211798,-53520.4297113975,-23091.8671982762,-36826.3618380179,-8733.4982393317,-15285.3649414003,-2868.3398428594
11002822981,19455,-2,0,28363.4123375444,6203.6758897833,4570.7101376604,12535.5506332932,-46089.8119447760,-3896.1573611901,-51663.0064559818,-58529.9556672805,-11162.4503822178,-39436.5883281723,-53518.8722462042,-23091.5751735524,-36823.7092801105,-8732.9385252778,-15287.5551268284,-2871.6859594857
11002822981,19455,-2,0,28369.5570244399,6209.5407196520,4579.6655625221,12540.5272212938,-46080.6740044620,-3888.1996874679,-51658.0055325876,-58524.4680360134,-11154.2493545592,-39429.9204303133,-53512.4355345849,-23085.5034928377,-36816.3599912295,-8728.8501791453,-15283.4059422118,-2868.7657122482
11002822981,19455,-2,0,28381.0920010281,6233.1825545790,4586.8566713444,12552.0256947914,-46073.0691939476,-3881.0085786456,-51651.7391687237,-58519.0412432303,-11147.0947488273,-39423.2647001511,-53507.6292943398,-23081.5246559766,-36808.8890253802,-8725.5040625190,-15279.3297637761,-2864.0811489714
11002822981,19455,-2,0,28382.9171555515,6213.9575935987,4590.2514587580,12551.3929745567,-46067.7154073455,-3879.7553058728,-51647.8698411340,-58515.0867417629,-11145.4521097562,-39421.9505888943,-53506.7410524717,-23081.6098298544,-36807.6722556979,-8724.8470068906,-15280.1815025537,-2861.1487340371
11002822981,19455,-2,0,28385.6427196399,6209.2486949282,4594.6683327048,12550.5899065663,-46067.6545688614,-3877.5529527479,-51648.1983689483,-58517.4716103402,-11142.7143779710,-39421.3543717499,-53505.4756120021,-23080.7459233800,-36805.6889211157,-8724.7496653160,-15281.9944893804,-2860.7350323451
11002822981,19455,-2,0,28390.8383261833,6234.4723304422,4594.4249787683,12554.0942032513,-46066.5229730569,-3874.0364883660,-51646.7382453295,-58514.6730400709,-11140.3903478778,-39417.7162303999,-53504.9645687356,-23079.6386629691,-36800.4568114819,-8723.8979265384,-15280.2423410379,-2862.9373854700
11002853219,19456,-2,0,28390.2542767358,6224.9328561330,4593.9747739859,12554.9216066353,-46064.9168370763,-3871.3230919745,-51646.1906989725,-58515.1840833375,-11137.6647837895,-39414.0902567466,-53502.4215200996,-23079.3344705485,-36800.6271592374,-8720.5883130025,-15280.5465334584,-2865.4317633187
11002853219,19456,-2,0,28386.6161353857,6210.1612721900,4596.7733442551,12552.9139366595,-46062.9700055846,-3870.3496762287,-51644.5115568109,-58512.7992147602,-11136.1316539898,-39411.7297235630,-53501.4602720506,-23078.1177008662,-36801.1868732913,-8719.2498663520,-15280.3396826124,-2867.0500669962
11002853219,19456,-2,0,28387.2853587110,6223.3023847587,4594.2424633160,12552.6219119358,-46063.1160179465,-3869.6439498130,-51644.2195320872,-58513.5292765695,-11135.9978093247,-39410.9874940568,-53501.6914582902,-23078.0933654726,-36801.4910657118,-8717.6558980682,-15277.4316030718,-2866.1618251281
11002853219,19456,-2,0,28382.9293232484,6214.8215000731,4591.7115823768,12550.8575958964,-46064.2354460542,-3871.1527442190,-51645.4119663758,-58514.6973754645,-11138.5895287480,-39412.7274747025,-53502.5188616742,-23078.1663716535,-36803.3040525384,-8721.1480270564,-15277.8209693701,-2864.3975090888
11002853219,19456,-2,0,28382.2844353167,6204.6979763165,4593.0500290273,12549.6043231237,-46064.3206199319,-3870.7268748302,-51643.9031719698,-58513.5414442664,-11137.4335975499,-39413.9199089911,-53501.5819490188,-23078.9086011597,-36805.8227657808,-8724.7131622255,-15278.0643233065,-2867.8774703801
11002853219,19456,-2,0,28386.8594893222,6230.9436983635,4595.5322391792,12555.4569852955,-46063.0673471592,-3870.0698192018,-51644.2803705713,-58514.2471706821,-11135.1217351535,-39412.2651022232,-53501.2655889014,-23079.5169860009,-36805.5064056634,-8724.8105038001,-15277.9183109447,-2876.4678643371
11002853219,19456,-2,0,28385.5818811558,6225.2127131599,4596.6273318933,12556.4304010414,-46055.9370768209,-3868.7313725512,-51644.6332337791,-58513.6144504473,-11134.1239840140,-39410.9874940568,-53501.8131352584,-23079.3101351549,-36803.5595741717,-8725.4188886412,-15278.7092112382,-2881.2376014917
11002853219,19456,-2,0,28383.7202235419,6200.8408164236,4597.9901139374,12553.1694582928,-46062.9091671005,-3869.1207388496,-51643.2826194318,-58515.1354125502,-11133.7102823220,-39410.9023201790,-53501.3994335664,-23077.9230177171,-36799.5564019170,-8724.9686838588,-15281.3496014487,-2880.7752290125
11002884267,19457,-2,0,28388.5021283933,6219.6520757119,4596.1892948076,12556.1018732271,-46063.9312536336,-3871.0919057349,-51642.7107376811,-58513.9429782615,-11136.1438216866,-39412.0825867709,-53501.6792905934,-23077.6309929933,-36802.0507797657,-8721.9145919562,-15277.8574724606,-2877.1005845719
11002884267,19457,-2,0,28387.7477311902,6223.1807077905,4593.9504385922,12556.5642457064,-46066.4743022696,-3873.6714574613,-51643.2461163413,-58513.6144504473,-11137.4092621562,-39413.0194994262,-53501.6671228965,-23077.6553283870,-36802.9998601179,-8717.7045688555,-15273.3189215456,-2872.7688845030
11002884267,19457,-2,0,28385.4237010971,6207.7399005222,4594.3276371937,12555.3596437209,-46066.6689854188,-3874.0729914565,-51643.8301657888,-58514.5756984963,-11136.9833927674,-39414.5647969227,-53501.5332782315,-23078.9451042502,-36804.1192882256,-8717.2178609826,-15273.4892693011,-2870.2988420479
11002884267,19457,-2,0,28385.4967072780,6219.9441004356,4593.5610722939,12555.8098485034,-46066.6324823283,-3873.4889420090,-51646.3610467280,-58516.5103622912,-11137.2024113102,-39414.4187845609,-53503.1880849994,-23080.5390725340,-36803.2067109639,-8719.2742017457,-15272.8322136727,-2872.3795182046
11002884267,19457,-2,0,28384.3286083830,6219.1775355358,4592.3077995211,12556.0410347430,-46066.6811531156,-3873.2334203757,-51648.8919276672,-58518.6518769320,-11137.3240882784,-39416.4386222335,-53504.9767364324,-23083.1672950477,-36801.8439289197,-8723.4842248464,-15272.5888597362,-2876.1758396134
11002884267,19457,-2,0,28379.0721633555,6194.8786449803,4589.0103536821,12553.5953276816,-46063.2255272179,-3874.1459976374,-51647.1154439310,-58515.5247788485,-11137.6526160927,-39415.1610140671,-53504.6117055277,-23080.8676003482,-36800.2742960295,-8725.3823855508,-15277.4924415559,-2880.7630613156
11002884267,19457,-2,0,28383.3551926372,6215.5758972762,4589.6065708264,12556.3938979509,-46066.3282899077,-3873.6714574613,-51646.7382453295,-58516.5833684721,-11137.9203054228,-39413.7008904483,-53505.2444257625,-23080.7215879863,-36801.9899412816,-8724.1656158685,-15281.0575767250,-2885.4719599861
11002884267,19457,-2,0,28384.1947637180,6228.1694634879,4589.9350986406,12557.9391954474,-46068.9078416342,-3876.7620524544,-51649.0987785132,-58518.4085229955,-11140.2930063032,-39416.2682744780,-53505.5972889704,-23082.5467425098,-36807.4532371551,-8724.8956776779,-15284.4888672291,-2884.2795256975
11002915452,19458,-2,0,28377.4903627685,6203.1161757295,4589.5457323423,12552.3663903025,-46071.2562071210,-3879.2929333935,-51650.1330327431,-58520.0389943698,-11141.3150928364,-39417.8014042776,-53506.7532201685,-23084.1042077031,-36809.7407641578,-8726.8425091695,-15287.3361082856,-2881.4322846409
11002915452,19458,-2,0,28378.5611200889,6204.1625976563,4591.2005391102,12552.3785579993,-46068.8591708469,-3879.1590887285,-51648.9649338481,-58520.5865407268,-11141.1082419904,-39418.2151059696,-53507.1060833764,-23083.7878475857,-36809.8137703387,-8727.7307510376,-15284.8660658306,-2878.2686834669
11002915452,19458,-2,0,28382.6007954341,6214.2982891098,4589.9350986406,12555.5421591733,-46068.6523200009,-3878.2586791636,-51648.7337476085,-58517.9826536067,-11139.5751121907,-39417.1321809524,-53504.9524010387,-23082.7779287494,-36808.3901498104,-8725.1998700984,-15280.0111547982,-2875.4701131977
11002915452,19458,-2,0,28383.5620434832,6199.8308975873,4591.4803961372,12554.5809111243,-46066.0119297903,-3876.4700277306,-51647.6629902881,-58519.0412432303,-11137.3727590657,-39416.2439390843,-53504.9158979483,-23082.8874380208,-36804.7033376731,-8726.5018136585,-15280.1571671601,-2875.8473117992
11002915452,19458,-2,0,28385.1803471606,6213.0206809434,4595.2523821523,12556.1627117112,-46061.4612111786,-3873.9513144883,-51648.5512321561,-58518.7735539002,-11134.6958657647,-39414.5161261354,-53504.8793948578,-23084.0312015222,-36802.4279783672,-8726.3192982061,-15278.5875342699,-2876.3340196721
11002915452,19458,-2,0,28385.0343347987,6226.1739612090,4592.7215012131,12557.3794813935,-46063.5175519416,-3872.8927248647,-51648.3322136133,-58517.7392996703,-11134.4160087378,-39414.3579460768,-53507.1304187700,-23083.5323259524,-36801.3937241372,-8723.6059018146,-15278.1738325780,-2878.2808511638
11002915452,19458,-2,0,28381.7003858692,6202.8241510057,4593.7679231399,12554.2523833100,-46067.3382087440,-3874.2433392120,-51651.9703549634,-58520.1606713380,-11136.7887096182,-39417.4485410698,-53508.7608901443,-23084.1772138840,-36803.5839095654,-8724.9078453747,-15282.3960233755,-2880.4345335014
11002915452,19458,-2,0,28380.5809577615,6198.8331464478,4591.4560607435,12549.2757953095,-46069.9420958641,-3878.8792317016,-51653.0532799806,-58521.5356210790,-11139.9401430954,-39419.5413849233,-53510.5617092741,-23086.9514487597,-36805.0683685778,-8727.4265586170,-15285.8638169701,-2883.2209360739
11002954172,19459,-2,0,28381.0676656345,6222.7670060985,4587.7205778189,12548.8134228302,-46073.0813616445,-3881.5561250026,-51655.3286392865,-58523.5311233580,-11143.6026198391,-39423.2525324543,-53513.7618135385,-23089.0077895228,-36809.6920933705,-8731.1255384512,-15287.0440835619,-2887.1267667540
11002954172,19459,-2,0,28378.0500768224,6209.7597381948,4586.6133174080,12545.0536045119,-46074.7605038060,-3883.0649194087,-51656.9104398735,-58524.3706944388,-11142.4101855504,-39424.2989543811,-53513.0195840324,-23089.3849881243,-36811.2495585638,-8733.6685870872,-15288.2121824569,-2887.6134746269
11002954172,19459,-2,0,28377.2470088321,6205.0386718275,4588.8400059266,12543.8855056169,-46073.2273740063,-3881.5682926994,-51655.7666763721,-58523.4094463898,-11140.1834970318,-39421.4395456277,-53510.3913615186,-23087.8153552341,-36808.4266529009,-8732.3666435271,-15287.8714869458,-2884.6567242990
11002954172,19459,-2,0,28381.7855597470,6222.8765153699,4590.0081048216,12548.3388826541,-46069.6379034436,-3877.4677788701,-51651.4714793936,-58518.3111814209,-11138.1271562688,-39417.3633671920,-53506.9844064082,-23083.0212826859,-36804.2287974970,-8726.7208322013,-15282.8462281580,-2882.1866818439
11002954172,19459,-2,0,28379.0113248714,6202.0332507122,4587.2947084301,12547.8765101748,-46068.5671461232,-3879.8283120538,-51649.3299647528,-58516.6928777435,-11140.2686709096,-39419.0668447472,-53507.0574125891,-23082.9117734145,-36804.4964868271,-8727.4995647980,-15280.2058379474,-2881.4687877314
11002954172,19459,-2,0,28379.3398526856,6197.1053334989,4589.1685337408,12547.0612744877,-46072.5338152874,-3881.7629758486,-51653.0289445870,-58519.6617957683,-11141.8869745871,-39422.3034521021,-53508.2133437873,-23085.9780330138,-36807.4532371551,-8728.3513035756,-15281.5321169011,-2881.5904646996
11002954172,19459,-2,0,28380.3619392187,6223.2658816683,4586.4064665620,12548.3388826541,-46073.7870880602,-3882.4200314770,-51655.8518502499,-58521.9493227710,-11142.5196948218,-39423.8122465082,-53510.6833862423,-23087.3408150580,-36809.8381057324,-8726.6843291108,-15279.0620744460,-2882.9289113501
11002954172,19459,-2,0,28378.6341262699,6214.3956306843,4587.8179193935,12547.2194545464,-46074.9065161679,-3883.7949812180,-51657.5918308956,-58524.4437006197,-11142.6900425774,-39424.5666437112,-53512.2165160420,-23087.4989951167,-36811.5050801971,-8727.3413847393,-15280.7898873949,-2883.4642900103
11002985433,19460,-2,0,28374.5336124405,6198.5532894209,4586.5281435302,12544.0315179788,-46074.7848391997,-3885.2429371400,-51659.5021592968,-58525.2711040037,-11144.1258308025,-39426.3674628410,-53514.5892169225,-23089.9325344813,-36811.2860616543,-8727.9862726709,-15280.7777196981,-2882.2110172376
11002985433,19460,-2,0,28378.6097908762,6213.9697612955,4586.2726218969,12545.5646477785,-46075.2350439821,-3884.2816890910,-51661.8870278741,-58527.2422708890,-11143.2862597217,-39426.4648044156,-53515.4774587906,-23091.4048257969,-36810.2274720307,-8725.6257394872,-15278.7578820255,-2880.4953719855
11002985433,19460,-2,0,28378.1352507001,6211.1346879358,4588.5966519901,12547.5601500574,-46072.1687843827,-3882.1036713596,-51660.8406059473,-58526.9502461652,-11140.7918818730,-39424.5788114080,-53514.6987261939,-23091.4778319778,-36807.9764481185,-8725.8447580300,-15278.4050188176,-2880.3980304109
11002985433,19460,-2,0,28378.7314678444,6204.1747653531,4591.6020731054,12546.9639329131,-46068.4576368517,-3879.0009086698,-51658.9546129397,-58525.3562778814,-11137.7986284545,-39421.5855579896,-53511.4986219295,-23089.0442926132,-36806.5893306806,-8728.8136760548,-15281.3374337519,-2884.4377057562
11002985433,19460,-2,0,28383.8175651164,6230.2136365542,4594.0721155605,12553.4858184102,-46063.4567134575,-3875.5209473784,-51655.9370241276,-58521.7059688345,-11134.9392197012,-39418.5071306934,-53509.2354303204,-23087.7545167500,-36806.8326846171,-8728.5216513311,-15281.5929553852,-2887.4066237810
11002985433,19460,-2,0,28386.1780983001,6226.6971721723,4596.1527917172,12557.1117920634,-46058.2002684300,-3874.5353639358,-51649.7558341416,-58515.0989094597,-11133.1749036618,-39417.0470070746,-53508.3350207555,-23085.6616728965,-36801.9534381911,-8728.3999743629,-15281.7876385344,-2883.2087683770
11002985433,19460,-2,0,28382.1992614390,6200.1837607951,4594.6439973111,12554.8851035448,-46065.8780851253,-3875.6669597403,-51652.8220937410,-58519.8686466143,-11133.8562946839,-39416.5602992017,-53507.4102757970,-23084.9924495712,-36804.1192882256,-8728.3999743629,-15283.1017497912,-2879.1934284255
11002985433,19460,-2,0,28382.7589754928,6217.1090270759,4594.5831588270,12556.9536120047,-46067.0461840203,-3877.5894558383,-51651.6539948460,-58518.9560693526,-11134.9270520043,-39416.1587652065,-53506.2543445988,-23083.3254751064,-36805.4455671793,-8727.1953723774,-15281.8606447153,-2879.2420992128
11003013258,19461,-2,0,28381.1163364217,6221.1487024211,4590.2149556676,12556.3573948604,-46068.4576368517,-3878.4290269191,-51651.1551192762,-58517.6906288830,-11135.9369708406,-39417.6553919158,-53504.8428917673,-23082.4128978447,-36805.2022132428,-8726.1124473601,-15280.2423410379,-2884.3525318784
11003013258,19461,-2,0,28377.1618349543,6201.9845799249,4590.3122972422,12554.3132217942,-46069.6135680499,-3879.1104179412,-51649.6706602638,-58516.4251884134,-11136.5696910754,-39417.9109135490,-53503.8208052342,-23081.3056374338,-36806.4311506219,-8726.1611181474,-15279.3906022602,-2884.7297304799
11003013258,19461,-2,0,28376.9914871988,6211.5362219310,4589.3023784059,12553.1816259896,-46069.8204188959,-3877.9909898335,-51650.5467344351,-58518.4206906924,-11134.9027166107,-39417.9839197300,-53505.8163075132,-23083.0212826859,-36806.2121320791,-8723.8614234479,-15275.5942808515,-2882.9289113501
11003013258,19461,-2,0,28376.8211394432,6211.5118865373,4588.2316210854,12553.9116877990,-46068.4576368517,-3876.3361830656,-51651.5201501809,-58518.3841876019,-11134.9757227916,-39418.2637767569,-53505.6702951513,-23082.8144318399,-36803.3648910226,-8721.9754304403,-15272.4306796775,-2879.9113225380
11003013258,19461,-2,0,28374.3024262009,6190.6077833955,4588.1464472077,12551.5511546154,-46067.4720534091,-3876.3483507624,-51650.3033804986,-58517.4716103402,-11134.4890149187,-39416.6454730795,-53504.7577178896,-23081.3178051307,-36800.3959729978,-8721.6225672325,-15272.7713751886,-2877.5264539607
11003013258,19461,-2,0,28376.0667422402,6206.6934785954,4586.4551373493,12549.1176152508,-46070.2219528911,-3877.0054063908,-51653.7833417900,-58518.9439016557,-11135.9978093247,-39418.7139815394,-53507.1790895573,-23083.4958228620,-36802.5861584259,-8724.8348391937,-15276.6041996878,-2879.9234902349
11003013258,19461,-2,0,28374.3024262009,6215.1500278874,4581.8314125566,12546.8422559449,-46073.3855540650,-3879.2199272126,-51656.8861044798,-58520.4770314554,-11138.1149885719,-39421.6585641705,-53510.2696845504,-23087.7301813563,-36805.4455671793,-8725.8812611205,-15276.2270010863,-2879.6923039952
11003013258,19461,-2,0,28367.5736898578,6189.6708707401,4581.2108600186,12542.9120898711,-46070.5261453116,-3876.6525431830,-51653.8685156678,-58517.4594426433,-11134.5620210996,-39416.9983362873,-53505.2200903688,-23082.4615686320,-36799.1670356186,-8720.6126483962,-15271.4937670222,-2874.6305421169
11003045613,19462,-2,0,28367.1599881658,6191.7758822905,4585.0193491242,12544.9075921500,-46064.2841168415,-3872.3695139013,-51648.7824183958,-58514.0889906234,-11130.1329794561,-39412.3989468883,-53500.6693717571,-23078.1055331694,-36792.9371748453,-8715.2101910068,-15264.9475461314,-2870.9558976763
11003045613,19462,-2,0,28369.7152044987,6206.6934785954,4582.5858097596,12547.1829514559,-46067.9709289788,-3873.9878175787,-51651.0334423080,-58517.6419580957,-11132.5056803366,-39414.8689893433,-53504.1615007452,-23081.5976621576,-36798.1692844792,-8719.5662264694,-15267.9773026403,-2876.5043674276
11003045613,19462,-2,0,28370.4330986112,6195.7547191516,4582.3059527327,12543.6908224677,-46073.2760447936,-3881.1789264011,-51657.4701539273,-58523.8109803849,-11137.9081377259,-39423.4350479067,-53510.4400323059,-23087.9613675960,-36806.7110076489,-8727.5239001916,-15274.8642190421,-2882.7707312914
11003045613,19462,-2,0,28369.8368814669,6201.3761950838,4579.6168917348,12540.0891842081,-46078.6541667894,-3887.3844517808,-51662.9699528913,-58527.2787739795,-11142.9455642106,-39427.9249280343,-53514.1025090496,-23091.2466457382,-36812.4054897620,-8732.5613266763,-15278.8065528127,-2887.2241083286
11003045613,19462,-2,0,28369.3866766844,6213.9089228114,4576.2707751085,12539.3104516115,-46083.1197115234,-3889.8788296295,-51664.7707720211,-58530.9655861168,-11146.9244010718,-39430.7234983036,-53516.2683590841,-23092.4269123300,-36816.0314634152,-8732.0259480161,-15279.8651424363,-2889.0614305489
11003045613,19462,-2,0,28363.4123375444,6189.5370260751,4575.0175023357,12536.0616765597,-46084.6771767167,-3891.7891580307,-51664.2840641482,-58531.9146664690,-11147.7639721525,-39431.2710446606,-53516.6577253824,-23093.7166881932,-36814.4861659187,-8728.2782973946,-15279.5122792285,-2886.1290156146
11003045613,19462,-2,0,28361.9400462288,6187.9917285786,4573.8129003503,12533.4456217428,-46080.0169488335,-3891.5214687006,-51664.0528779086,-58532.4865482197,-11146.6323763480,-39430.6626598195,-53515.8789927857,-23093.2664834108,-36811.6754279526,-8723.8979265384,-15276.8962244115,-2882.2110172376
11003045613,19462,-2,0,28365.7120322439,6218.4839768169,4575.5285456023,12537.4244586039,-46078.8366822417,-3888.5282152822,-51661.5706677567,-58530.9412507232,-11143.0794088757,-39429.0808592325,-53514.9907509177,-23093.0231294743,-36810.9575338401,-8723.8249203574,-15274.0368156582,-2878.6337143716
11003074279,19463,-2,0,28364.1667347474,6206.1580999352,4576.8791599496,12536.5240490390,-46077.7537572245,-3884.6345522988,-51661.1204629742,-58530.8439091486,-11141.1690804745,-39426.7446614425,-53514.4797076511,-23092.0983845158,-36811.0913785051,-8726.4409751744,-15276.8597213211,-2878.2808511638
11003074279,19463,-2,0,28361.2586552067,6192.3964348285,4576.4046197735,12532.1315104859,-46079.0922038750,-3886.0581728271,-51662.9577851945,-58532.9610883958,-11141.7652976188,-39428.3021266358,-53515.7329804239,-23093.6558497091,-36812.8313591508,-8731.8677679574,-15282.2621787105,-2881.9068248170
11003074279,19463,-2,0,28364.4830948648,6201.3640273870,4573.2410185996,12531.7543118844,-46082.7790160123,-3890.4142082897,-51666.3404049113,-58534.9444229779,-11145.2087558197,-39430.9546845432,-53518.9087492947,-23096.5517615530,-36814.3888243441,-8735.6275862757,-15284.7930596496,-2890.6919019232
11003074279,19463,-2,0,28361.5628476273,6182.0052217417,4570.9291562032,12527.1305870917,-46085.8209402181,-3894.2713681826,-51668.3115717966,-58536.9764283473,-11149.2727665586,-39433.4490623919,-53520.7947423022,-23096.8072831863,-36817.8079471514,-8735.8222694249,-15287.5672945253,-2899.7203329658
11003074279,19463,-2,0,28362.6457726445,6179.2918253502,4572.5352921838,12526.7290530965,-46085.5775862816,-3893.4317971018,-51669.9542108677,-58535.5893109095,-11148.7008848079,-39433.8749317807,-53519.3954571676,-23096.8072831863,-36817.7471086673,-8734.6906736203,-15285.0485812829,-2898.3575509216
11003074279,19463,-2,0,28364.6899457108,6205.9755844829,4570.6979699636,12527.9336550820,-46086.3441511815,-3891.6796487593,-51671.0371358849,-58538.2783719074,-11147.2894319764,-39433.7775902062,-53522.1818597400,-23099.3259964286,-36817.0413822515,-8732.5734943731,-15282.9314020357,-2892.8820873513
11003074279,19463,-2,0,28360.6746057592,6194.6474587407,4570.1260882129,12525.7556373507,-46085.9426171863,-3892.6287291115,-51673.9938862129,-58541.6366562305,-11147.9829906953,-39435.6027447296,-53524.3112066840,-23101.8812127614,-36816.7371898310,-8732.5734943731,-15284.6592149846,-2889.0979336393
11003074279,19463,-2,0,28355.0652975238,6175.1183053399,4569.2013432544,12523.3464333798,-46085.2247230738,-3892.9572569257,-51674.5657679636,-58540.6389050911,-11147.4719474288,-39434.4589812283,-53523.6663187524,-23100.2385736903,-36815.6542648137,-8731.5270724464,-15284.1968425053,-2886.2628602796
11003102781,19464,-2,0,28358.0098801550,6193.1508320315,4569.1891755575,12528.3960275613,-46083.8011025455,-3891.5701394879,-51669.6013476598,-58535.3216215794,-11144.8802280055,-39429.8474241324,-53520.3445375198,-23096.9654632450,-36814.2306442854,-8727.0493600155,-15278.8187205096,-2886.2871956732
11003102781,19464,-2,0,28359.3726621991,6194.7813034058,4572.9854969663,12531.8273180654,-46080.9295260953,-3888.3456998298,-51667.6423484713,-58532.2918650705,-11143.2010858439,-39427.9370957311,-53517.0592593776,-23093.1813095330,-36812.4176574588,-8725.8325903332,-15276.5311935069,-2888.6477288569
11003102781,19464,-2,0,28357.9733770645,6186.5072695662,4575.1878500912,12532.5938829652,-46079.3963962956,-3887.7251472918,-51665.9023678256,-58529.8339903123,-11142.4710240346,-39428.0222696089,-53514.6500554066,-23092.6702662665,-36811.5902540749,-8724.7740007096,-15276.0079825435,-2889.2196106076
11003102781,19464,-2,0,28362.8891265810,6211.1833587231,4577.6822279399,12538.2153588974,-46076.0746150629,-3886.9342469984,-51662.9577851945,-58526.7312276224,-11139.7697953399,-39426.3674628410,-53513.6523042671,-23091.5386704619,-36808.7916838056,-8722.4378029196,-15273.7447909344,-2886.6643942748
11003102781,19464,-2,0,28363.4975114221,6205.8539075146,4577.1955200670,12539.0914330687,-46080.4549859192,-3887.5547995363,-51664.5395857815,-58529.7731518282,-11141.1812481713,-39428.9591822643,-53513.9929997782,-23092.9014525061,-36810.9575338401,-8723.7275787828,-15274.3410080787,-2882.3935326899
11003102781,19464,-2,0,28365.1158150996,6182.3215818591,4578.7286498667,12538.1788558069,-46078.6663344862,-3886.8247377269,-51663.7973562753,-58529.4689594076,-11140.4025155747,-39427.1340277408,-53513.7131427513,-23091.6116766429,-36808.6943422310,-8722.5473121910,-15274.8277159516,-2876.9180691196
11003102781,19464,-2,0,28369.1311550511,6199.4780343794,4579.8480779744,12540.9895937730,-46078.2039620069,-3885.6931419224,-51662.7752697421,-58526.9989169525,-11139.2222489828,-39426.2457858728,-53512.5085407658,-23091.3561550096,-36808.5848329596,-8722.3404613450,-15274.9493929199,-2878.2078449828
11003102781,19464,-2,0,28367.2694974372,6204.7709824974,4576.1856012307,12540.0526811177,-46080.8200168239,-3886.7273961524,-51664.9776228671,-58527.3761155540,-11140.4025155747,-39427.4868909487,-53515.0880924923,-23092.2078937872,-36813.1112161777,-8724.7131622255,-15277.6262862209,-2883.8414886118
11003131867,19465,-2,0,28363.0594743365,6181.6401908370,4576.6358060132,12538.4708805307,-46081.8177679633,-3889.3191155756,-51666.5350880604,-58529.3351147425,-11142.6778748805,-39428.6549898437,-53515.7208127270,-23092.4634154205,-36815.4717493614,-8728.8623468421,-15280.8385581822,-2887.2606114191
11003131867,19465,-2,0,28365.6998645471,6189.0259828085,4576.7939860719,12538.7507375576,-46082.1584634744,-3887.8224888664,-51665.4034922559,-58528.4833759649,-11140.6702049048,-39427.8519218534,-53513.9808320814,-23091.7698567016,-36813.3545701142,-8728.2661296978,-15278.6118696636,-2884.6810596926
11003131867,19465,-2,0,28368.6079440878,6197.9205691861,4579.5925563411,12542.8512513869,-46078.1431235228,-3886.2650236731,-51663.0794621627,-58525.5509610306,-11138.7233734131,-39427.1340277408,-53512.7032239150,-23090.3705715669,-36810.7506829941,-8728.1444527296,-15275.2779207341,-2879.3151053937
11003131867,19465,-2,0,28368.1577393053,6182.5527680987,4582.1842757644,12542.0725187903,-46075.3202178599,-3884.8170677512,-51659.8428548078,-58524.7113899498,-11136.9468896769,-39425.6617364253,-53509.9654921298,-23087.8031875373,-36808.9376961675,-8727.1101984996,-15274.5843620152,-2880.4832042887
11003131867,19465,-2,0,28373.6332028756,6203.8097344484,4587.2947084301,12545.1631137833,-46073.0691939476,-3881.2762679757,-51657.3484769591,-58521.4991179886,-11133.2235744491,-39422.9361723369,-53507.4102757970,-23084.9681141775,-36808.4509882945,-8724.0926096875,-15274.4261819565,-2883.6833085531
11003131867,19465,-2,0,28378.2447599715,6219.8467588610,4589.9837694279,12550.7602543219,-46070.7694992481,-3878.8062255206,-51656.9956137512,-58520.4161929713,-11131.2037367765,-39420.8554961802,-53506.3881892638,-23085.3574804759,-36805.1535424555,-8720.0285989487,-15276.9327275020,-2889.1101013362
11003131867,19465,-2,0,28373.8035506312,6194.6231233471,4590.9085143865,12548.2902118668,-46065.5860604015,-3877.3582695987,-51657.0077814481,-58521.1827578712,-11129.1960668007,-39417.7162303999,-53506.9235679241,-23086.6837594296,-36803.2553817512,-8724.2751251399,-15282.0796632581,-2887.0902636636
11003131867,19465,-2,0,28373.8522214184,6194.5866202566,4590.6286573596,12547.0734421845,-46067.5085564996,-3876.7133816671,-51660.5364135267,-58526.4878736860,-11128.9527128643,-39418.0447582141,-53510.2331814599,-23088.8739448577,-36802.7808415751,-8729.8357625880,-15282.6393773120,-2885.6788108321
11003165697,19466,-2,0,28370.9441418778,6209.9300859503,4585.9684294764,12545.6376539594,-46070.3071267688,-3879.0617471539,-51664.3570703291,-58529.5176301949,-11131.9946370700,-39421.4030425372,-53513.0317517292,-23092.7919432347,-36807.6844233947,-8729.9087687689,-15282.0066570772,-2885.6666431353
11003165697,19466,-2,0,28367.8535468847,6196.9593211371,4584.5448089481,12544.4695550644,-46073.7749203634,-3882.3713606897,-51663.7243500943,-58531.1846046596,-11133.8562946839,-39424.0312650510,-53514.7473969812,-23094.3494084280,-36808.6213360501,-8730.6144951846,-15281.2644275710,-2889.6819830868
11003165697,19466,-2,0,28366.1135662391,6202.6173001597,4585.1166906988,12544.0436856756,-46074.4076405982,-3883.1257578928,-51663.4201576738,-58528.6293883268,-11132.8950466349,-39423.4472156035,-53512.4233668880,-23092.3052353618,-36808.6943422310,-8729.0448622945,-15280.9845705441,-2892.7360749894
11003165697,19466,-2,0,28365.6998645471,6217.6687411297,4584.9950137305,12546.7327466735,-46075.6487456741,-3884.8292354480,-51663.6391762166,-58530.3450335788,-11133.7954561998,-39424.3111220779,-53512.5085407658,-23094.5562592740,-36810.3126459085,-8726.9641861378,-15279.3540991698,-2892.4683856593
11003165697,19466,-2,0,28359.3239914119,6195.5965390929,4582.5614743659,12542.2550342426,-46076.7681737818,-3885.8026511938,-51664.7099335370,-58530.7830706645,-11136.6305295595,-39426.2214504791,-53515.1489309764,-23095.4445011421,-36812.8070237572,-8726.4653105680,-15281.6659615661,-2891.4828022166
11003165697,19466,-2,0,28355.6615146682,6191.2161682366,4579.3978731920,12538.2275265942,-46070.9885177909,-3886.0338374335,-51663.2254745246,-58527.1205939208,-11136.1681570803,-39426.1484442982,-53515.9763343603,-23095.6513519881,-36812.0404588573,-8727.0128569250,-15281.6781292630,-2887.0780959667
11003165697,19466,-2,0,28358.6791034802,6216.1842821173,4579.3370347079,12541.3059538904,-46075.8920996106,-3883.9288258831,-51666.1335540653,-58532.2310265864,-11134.4038410409,-39424.1164389287,-53515.7208127270,-23095.4079980516,-36810.0571242752,-8727.0006892282,-15281.3739368424,-2885.0460905973
11003165697,19466,-2,0,28357.2189798615,6200.2932700666,4580.3834566346,12539.4321285797,-46075.1011993171,-3881.9698266946,-51666.1213863685,-58532.1823557991,-11132.8950466349,-39424.0069296573,-53514.7595646780,-23093.5585081345,-36807.3437278837,-8726.7329998981,-15285.5961276400,-2885.2286060497
11003199352,19467,-2,0,28359.3969975928,6187.5293560993,4581.6245617106,12539.9675072399,-46073.8722619380,-3880.8260631932,-51663.4809961579,-58529.6758102536,-11131.7999539208,-39422.1696074371,-53512.2895222230,-23091.3926581001,-36805.7497595999,-8723.6789079956,-15283.6492961483,-2885.8126554972
11003199352,19467,-2,0,28362.1712324684,6199.4536989858,4579.5073824634,12543.1311084139,-46074.0669450871,-3881.4952865185,-51661.5706677567,-58525.9038242385,-11132.3840033683,-39422.1452720434,-53510.2575168535,-23089.5188327893,-36805.4820702698,-8722.6689891593,-15280.8020550917,-2885.5814692575
11003199352,19467,-2,0,28362.0130524097,6184.0858978984,4580.3104504537,12541.9630095189,-46074.4319759918,-3882.7485592913,-51661.1326306710,-58523.8109803849,-11133.5155991729,-39423.9825942637,-53510.5373738805,-23089.6283420607,-36808.0494542994,-8724.1899512621,-15279.0377390524,-2883.7928178245
11003199352,19467,-2,0,28364.4465917743,6178.6469374185,4583.8512502292,12542.8755867806,-46072.7893369207,-3881.8846528168,-51658.3218927049,-58520.9394039347,-11131.1672336860,-39421.4152102341,-53506.7288847749,-23085.8685237424,-36808.0129512089,-8724.5184790763,-15276.7258766560,-2882.9410790469
11003199352,19467,-2,0,28372.3799301029,6203.8827406293,4586.2482865033,12546.5258958275,-46069.8325865927,-3879.8526474474,-51656.1438749736,-58517.8488089417,-11127.3100737932,-39418.5192983902,-53504.4291900754,-23083.6661706175,-36806.5649952870,-8724.4333051986,-15271.9439718046,-2882.8437374724
11003199352,19467,-2,0,28374.0834076581,6195.8642284230,4590.9936882642,12549.0932798571,-46066.5959792378,-3875.9589844641,-51654.5134035994,-58517.5202811275,-11124.5845097048,-39415.7328958177,-53502.0686568917,-23083.4958228620,-36804.2044621033,-8727.8280926122,-15273.3432569392,-2883.7806501277
11003199352,19467,-2,0,28373.0126503377,6175.1061376431,4593.2447121765,12545.4186354166,-46064.6978185335,-3875.0829102928,-51654.4769005089,-58516.3886853229,-11122.3456534894,-39414.9298278274,-53503.8816437183,-23083.7391767984,-36802.7565061814,-8731.2472154194,-15276.5068581132,-2886.8834128176
11003199352,19467,-2,0,28378.3055984556,6199.8430652841,4595.6782515411,12548.4848950160,-46063.6635643035,-3872.9900664393,-51652.6395782886,-58514.0281521393,-11121.9806225847,-39414.5039584386,-53501.0830734490,-23081.3908113116,-36801.7465873451,-8727.9497695804,-15274.6573681961,-2883.2817745580
11003226715,19468,-2,0,28381.6517150820,6208.9810055981,4597.0288658884,12550.3830557203,-46063.8582474527,-3874.2798423025,-51654.3795589343,-58515.7924681786,-11122.0536287657,-39416.0370882383,-53502.4701908869,-23083.3498105001,-36802.0021089784,-8724.9808515556,-15274.9615606167,-2878.7067205526
11003226715,19468,-2,0,28378.8653125095,6200.5122886094,4597.9292754533,12547.5601500574,-46064.2841168415,-3876.2631768846,-51656.3750612133,-58516.5712007753,-11122.9418706337,-39417.6432242189,-53503.7843021437,-23085.4061512632,-36803.2797171448,-8726.2706274188,-15278.2346710621,-2878.7553913398
11003226715,19468,-2,0,28382.8441493706,6221.4528948417,4601.4944106224,12548.9716028889,-46064.5153030811,-3874.4745254517,-51656.6549182402,-58516.7172131371,-11122.1266349466,-39416.6211376858,-53504.5143639531,-23086.3065608281,-36803.8759342891,-8726.2949628125,-15276.7380443528,-2879.0474160636
11003226715,19468,-2,0,28381.8342305343,6217.5592318583,4600.1194608815,12549.7260000919,-46062.8969994037,-3872.2356692362,-51655.9005210372,-58516.3643499293,-11120.7395175088,-39414.5161261354,-53503.5287805105,-23085.0046172680,-36802.0021089784,-8723.0826908512,-15273.6961201471,-2878.3295219510
11003226715,19468,-2,0,28377.9892383383,6195.8763961198,4599.1460451356,12545.5646477785,-46063.6635643035,-3872.5641970505,-51655.5841609198,-58516.7050454403,-11121.1897222912,-39414.3822814704,-53503.1272465153,-23085.0167849648,-36799.8484266407,-8724.2264543526,-15272.1873257411,-2879.1690930318
11003226715,19468,-2,0,28379.5832066221,6217.3037102250,4597.8562692724,12546.0756910450,-46064.8316631985,-3874.1703330311,-51655.8518502499,-58516.8267224086,-11121.1167161103,-39415.4895418813,-53504.6238732245,-23085.6008344123,-36801.8682643133,-8724.4211375018,-15270.5811897604,-2883.3182776485
11003226715,19468,-2,0,28379.3033495951,6224.7746760743,4595.7999285093,12544.8102505754,-46066.9366747489,-3874.9977364150,-51657.0564522354,-58517.2039210101,-11122.6985166973,-39415.6963927273,-53505.6946305449,-23086.8906102756,-36803.5595741717,-8726.8911799568,-15273.3675923329,-2885.7883201035
11003226715,19468,-2,0,28374.5579478342,6201.0720026632,4595.2888852427,12539.0427622814,-46066.7663269934,-3876.2145060973,-51658.0298679812,-58519.1750878954,-11123.0757152988,-39417.7527334903,-53507.4711142811,-23088.1682184420,-36801.4180595309,-8728.0106080645,-15277.6262862209,-2886.9685866953
11003262971,19469,-2,0,28373.4020166360,6206.3162799939,4594.1086186509,12536.6943967945,-46066.0971036681,-3874.8638917500,-51658.4679050668,-58519.8321435238,-11121.9562871911,-39417.9230812459,-53508.1403376064,-23089.0442926132,-36799.4712280392,-8724.7374976192,-15280.3761857029,-2888.1610209840
11003262971,19469,-2,0,28376.4926116290,6214.8823385573,4594.8751835508,12539.8701656653,-46067.1921963822,-3874.7908855691,-51659.5629977809,-58520.3675221840,-11122.7228520909,-39416.5602992017,-53509.0529148681,-23091.0032918017,-36801.9534381911,-8724.5793175605,-15280.4491918838,-2889.1344367298
11003262971,19469,-2,0,28373.1829980932,6195.5600360024,4594.0721155605,12536.4388751613,-46065.6712342793,-3875.5087796816,-51659.7455132332,-58522.1926767075,-11122.7958582719,-39417.2903610111,-53510.3183553377,-23091.4169934937,-36801.9534381911,-8724.7131622255,-15279.9016455268,-2885.1555998687
11003262971,19469,-2,0,28373.6818736629,6207.6547266444,4594.6805004016,12539.1522715528,-46065.2088618000,-3874.1338299406,-51660.6094197077,-58520.8420623601,-11120.4839958755,-39417.0348393778,-53510.5252061837,-23092.9136202029,-36801.6614134674,-8725.0538577366,-15277.9669817320,-2882.3205265090
11003262971,19469,-2,0,28374.1320784454,6217.3280456187,4592.9526874527,12540.7340721398,-46066.6446500251,-3874.2068361216,-51662.3737357470,-58523.0809185755,-11121.4695793182,-39418.4949629965,-53514.2971921988,-23095.4445011421,-36801.5032334086,-8727.3413847393,-15277.2004168321,-2884.2308549102
11003262971,19469,-2,0,28369.1676581416,6187.8092131262,4590.6651604500,12537.8381602959,-46067.7397427392,-3876.7620524544,-51664.7707720211,-58524.4558683165,-11124.3898265557,-39420.2227759454,-53514.6987261939,-23096.6734385212,-36802.5131522450,-8728.3634712724,-15278.4901926954,-2892.1641932387
11003262971,19469,-2,0,28369.3623412908,6185.2174937029,4590.1176140930,12539.0670976750,-46067.3747118345,-3876.8228909385,-51664.4057411164,-58522.8375646391,-11124.8765344286,-39422.1209366498,-53514.3823660765,-23095.4931719294,-36801.7830904356,-8727.5482355853,-15278.0886587002,-2894.6950741779
11003262971,19469,-2,0,28371.7472098681,6203.2865234850,4587.4650561856,12543.9706794947,-46069.4553879912,-3877.2365926305,-51664.8559458989,-58522.8497323359,-11124.6210127953,-39421.4638810213,-53513.1777640911,-23094.2764022471,-36804.4843191303,-8728.3634712724,-15275.9836471498,-2891.2272805834
11003320472,19470,-2,0,28369.0581488702,6192.0922424079,4589.4240553741,12545.3943000229,-46067.1800286853,-3876.3970215497,-51661.5706677567,-58519.5766218905,-11122.6741813036,-39419.2736955932,-53510.8050632106,-23091.9645398507,-36802.7930092719,-8724.5428144700,-15273.3675923329,-2884.2551903038
11003320472,19470,-2,0,28370.7129556381,6188.9408089307,4590.8598435992,12545.3577969325,-46066.9366747489,-3876.3118476719,-51660.6824258886,-58518.1164982718,-11122.2726473085,-39419.8455773439,-53509.1745918363,-23090.4070746574,-36801.4545626214,-8721.5373933547,-15272.6862013108,-2881.8581540297
11003320472,19470,-2,0,28371.8567191395,6201.9115737440,4590.1784525771,12546.8057528544,-46067.9222581915,-3877.6137912320,-51660.9136121282,-58519.5036157096,-11122.8445290591,-39419.8090742534,-53510.0141629171,-23093.1813095330,-36801.7465873451,-8721.4887225674,-15273.0025614282,-2886.2628602796
11003320472,19470,-2,0,28368.4375963322,6178.8902913550,4588.3898011441,12542.8634190838,-46069.3215433262,-3878.5385361905,-51661.7531832090,-58519.6617957683,-11124.5358389175,-39421.6220610800,-53510.2818522472,-23092.6337631760,-36802.7808415751,-8724.2507897462,-15277.7844662796,-2891.4949699135
11003320472,19470,-2,0,28369.6543660145,6179.0971422010,4590.2027879708,12542.3158727267,-46067.5937303773,-3877.4677788701,-51660.8771090378,-58517.3864364624,-11122.6498459100,-39420.2592790359,-53510.2696845504,-23090.8451117430,-36801.3085502595,-8726.4044720839,-15279.1229129301,-2891.2516159770
11003320472,19470,-2,0,28376.4926116290,6207.5573850699,4593.0256936337,12548.6430750747,-46065.3183710714,-3874.3163453930,-51660.2930595903,-58517.3621010688,-11119.1212138313,-39416.6089699890,-53510.1236721885,-23091.7941920952,-36800.2012898486,-8725.2728762794,-15276.0566533308,-2891.2272805834
11003320472,19470,-2,0,28374.0834076581,6194.1850862614,4593.6584138685,12547.6574916320,-46065.4400480397,-3872.8318863806,-51661.0596244901,-58518.2503429368,-11118.2451396601,-39416.4629576271,-53510.9145724820,-23091.9037013666,-36799.7024142789,-8726.8060060791,-15274.9980637072,-2887.5283007492
11003320472,19470,-2,0,28372.3920977997,6182.0052217417,4594.7778419762,12544.7859151818,-46065.5982280984,-3874.7543824786,-51661.7166801186,-58518.9195662621,-11119.8634433375,-39417.4972118571,-53510.3913615186,-23091.9523721539,-36799.3982218583,-8726.8790122600,-15271.6032762936,-2884.4620411498
11003322991,19471,4,0,28375.3488481277,6198.3829416654,4593.5002338098,12547.1951191527,-46067.4842211059,-3874.9125625373,-51662.6535927739,-58518.5667030542,-11120.4718281787,-39418.0690936077,-53509.4544488632,-23091.4169934937,-36801.0408609294,-8724.7374976192,-15267.1620669532,-2881.4201169441
11003322991,19471,4,0,28374.7647986802,6195.2558435819,4594.6439973111,12548.7890874365,-46064.4179615065,-3872.9657310456,-51657.8595202257,-58512.3246745841,-11118.3181458410,-39414.0780890498,-53505.6702951513,-23085.8320206520,-36797.1715333397,-8718.5684753299,-15263.0007146397,-2876.7355536672
11003322991,19471,4,0,28375.7747175165,6191.8367207746,4597.6372507296,12550.6629127473,-46060.7798201565,-3869.9846453240,-51654.2822173597,-58509.0515641387,-11115.5439109654,-39413.9199089911,-53502.4945262805,-23082.3520593606,-36796.7699993445,-8714.4071230165,-15261.1998955100,-2875.3241008358
11003322991,19471,4,0,28376.2005869053,6212.0716005912,4595.3740591205,12551.5268192217,-46064.2476137510,-3872.2600046299,-51655.3529746802,-58509.7329551608,-11117.1865500365,-39415.2826910353,-53503.2610911803,-23084.4449032142,-36802.8538477560,-8717.9479227920,-15263.2562362730,-2879.9964964158
11003322991,19471,4,0,28372.1122407728,6199.4902020762,4591.5290669245,12546.4285542529,-46067.5937303773,-3874.8638917500,-51657.0807876290,-58511.9596436794,-11119.8877787312,-39417.8135719745,-53506.8262263495,-23087.4746597231,-36807.0395354631,-8723.9100942352,-15271.0800653302,-2890.1930263534
11003322991,19471,4,0,28364.7142811044,6169.1317985030,4587.0148514031,12536.2685274057,-46071.9132627495,-3880.5097030758,-51662.3615680502,-58517.5811196116,-11124.9982113968,-39422.3886259799,-53510.1723429758,-23092.0010429412,-36812.4298251557,-8731.2107123290,-15280.0111547982,-2898.7347495231
11003322991,19471,4,0,28365.2374920678,6186.4099279916,4585.7615786304,12534.9422484520,-46071.7307472971,-3881.7994789391,-51663.9798717276,-58518.6275415383,-11124.9252052159,-39422.7536568846,-53511.2552679930,-23092.7676078410,-36809.2783916785,-8730.1764580990,-15278.5631988763,-2898.9537680659
11003322991,19471,4,0,28368.9973103861,6194.7934711026,4587.8179193935,12536.8525768532,-46067.9100904947,-3876.3848538529,-51661.4611584853,-58516.7415485308,-11119.6809278852,-39417.7162303999,-53508.4932008142,-23091.4413288873,-36802.3184690958,-8723.0583554576,-15271.1895746016,-2889.9740078106
11003353040,19472,4,0,28366.8557957453,6182.0660602258,4590.0567756089,12532.4600383002,-46066.4621345728,-3874.4866931485,-51661.4854938789,-58517.7758027607,-11118.6466736552,-39417.1686840428,-53507.9578221540,-23091.6116766429,-36798.0476075109,-8719.2133632615,-15266.6631913835,-2881.9433279075
11003353040,19472,4,0,28367.4885159801,6200.1959284920,4588.5236458092,12534.4068697918,-46067.9709289788,-3876.6160400925,-51661.2786430329,-58519.8808143111,-11119.8512756407,-39418.8721615981,-53509.2232626236,-23092.5729246919,-36799.8849297312,-8719.2255309584,-15264.8015337695,-2880.2276826554
11003353040,19472,4,0,28367.7440376133,6199.2955189271,4587.2460376428,12536.1225150439,-46070.8181700354,-3877.7963066843,-51661.8261893900,-58520.7933915728,-11121.6034239832,-39420.1254343708,-53510.8415663010,-23093.4124957727,-36802.1846244307,-8720.6734868803,-15266.5658498089,-2883.1844329834
11003353040,19472,4,0,28367.7318699165,6182.4067557368,4590.8355082055,12536.1833535280,-46067.6424011646,-3875.4844442880,-51659.6116685682,-58518.2868460273,-11118.1843011760,-39417.4485410698,-53508.1525053032,-23090.9059502271,-36799.8605943376,-8720.7099899708,-15268.7803706306,-2884.8514074481
11003353040,19472,4,0,28371.9053899268,6204.0895914753,4593.9261031986,12542.2428665458,-46061.5828881468,-3872.9778987424,-51655.9491918245,-58515.0989094597,-11114.7651783687,-39414.0050828689,-53506.6558785940,-23088.9956218259,-36797.2932103079,-8721.0141823913,-15265.6776079408,-2886.6157234875
11003353040,19472,4,0,28373.0369857313,6214.0305997797,4593.5489045971,12543.7881640423,-46063.9920921177,-3871.1649119158,-51656.7644275116,-58514.0038167456,-11114.3028058894,-39413.0438348199,-53505.8893136941,-23088.0222060801,-36798.8506755012,-8720.4544683375,-15263.7064410555,-2885.2407737465
11003353040,19472,4,0,28365.8093738185,6187.0304805295,4590.9085143865,12539.5051347606,-46067.1313578980,-3875.1437487769,-51658.2245511304,-58514.8555555232,-11116.6755067699,-39416.2196036907,-53505.0619103101,-23086.9514487597,-36801.4180595309,-8718.7023199950,-15264.7650306791,-2882.4665388708
11003353040,19472,4,0,28364.3127471093,6186.5316049598,4588.4384719314,12538.1180173228,-46068.1534444312,-3877.9909898335,-51657.5674955019,-58516.0479898119,-11118.5980028679,-39416.6576407763,-53505.5972889704,-23086.6837594296,-36803.3040525384,-8716.9380039556,-15263.1102239112,-2878.5607081907
11003398766,19473,4,0,28365.5051813979,6196.9106503498,4586.2361188065,12541.3059538904,-46071.2805425147,-3879.4511134522,-51659.0884576048,-58516.4738592007,-11122.1874734307,-39417.6310565221,-53507.6171266430,-23089.2511434592,-36805.0075300937,-8720.0772697360,-15264.0958073538,-2879.9843287190
11003398766,19473,4,0,28362.8526234905,6181.4333399910,4585.6399016622,12537.9355018705,-46072.4486414097,-3881.9211559073,-51661.7410155122,-58519.6374603747,-11122.7593551814,-39421.0258439357,-53509.4179457728,-23092.8162786283,-36808.9376961675,-8726.2949628125,-15268.1963211831,-2884.4012026657
11003398766,19473,4,0,28367.7440376133,6194.0755769900,4588.3654657505,12539.8336625749,-46071.3292133020,-3879.5727904205,-51662.2520587788,-58518.7857215970,-11121.5182501054,-39420.1497697645,-53510.0141629171,-23092.9257878997,-36808.2563051454,-8726.3192982061,-15268.2084888800,-2885.9099970717
11003398766,19473,4,0,28371.9540607141,6205.6470566686,4590.2149556676,12543.2527853821,-46071.1345301528,-3879.2807656967,-51662.0695433264,-58516.9240639831,-11120.2041388486,-39420.3687883073,-53509.3571072886,-23091.2466457382,-36807.9156096343,-8725.7352487586,-15266.9795515008,-2887.8568285634
11003398766,19473,4,0,28371.3821789634,6181.2264891450,4593.7070846558,12543.0094314456,-46067.6302334678,-3879.0617471539,-51658.2123834335,-58512.6532023983,-11118.7561829266,-39418.8964969917,-53506.9114002272,-23088.6549263149,-36804.3748098589,-8726.0272734824,-15269.6807801955,-2885.4354568956
11003398766,19473,4,0,28373.2925073646,6185.2783321870,4595.5687422697,12546.1852003164,-46065.9875943967,-3877.5772881415,-51656.8009306021,-58511.9718113762,-11116.8701899191,-39416.5116284144,-53503.9424822024,-23084.9559464807,-36802.9876924210,-8724.7009945287,-15270.9948914524,-2883.9144947928
11003398766,19473,4,0,28376.2370899957,6211.6457312024,4595.3618914237,12548.7160812556,-46065.5982280984,-3875.6426243467,-51655.4138131643,-58511.3269234446,-11115.4222339972,-39415.3191941258,-53501.6671228965,-23083.3376428033,-36802.2941337021,-8723.5207279369,-15269.3644200781,-2887.9541701380
11003398766,19473,4,0,28373.1951657900,6203.2135173041,4598.3794802358,12550.1275340871,-46063.7244027876,-3872.9778987424,-51653.5156524599,-58511.8501344080,-11112.8913530580,-39413.0194994262,-53500.3895147301,-23082.1817116051,-36800.6636623279,-8721.3548779024,-15269.5591032273,-2888.0028409253
11003428263,19474,4,0,28372.3555947092,6200.0742515237,4598.4281510231,12548.9350997984,-46061.8262420832,-3870.8363841016,-51651.8486779951,-58511.1565756891,-11110.7863415076,-39410.5251215775,-53499.0145649891,-23082.4980717225,-36798.8385078044,-8718.6779846013,-15265.0692230996,-2884.7784012672
11003428263,19474,4,0,28371.9297253204,6212.5826438577,4597.9779462406,12551.0522790456,-46060.6216400978,-3869.4370989670,-51650.8752622493,-58511.1079049018,-11109.6182426126,-39408.6512962668,-53497.1772427689,-23081.9748607591,-36796.8916763128,-8712.6914777644,-15259.3625732897,-2878.2443480733
11003428263,19474,4,0,28368.3524224545,6187.8943870040,4597.9414431501,12549.6408262141,-46054.2822700530,-3864.7768710838,-51646.3123759407,-58507.4575958549,-11104.9458470326,-39403.4191866329,-53492.3223317365,-23076.2925463428,-36792.3531253978,-8709.2480195635,-15255.1282147953,-2867.7801288056
11003428263,19474,4,0,28364.2032378379,6182.2485756781,4597.6129153359,12549.3974722777,-46053.1020034612,-3862.9152134699,-51643.6719857301,-58506.0583107202,-11102.3297922157,-39401.7400444714,-53489.9983016433,-23073.3357960148,-36790.8686663854,-8711.3165280234,-15253.0475386386,-2861.7206157877
11003428263,19474,4,0,28365.3956721265,6211.2441972072,4596.7368411647,12554.0942032513,-46056.9713310509,-3866.1883239152,-51647.8941765277,-58508.3458377230,-11104.9215116390,-39405.5850366674,-53493.1984059078,-23077.7405022647,-36795.1760310607,-8718.4224629680,-15256.9168662283,-2866.6363653042
11003428263,19474,4,0,28364.9941381313,6200.8773195141,4594.7170034921,12551.5876577058,-46063.8339120590,-3872.4181846886,-51655.6936701912,-58515.0380709756,-11111.6259125884,-39413.1046733040,-53501.7644644711,-23085.2479712045,-36801.4545626214,-8725.8690934237,-15265.2639062488,-2876.3340196721
11003428263,19474,4,0,28364.9454673441,6184.9254689792,4589.3875522836,12544.5425612453,-46068.8591708469,-3879.5727904205,-51663.0186236786,-58522.1805090106,-11119.5835863106,-39422.2426136180,-53509.5882935283,-23092.5972600855,-36807.3315601868,-8731.9164387447,-15277.3342614972,-2884.2065195165
11003428263,19474,4,0,28362.8282880969,6197.1175011958,4582.2086111581,12542.3523758172,-46077.8145957086,-3886.1920174922,-51669.2484844519,-58525.9889981162,-11126.6895212552,-39428.4846420882,-53515.0637570986,-23097.6833573575,-36813.3910732047,-8734.8731890727,-15281.8728124121,-2888.7207350378
11003443812,19475,4,0,28360.4799226100,6187.2129959819,4579.7507363998,12541.8413325506,-46078.6663344862,-3887.8103211696,-51668.3724102807,-58525.8064826639,-11126.7625274361,-39428.7401637215,-53512.8127331864,-23096.1380598610,-36811.9917880700,-8732.0137803193,-15280.0719932823,-2889.0979336393
11003443812,19475,4,0,28359.5065068642,6175.9213733302,4583.5470578086,12541.3181215873,-46074.5901560505,-3883.6854719466,-51664.3205672387,-58521.1584224775,-11121.4817470150,-39425.7225749094,-53508.2133437873,-23091.6846828238,-36809.6555902800,-8726.9398507441,-15275.9593117562,-2883.7563147341
11003443812,19475,4,0,28362.5240956763,6192.1895839825,4584.4961381608,12544.7372443945,-46072.4851445001,-3881.0207463424,-51662.2277233851,-58517.2039210101,-11119.4254062519,-39423.2038616670,-53504.7577178896,-23088.5575847403,-36807.1247093409,-8723.0826908512,-15271.2869161762,-2881.0064152521
11003443812,19475,4,0,28360.1392270990,6180.5694335166,4585.2261999702,12546.1608649228,-46071.2805425147,-3880.2785168362,-51659.3683146317,-58514.4053507408,-11119.0725430440,-39421.3178686595,-53503.9303145056,-23084.0190338254,-36805.1900455460,-8723.3382124845,-15268.9385506893,-2880.5075396824
11003443812,19475,4,0,28356.5375888394,6154.0681898362,4583.6687347768,12537.4001232103,-46074.0061066030,-3883.6002980689,-51660.7432643727,-58516.9483993768,-11121.8102748292,-39424.3476251684,-53505.0984134006,-23085.1019588426,-36808.1102927835,-8728.5703221184,-15270.7758729096,-2881.8459863329
11003443812,19475,4,0,28356.8296135632,6174.3639081369,4580.2374442728,12536.3171981930,-46078.4594836402,-3887.9076627442,-51665.7928585542,-58520.6352115141,-11125.7404409030,-39428.6793252374,-53509.0529148681,-23090.9059502271,-36814.4374951314,-8733.0967053365,-15270.8367113937,-2889.2804490917
11003443812,19475,4,0,28355.9900424824,6179.7055270421,4576.6114706195,12534.8570745743,-46080.1507934986,-3889.2217740011,-51667.0339636302,-58521.9006519837,-11126.8111982234,-39430.0177718879,-53512.3260253134,-23093.1934772299,-36818.4041642957,-8735.6397539725,-15273.8786355995,-2899.9636869022
11003443812,19475,4,0,28348.9084429314,6159.8965166144,4575.8205703260,12529.1139216738,-46082.4748235918,-3890.9617546467,-51670.2949063787,-58524.7722284339,-11128.8918743801,-39432.7920067635,-53514.0416705655,-23096.0042151959,-36819.7182755526,-8738.7060135719,-15282.7610542802,-2907.4954912356
11003480593,19476,4,0,28347.3023069508,6170.7866052709,4572.7421430298,12526.7898915807,-46085.2733938611,-3894.5877283000,-51675.5756867999,-58530.1868535201,-11132.9923882095,-39436.0651172089,-53519.4927987422,-23100.1655675094,-36822.4438396409,-8740.4459942176,-15284.9999104956,-2904.7212563600
11003480593,19476,4,0,28341.7051664122,6166.6009175638,4565.2468417869,12522.8840609005,-46089.9336217442,-3899.4548070292,-51681.5135228495,-58537.3292915552,-11137.4335975499,-39441.6135869601,-53525.3941317013,-23105.7018695638,-36823.1373983598,-8740.7015158509,-15283.6371284515,-2894.7559126620
11003480593,19476,4,0,28337.7506649448,6149.0916018356,4565.2468417869,12520.9859001961,-46089.1305537539,-3897.4958078407,-51680.6374486782,-58536.6600682299,-11136.7157034373,-39440.9200282412,-53522.6077291288,-23103.8158765563,-36820.3631634842,-8736.4914927501,-15276.7258766560,-2884.1335133356
11003480593,19476,4,0,28339.9651857666,6173.2809831196,4567.1693378849,12523.3829364702,-46086.3806542719,-3894.5877283000,-51676.0137238855,-58534.5793920732,-11132.9558851190,-39437.0020298642,-53519.7726557691,-23101.6986973091,-36819.2315676797,-8734.4838227743,-15271.3112515698,-2881.1645953108
11003480593,19476,4,0,28343.9561903245,6188.4541010578,4569.9070696701,12528.3351890772,-46084.7258475040,-3891.8743319085,-51674.0060539097,-58531.4644616865,-11130.1573148497,-39434.6049935901,-53516.5117130205,-23099.2286548540,-36819.7304432494,-8735.4694062170,-15270.1553203716,-2881.6999739710
11003480593,19476,4,0,28342.2162096788,6163.7658442041,4571.7322241935,12528.2986859867,-46081.6717556015,-3889.3434509693,-51672.2660732640,-58530.0895119456,-11127.5777631233,-39431.9281002891,-53514.1390121401,-23096.7221093085,-36816.2261465644,-8737.0025360167,-15274.4383496533,-2883.3547807389
11003480593,19476,4,0,28344.8079291021,6168.0488734858,4573.0098323599,12529.2842694294,-46081.5014078459,-3889.3069478788,-51671.2683221246,-58528.3008605126,-11127.9306263311,-39432.1714542255,-53513.1169256069,-23094.0695514011,-36814.8268614298,-8736.1386295423,-15273.3797600297,-2884.1943518197
11003480593,19476,4,0,28347.9715302761,6183.3071653017,4573.0950062377,12534.1878512490,-46084.4338227803,-3891.2537793705,-51671.2196513373,-58528.5198790554,-11128.7945328056,-39432.6581620985,-53514.2971921988,-23093.8261974646,-36816.5303389850,-8734.6054997426,-15272.8443813695,-2888.1001824999
11003511013,19477,4,0,28342.1553711947,6164.6662537690,4571.5253733475,12529.5641264563,-46088.5100012160,-3895.6706533172,-51674.7239480223,-58532.0728465277,-11133.5277668697,-39437.8172655514,-53516.3291975682,-23095.9433767118,-36820.1806480319,-8734.3378104125,-15276.5555289005,-2891.1542744024
11003511013,19477,4,0,28340.3302166712,6169.2534754712,4570.0895851224,12528.0674997471,-46090.2134787712,-3897.8000002612,-51677.2791643551,-58534.3117027431,-11134.1118163172,-39440.0804571604,-53518.6775630550,-23099.1921517636,-36822.1639826140,-8734.0822887792,-15277.5897831305,-2890.7162373168
11003511013,19477,4,0,28340.7925891505,6178.7077759027,4566.7678038898,12529.5276233658,-46090.5663419790,-3896.8144168186,-51677.0844812059,-58533.9831749289,-11134.0388101363,-39438.4621534830,-53518.3368675440,-23098.9487978271,-36822.8575413329,-8735.1530460996,-15276.1418272085,-2889.3412875758
11003511013,19477,4,0,28333.9908466265,6150.7585763004,4565.0886617282,12525.3541033556,-46090.3716588299,-3897.6783232930,-51676.5125994552,-58533.6546471147,-11134.5741887965,-39437.8050978546,-53516.5482161110,-23098.6932761938,-36822.5046781250,-8738.5234981195,-15273.5136046948,-2884.3768672720
11003511013,19477,4,0,28334.4167160153,6150.9775948432,4564.5897861585,12523.2125887147,-46085.1030461055,-3896.3155412488,-51671.4630052737,-58529.6149717695,-11132.7003634857,-39434.7145028615,-53512.5693792499,-23093.2299803203,-36820.4118342715,-8736.7105112929,-15269.6564448019,-2882.0528371789
11003511013,19477,4,0,28341.7051664122,6177.6370185822,4566.5974561342,12529.1990955516,-46084.9692014405,-3890.9495869499,-51668.6522673076,-58526.8042338034,-11127.9062909375,-39429.9691011006,-53509.7951443743,-23089.7013482417,-36816.4451651072,-8730.6875013656,-15264.6311860140,-2879.7531424793
11003511013,19477,4,0,28342.9827745786,6165.4936571529,4570.0895851224,12529.6249649404,-46082.4139851077,-3888.5768860695,-51668.3845779775,-58525.9281596321,-11125.4727515729,-39427.8275864597,-53507.4224434938,-23087.5720012977,-36813.5370855665,-8725.2850439762,-15262.9155407620,-2879.5341239365
11003511013,19477,4,0,28338.9430992334,6153.6058173569,4569.4933679781,12524.9647370572,-46083.1075438266,-3889.7206495708,-51669.4918383884,-58527.6559725810,-11125.8012793871,-39429.5310640150,-53508.9799086871,-23089.2876465497,-36813.8656133808,-8724.2994605335,-15264.1079750506,-2880.0938379904
11003541817,19478,4,0,28341.8025079868,6167.6595071874,4568.0697474498,12527.0454132139,-46084.1661334502,-3891.8013257275,-51671.6820238165,-58529.0309223220,-11127.5290923360,-39431.8307587145,-53510.0871690980,-23091.1614718604,-36814.0967996204,-8723.6789079956,-15261.9786281066,-2883.9996686705
11003541817,19478,4,0,28336.4365536879,6148.1546891802,4565.0886617282,12522.5798684799,-46086.0034556704,-3893.9063372779,-51673.0691412544,-58530.7100644835,-11130.1208117593,-39433.8505963871,-53511.9974974992,-23092.4877508141,-36815.9827926280,-8727.5360678884,-15262.6113483414,-2885.1921029592
11003541817,19478,4,0,28330.8759162398,6143.4701259034,4560.8786386275,12518.3455099855,-46087.7556040129,-3896.8509199091,-51676.5491025457,-58535.2486153985,-11131.9946370700,-39437.2575514975,-53515.5504649715,-23095.9068736214,-36818.5015058703,-8731.3932277813,-15264.3878320776,-2885.4719599861
11003541817,19478,4,0,28331.0584316922,6165.5666633339,4559.2725026468,12520.0976583280,-46089.4225784777,-3895.2691193221,-51676.4639286680,-58534.7984106160,-11130.8387058718,-39435.3837261868,-53515.8181543016,-23096.8194508831,-36816.7980283151,-8729.5680732579,-15261.0173800576,-2883.4521223135
11003541817,19478,4,0,28331.7641581079,6154.9199286138,4562.9106439969,12522.3973530276,-46085.0787107119,-3890.6210591357,-51672.8136196211,-58531.2454431437,-11126.9207074948,-39431.1250322988,-53511.5351250200,-23091.9037013666,-36811.7362664367,-8724.4576405922,-15256.7830215632,-2877.8671494718
11003541817,19478,4,0,28332.0561828316,6139.4426182550,4566.1107482613,12522.2635083625,-46082.0611218998,-3889.7693203581,-51669.6500184471,-58528.3130282094,-11125.2659007269,-39430.4558089735,-53510.1236721885,-23091.4656642810,-36811.7727695272,-8721.4765548706,-15257.8659465805,-2878.9257390954
11003541817,19478,4,0,28331.0705993890,6154.2507052885,4560.9516448084,12520.2680060836,-46087.7069332256,-3895.1596100507,-51674.4197556017,-58533.1922746354,-11131.2280721702,-39435.3715584900,-53515.6478065461,-23096.1988983451,-36818.5988474449,-8725.6865779713,-15261.7596095638,-2884.7540658736
11003541817,19478,4,0,28328.3328676038,6150.6490670290,4556.6564478299,12517.3355911492,-46095.8349547034,-3903.7256686140,-51679.5301882673,-58538.0836887582,-11137.7986284545,-39441.8447731998,-53520.3080344293,-23100.7982877442,-36827.0675644337,-8730.5171536101,-15267.6366071293,-2888.2096917713
11003595451,19479,4,0,28327.7123150659,6138.5665440838,4558.5789439279,12515.4374304449,-46094.4721726592,-3902.8739298364,-51679.6883683260,-58538.7529120835,-11135.0487289726,-39441.0660406031,-53519.9916743119,-23101.6621942186,-36824.5731865850,-8731.5879109305,-15269.3765877750,-2886.7008973652
11003595451,19479,4,0,28334.3315421375,6162.9384408201,4563.2148364175,12521.6307881277,-46086.8916975385,-3895.3299578062,-51676.9993073282,-58534.9200875843,-11128.3808311136,-39434.5806581965,-53516.3413652650,-23099.2894933381,-36815.4960847550,-8726.0759442697,-15264.3148258966,-2886.1411833114
11003595451,19479,4,0,28336.8989261672,6161.0524478126,4568.5077845354,12522.9205639910,-46081.3432277872,-3887.4209548713,-51675.1619851079,-58532.9124176085,-11122.8688644528,-39428.4238036041,-53513.7496458417,-23097.0019663354,-36809.1202116198,-8722.2796228609,-15261.4067463559,-2886.6035557906
11003595451,19479,4,0,28336.7407461085,6144.9789203095,4569.6272126432,12521.7646327928,-46078.0336142514,-3886.2771913699,-51672.1565639926,-58531.8051571976,-11120.6786790247,-39426.7811645330,-53512.7032239150,-23095.1159733279,-36807.8304357566,-8722.5838152815,-15259.6789334071,-2885.6058046512
11003595451,19479,4,0,28343.1044515469,6170.9812884201,4571.5618764380,12524.9769047540,-46078.5324898211,-3885.6809742256,-51672.3634148386,-58530.5518844248,-11120.7030144183,-39427.3773816773,-53512.6910562181,-23094.2642345503,-36811.1035462019,-8726.1124473601,-15259.7397718912,-2889.9131693265
11003595451,19479,4,0,28341.9120172582,6179.4743408025,4571.8904042522,12528.6028784073,-46078.8488499385,-3886.3501975509,-51672.5094272005,-58529.1647669870,-11121.2748961690,-39427.4747232519,-53511.6689696850,-23094.8969547851,-36815.0093768821,-8729.7384210134,-15262.8790376715,-2893.2349505591
11003595451,19479,4,0,28336.8745907735,6157.2074556165,4571.0386654746,12526.1328359522,-46079.3355578115,-3891.6309779720,-51672.8501227115,-58532.0363434372,-11125.3754099983,-39431.6604109590,-53515.6113034556,-23098.0727236558,-36818.6110151417,-8735.8587725153,-15270.1309849780,-2890.3147033216
11003595451,19479,4,0,28331.8614996825,6159.0082747463,4563.8353889554,12520.6330369883,-46090.2378141648,-3899.2357884863,-51682.0489015097,-58540.6632404847,-11132.9923882095,-39438.9610290527,-53522.4008782828,-23105.9938942876,-36825.2667453039,-8742.5145026775,-15274.0003125677,-2890.1200201725
11003612945,19480,4,0,28324.3540307427,6155.3457980026,4555.4031750571,12515.4739335353,-46098.0129724347,-3906.2078787659,-51688.0232406498,-58547.5988276738,-11139.9766461858,-39445.6045915181,-53528.4968943911,-23112.8443075989,-36829.5862776760,-8746.1161409371,-15278.5145280890,-2893.1132735909
11003612945,19480,4,0,28322.9304102144,6138.7125564456,4554.7096163382,12512.7240340533,-46099.0593943614,-3907.5949962037,-51688.6681285814,-58548.2072125149,-11140.3051740001,-39446.2981502370,-53528.5699005721,-23111.9925688213,-36828.8562158666,-8745.6902715483,-15278.5997019668,-2892.9064227449
11003612945,19480,4,0,28327.0309240438,6158.0470266973,4557.4716835170,12516.6420324303,-46095.3239114368,-3905.2953015042,-51686.8673094516,-58544.7880897077,-11136.2046601707,-39442.7330150678,-53524.5180575300,-23108.3300920776,-36827.1284029178,-8741.1760560269,-15275.2779207341,-2893.1376089846
11003612945,19480,4,0,28335.4266348516,6174.0353803226,4562.6672900604,12522.1905021816,-46094.6060173243,-3903.0199421983,-51683.8618883363,-58541.7826685924,-11133.9658039553,-39439.6910908621,-53523.2647847573,-23106.7847945811,-36827.9436386049,-8740.9205343937,-15274.1949957169,-2894.9019250239
11003612945,19480,4,0,28332.3482075554,6148.3493723294,4562.8133024223,12518.7713793743,-46091.6249316026,-3900.6959121051,-51682.4017647175,-58539.7384955262,-11133.9293008648,-39439.0583706273,-53521.1232701164,-23104.8622984831,-36826.9337197686,-8739.9592863447,-15274.9615606167,-2897.7856691709
11003612945,19480,4,0,28333.9543435360,6152.7175754889,4564.0544074983,12520.0854906312,-46090.0918018029,-3899.6616578752,-51681.1606596416,-58537.6821547631,-11131.8851277986,-39436.1989618739,-53519.1277678375,-23102.1002313042,-36824.2933295580,-8737.5865854642,-15270.8732144842,-2893.7216584321
11003612945,19480,4,0,28335.1954486120,6172.7212690658,4564.6506246426,12525.0255755413,-46089.6415970205,-3897.4106339629,-51680.5279394068,-58533.3991254814,-11130.3763333925,-39434.6779997711,-53517.3877871918,-23099.5206795778,-36824.7557020373,-8738.1097964276,-15272.3455057998,-2894.8289188430
11003612945,19480,4,0,28332.2752013745,6157.8280081545,4562.4239361240,12521.2779249199,-46091.5397577249,-3899.2722915768,-51682.8519695000,-58534.8470814033,-11132.1163140382,-39437.4887377372,-53519.6874818913,-23102.7937900232,-36828.3816756905,-8743.4027445455,-15281.1427506028,-2900.2678793228
11003636712,19481,4,0,28331.9223381666,6160.1277028540,4563.2756749016,12520.1463291153,-46092.4645026834,-3902.2533772984,-51685.9060614026,-58538.3027073010,-11134.1118163172,-39440.1534633414,-53521.0502639355,-23104.5337706688,-36831.8738046787,-8747.0408858956,-15283.1260851849,-2900.5842394402
11003636712,19481,4,0,28332.1413567094,6172.0642134373,4562.1805821875,12521.8011358833,-46093.9367939990,-3902.0465264524,-51684.5311116616,-58536.6600682299,-11133.9658039553,-39439.9952832827,-53520.9650900577,-23103.0736470501,-36830.6083642091,-8742.6848504330,-15274.8277159516,-2894.5977326033
11003636712,19481,4,0,28331.1192701763,6149.5539743149,4563.5311965349,12522.0566575165,-46092.2211487470,-3901.9248494842,-51683.7402113681,-58536.7330744109,-11134.4160087378,-39440.5793327302,-53520.5027175785,-23101.3701694949,-36828.6493650206,-8743.4757507265,-15274.0733187486,-2890.0591816884
11003636712,19481,4,0,28331.1436055699,6149.2254465007,4561.2558372290,12520.4991923232,-46095.1778990749,-3904.7842582376,-51683.8497206395,-58536.9277575600,-11135.9734739311,-39442.8181889456,-53521.3301209624,-23102.9884731723,-36831.4601029867,-8745.1670605849,-15279.4027699571,-2894.4517202414
11003636712,19481,4,0,28335.0251008564,6178.3792480884,4560.1485768181,12524.0156567050,-46092.3793288057,-3905.1127860518,-51684.1295776664,-58533.6668148115,-11135.7422876915,-39441.5162453856,-53520.1376866738,-23101.9663866392,-36830.2798363949,-8742.1859748633,-15281.4226076297,-2900.0245253864
11003636712,19481,4,0,28333.7839957805,6167.5621656128,4564.7357985203,12525.5244511111,-46091.2477330011,-3901.4868123986,-51680.4427655291,-58530.5762198185,-11132.5908542143,-39437.5130731308,-53517.2296071331,-23098.4620899542,-36827.8219616367,-8739.3995722908,-15278.5631988763,-2900.1096992641
11003636712,19481,4,0,28332.9200893061,6160.7239199983,4567.3518533373,12525.8773143189,-46086.9403683258,-3896.5102243980,-51678.1187354359,-58528.4833759649,-11126.9937136758,-39432.0376095605,-53513.2994410593,-23096.0042151959,-36823.7336155042,-8737.3432315277,-15275.8741378784,-2894.6220679970
11003636712,19481,4,0,28334.5627283772,6178.8659559614,4567.0111578262,12528.8827354342,-46086.2468096069,-3895.3299578062,-51678.2525801009,-58528.7145622046,-11128.1618125708,-39432.5973236143,-53513.1412610006,-23096.8559539736,-36824.9260497928,-8736.3089772978,-15271.4572639317,-2890.5945603486
11003690587,19482,4,0,28331.6424811397,6166.7834330162,4563.3851841730,12525.2080909937,-46090.0187956220,-3899.1871176991,-51681.7447090891,-58532.2553619800,-11130.7291966004,-39436.7343405341,-53517.9718366393,-23099.8370396952,-36824.1716525898,-8739.3387338067,-15272.3941765871,-2889.6698153900
11003690587,19482,4,0,28325.6681419996,6160.5170691524,4560.1729122117,12519.6231181520,-46095.0440544099,-3902.0100233620,-51686.1007445517,-58535.6866524841,-11134.2821640727,-39441.0782082999,-53521.3544563561,-23104.5216029720,-36826.8850489813,-8744.1206386581,-15276.7867151401,-2892.9429258354
11003690587,19482,4,0,28325.7289804837,6181.5306815656,4557.4230127297,12517.0800695160,-46097.6114384395,-3905.3926430788,-51690.6149600730,-58540.2008680054,-11136.3263371390,-39445.1787221293,-53526.1850319948,-23109.6928741218,-36830.8395504488,-8744.8385327707,-15279.9503163141,-2897.7856691709
11003690587,19482,4,0,28326.2278560535,6170.6284252122,4560.9394771116,12517.5424419952,-46096.3946687572,-3904.9059352058,-51690.5784569826,-58541.3689669004,-11136.0343124152,-39443.1832198503,-53525.4793055790,-23108.9019738283,-36830.4988549377,-8744.4004956850,-15280.3153472188,-2902.1782077240
11003690587,19482,4,0,28331.3139533254,6154.8225870392,4566.3175991073,12519.5136088805,-46092.8051981945,-3902.8009236555,-51686.4657754564,-58538.2662042106,-11132.9437174222,-39440.7010096984,-53522.5955614320,-23104.6067768498,-36827.2865829765,-8741.7236023840,-15279.7678008618,-2903.7235052205
11003690587,19482,4,0,28337.4343048274,6178.4279188757,4569.0188278020,12524.7213831208,-46088.1449703113,-3898.3232112246,-51683.1683296174,-58533.6789825083,-11128.1496448740,-39436.2111295708,-53518.0691782139,-23101.1876540425,-36823.0887275725,-8738.8885290242,-15274.5235235311,-2898.7590849168
11003690587,19482,4,0,28337.6776587638,6180.1435641278,4568.8119769560,12525.2324263873,-46087.5974239542,-3895.8531687696,-51683.7767144585,-58534.8470814033,-11126.4461673187,-39434.7631736488,-53518.4463768154,-23101.2606602235,-36822.3221626727,-8741.1760560269,-15273.6474493598,-2894.7924157525
11003690587,19482,4,0,28332.9079216093,6161.0889509030,4566.9016485548,12517.9926467777,-46089.2765661158,-3898.7977514007,-51686.6604586056,-58539.9331786753,-11128.8918743801,-39437.6347500990,-53521.9871765909,-23105.2151616909,-36824.4271742231,-8743.2688998805,-15276.1418272085,-2895.2912913222
11003705427,19483,4,0,28329.3184510465,6173.2323123323,4561.8155512828,12514.5248531831,-46093.1945644928,-3901.9005140906,-51691.5397050316,-58542.7804197319,-11132.5178480334,-39440.1899664319,-53525.1629454616,-23109.7293772122,-36826.3375026243,-8744.7411911961,-15276.9935659861,-2896.9217626965
11003705427,19483,4,0,28325.9966698138,6164.4228998325,4558.9318071358,12512.5171832074,-46095.0683898035,-3902.5697374158,-51691.5397050316,-58542.9264320938,-11133.7954561998,-39440.2021341287,-53526.2945412662,-23109.1696631584,-36826.6295273480,-8742.8795335822,-15276.8840567147,-2896.0213531316
11003705427,19483,4,0,28325.3152787917,6146.9379194980,4561.4991911654,12512.9673879898,-46091.6857700867,-3900.8662598606,-51687.8528928942,-58538.7529120835,-11130.9847182337,-39437.2332161039,-53521.7559903512,-23104.6432799402,-36823.7579508978,-8741.4194099634,-15275.2170822500,-2895.1209435667
11003705427,19483,4,0,28332.9930954870,6179.0971422010,4565.9404005058,12521.0710740739,-46087.7069332256,-3895.6949887109,-51682.5477770794,-58533.8249948702,-11124.1829757097,-39432.3418019811,-53516.6698930792,-23100.6522753823,-36819.4870893130,-8738.8276905401,-15270.3986743081,-2889.8279954487
11003705427,19483,4,0,28335.5604795167,6189.7925477084,4566.6461269215,12525.0255755413,-46085.8087725213,-3893.4683001923,-51681.8177152701,-58533.4234608750,-11122.8080259687,-39431.6239078685,-53515.2949433382,-23101.1754863457,-36816.8101960119,-8737.1242129849,-15269.4009231686,-2889.6941507837
11003705427,19483,4,0,28331.7641581079,6168.6329229333,4567.8020581197,12521.6186204309,-46080.5279921001,-3896.3520443393,-51680.2115792894,-58531.3792878088,-11124.2316464970,-39432.3539696779,-53516.4995453237,-23101.5770203409,-36815.3744077868,-8736.1021264518,-15271.5424378095,-2891.0812682215
11003705427,19483,4,0,28331.8128288952,6175.2521500049,4566.9868224326,12519.9638136630,-46086.5996728148,-3896.3642120361,-51684.9448133535,-58535.8326648460,-11125.9351240522,-39433.0596960936,-53517.5824703410,-23102.6112745708,-36818.2946550243,-8734.6906736203,-15270.5568543668,-2892.5292241434
11003705427,19483,4,0,28332.0926859221,6181.6645262306,4564.2490906474,12520.9615648025,-46091.0895529424,-3900.3308812004,-51686.3197630945,-58536.8669190759,-11128.9527128643,-39436.8681851992,-53521.1111024196,-23103.8523796467,-36823.2712430249,-8740.2513110684,-15271.9074687141,-2896.3255455522
11003730737,19484,4,0,28329.9268358876,6164.6054152849,4563.4946934444,12518.4063484697,-46094.1314771482,-3904.0663641251,-51688.3152653735,-58538.6920735994,-11132.6151896080,-39440.7618481825,-53523.9705111730,-23105.4828510210,-36829.2212467713,-8748.3184940620,-15275.2535853404,-2900.1827054450
11003730737,19484,4,0,28331.8614996825,6175.3129884891,4561.5235265591,12520.0489875408,-46097.4289229872,-3906.6215804579,-51689.7145505081,-58540.1400295213,-11133.5642699602,-39442.8425243393,-53524.9682623125,-23108.4274336522,-36833.2365867229,-8752.0904800771,-15277.0179013798,-2900.9857734354
11003730737,19484,4,0,28336.0471873896,6184.9984751601,4562.8498055128,12523.1639179274,-46098.2563263711,-3906.9014374848,-51689.8118920827,-58540.6024020006,-11134.9635550948,-39443.2075552439,-53523.9583434762,-23108.7437937696,-36835.2199213050,-8753.2464112753,-15280.4370241870,-2900.8640964671
11003730737,19484,4,0,28333.8691696583,6159.4341441351,4563.6893765936,12520.3775153550,-46097.1003951730,-3907.3394745704,-51690.7731401317,-58540.5050604260,-11133.4669283856,-39443.6699277232,-53524.3963805618,-23108.5856137109,-36830.2920040917,-8751.2265736027,-15283.5519545737,-2898.9537680659
11003730737,19484,4,0,28340.4032228522,6169.9470341901,4569.2135109512,12526.3518544950,-46087.0377099004,-3901.5963216700,-51685.0056518377,-58535.7839940587,-11128.7458620183,-39438.2187995465,-53520.8190776959,-23104.2174105514,-36819.8399525208,-8742.9038689758,-15277.3099261035,-2896.8244211219
11003730737,19484,4,0,28346.5722451414,6194.5501171661,4572.2797705506,12531.2554363147,-46088.0111256462,-3897.0456030582,-51685.0299872313,-58533.9953426257,-11124.8278636413,-39434.7266705584,-53518.0570105170,-23101.2484925266,-36817.8809533323,-8736.7226789898,-15268.4518428164,-2897.4814767504
11003730737,19484,4,0,28342.9949422755,6176.9191244697,4573.3383601742,12529.7588096055,-46084.9570337437,-3897.3984662661,-51683.5941990062,-58532.2675296769,-11124.5723420080,-39435.2377138249,-53519.4562956517,-23100.9929708934,-36817.6010963054,-8736.1021264518,-15269.3157492909,-2897.4084705694
11003730737,19484,4,0,28343.3113023929,6176.7244413205,4574.2022666486,12530.3306913561,-46088.0719641303,-3897.0942738455,-51685.5166951042,-58536.1246895697,-11124.1951434065,-39434.5806581965,-53519.9186681310,-23101.3093310108,-36819.4384185257,-8737.6839270388,-15272.3333381029,-2896.2160362808
11003765473,19485,4,0,28342.4595636153,6185.9840586028,4571.0143300810,12531.9611627304,-46091.3329068789,-3898.8099190975,-51686.5509493342,-58535.7474909682,-11126.6043473774,-39436.8316821087,-53520.7217361213,-23102.5382683899,-36823.4294230836,-8740.1539694938,-15273.1729091837,-2893.8555030971
11003765473,19485,4,0,28340.6952475759,6165.9560296322,4569.3473556162,12529.9169896642,-46092.4158318961,-3900.7932536797,-51687.8042221069,-58537.0129314378,-11128.2956572358,-39438.4378180893,-53521.4274625370,-23105.1664909036,-36826.0576455973,-8744.6925204088,-15276.3365103577,-2894.1231924272
11003765473,19485,4,0,28342.8245945199,6170.6892636963,4570.9534915969,12532.9345784762,-46090.6271804631,-3900.3673842909,-51686.1737507327,-58535.5528078191,-11126.8355336171,-39438.5108242703,-53519.6388111040,-23103.4751810452,-36824.1594848930,-8744.0354647803,-15275.1197406754,-2892.6874042021
11003765473,19485,4,0,28347.9836979729,6197.9570722766,4572.6569691521,12536.9499184278,-46091.5762608153,-3899.1262792149,-51686.8308063611,-58533.8249948702,-11125.1807268492,-39437.0141975611,-53518.0448428202,-23102.6599453581,-36822.8210382424,-8745.7024392451,-15271.5789408999,-2892.2980379038
11003765473,19485,4,0,28345.3554754591,6183.6235254191,4573.4843725360,12535.5141302027,-46084.9692014405,-3901.2434584621,-51683.3995158570,-58530.4180397598,-11125.1442237587,-39435.7730924851,-53517.5216318568,-23101.8690450646,-36822.7845351520,-8745.1305574944,-15272.5158535553,-2891.4462991262
11003765473,19485,4,0,28342.6907498549,6167.1606316177,4571.4767025602,12529.7101388182,-46093.8394524244,-3903.6769978267,-51689.4468611780,-58535.8204971492,-11128.3199926295,-39439.1678798987,-53519.2981155930,-23102.5139329962,-36825.9724717196,-8744.6073465310,-15276.3000072672,-2896.0213531316
11003765473,19485,4,0,28341.9606880455,6180.9709675117,4567.1206670976,12528.6880522850,-46094.2774895100,-3908.3250580131,-51692.7686424107,-58537.3049561616,-11132.7612019698,-39443.4387414836,-53522.7294060971,-23104.6067768498,-36830.4380164536,-8746.4690041449,-15280.6317073362,-2898.8320910977
11003765473,19485,4,0,28340.4640613363,6173.7798586894,4562.6916254541,12526.0963328618,-46099.9719716232,-3910.5517465317,-51693.4987042201,-58538.1445272423,-11134.6958657647,-39445.6532623054,-53523.4473002096,-23104.2174105514,-36833.4312698721,-8750.2653255537,-15283.7344700260,-2902.0686984526
11003789210,19486,4,0,28341.9971911360,6171.9668718627,4567.0841640072,12527.7511396297,-46096.6623580873,-3907.1326237244,-51693.2188471931,-58536.2220311443,-11131.5687676812,-39442.7938535520,-53521.5369718084,-23103.4873487421,-36830.3528425758,-8749.0485558714,-15283.6371284515,-2900.3895562910
11003789210,19486,4,0,28341.3279678107,6190.5834480018,4566.4392760755,12527.5442887837,-46096.4676749382,-3904.4313950297,-51695.0561694134,-58536.5262235649,-11130.6805258131,-39441.9421147744,-53522.8267476716,-23105.8113788352,-36828.5885265365,-8749.2310713237,-15282.0309924708,-2899.1119481246
11003789210,19486,4,0,28334.4410514089,6178.1967326361,4563.9814013173,12522.4460238149,-46098.0129724347,-3905.7576739834,-51696.7718146654,-58540.1035264308,-11131.6296061653,-39442.2706425886,-53524.9560946157,-23107.6852041460,-36828.1748248445,-8748.7565311476,-15282.9679051262,-2900.7789225894
11003789210,19486,4,0,28329.4036249242,6159.6166595875,4564.2490906474,12521.2900926167,-46094.8858743512,-3903.9446871568,-51696.3946160639,-58538.4852227534,-11130.5223457544,-39439.7154262558,-53522.7537414907,-23106.4319313732,-36825.7291177831,-8748.4888418175,-15281.6659615661,-2903.0421141984
11003789210,19486,4,0,28338.0426896685,6186.2760833265,4567.8385612102,12526.7655561870,-46089.7024355046,-3898.8220867944,-51691.7465558776,-58535.1512738239,-11125.3754099983,-39434.4346458346,-53520.1620220674,-23103.6211934071,-36821.8476224966,-8746.3959979640,-15277.0665721671,-2900.4868978656
11003789210,19486,4,0,28345.9760279971,6191.4595221731,4573.7763972598,12532.0220012145,-46085.7357663403,-3893.9428403684,-51689.2278426352,-58533.0705976672,-11120.5813374501,-39431.6725786558,-53518.5923891773,-23100.9929708934,-36818.5258412639,-8743.8164462375,-15272.7957105822,-2896.9460980901
11003789210,19486,4,0,28342.2648804661,6168.4747428746,4575.3825332404,12526.3275191014,-46084.6650090199,-3894.7945791460,-51690.3959415302,-58533.6789825083,-11120.2163065454,-39432.2566281033,-53519.2616125025,-23101.0051385902,-36818.6961890195,-8741.1882237238,-15271.8587979268,-2891.1056036151
11003789210,19486,4,0,28346.2437173272,6181.5915200497,4573.4965402329,12527.8241458106,-46088.8141936365,-3897.4958078407,-51693.3770272518,-58535.2242800048,-11122.1022995529,-39435.4445646709,-53522.1453566496,-23104.2052428546,-36820.7038589953,-8741.7722731713,-15275.8619701816,-2897.3354643885
11003831731,19487,4,0,28341.4253093853,6172.5265859166,4568.5929584132,12521.1075771644,-46093.6082661848,-3901.3408000367,-51699.6433911157,-58540.9674329053,-11126.8355336171,-39441.0538729063,-53527.6086525231,-23108.8533030410,-36824.2568264676,-8745.3982468245,-15279.5609500158,-2905.2809704139
11003831731,19487,4,0,28337.2396216782,6154.2385375917,4568.5929584132,12518.8078824648,-46091.2112299107,-3901.0487753130,-51697.6113857462,-58540.2252033991,-11124.9008698222,-39438.3283088179,-53525.6618210314,-23109.3035078234,-36821.0688898999,-8745.8849546974,-15281.8849801090,-2907.3616465706
11003831731,19487,4,0,28343.3234700897,6177.3571615553,4573.0585031472,12524.5875384557,-46084.5798351421,-3895.5003055617,-51688.7046316718,-58530.8682445422,-11118.4398228092,-39431.0276907242,-53518.8479108105,-23103.4995164389,-36816.0314634152,-8741.9426209268,-15277.9183109447,-2901.8253445161
11003831731,19487,4,0,28346.5235743541,6183.4653453604,4575.3581978468,12530.3185236593,-46078.2161297037,-3886.2163528858,-51686.2102538231,-58527.6924756714,-11111.1027016250,-39423.4958863908,-53513.7253104481,-23098.5472638319,-36808.5118267787,-8734.5324935616,-15270.9827237556,-2894.3543786669
11003831731,19487,4,0,28348.4582381490,6156.3313814453,4582.5493066691,12533.8714911316,-46072.0592751113,-3880.5340384695,-51681.3310073971,-58523.2756017247,-11106.0896105340,-39418.5679691775,-53508.4566977237,-23092.9014525061,-36801.3815564404,-8727.6942479471,-15267.6001040388,-2888.9275858838
11003831731,19487,4,0,28351.2811438119,6160.2372121254,4582.7318221215,12535.5749686868,-46073.3125478841,-3881.5074542153,-51679.3111697245,-58521.2192609616,-11107.7565849987,-39421.3300363563,-53509.2719334109,-23092.1105522126,-36802.3184690958,-8726.8546768663,-15265.6167694567,-2889.1222690330
11003831731,19487,4,0,28350.6119204866,6171.6626794422,4580.7484875393,12535.9521672883,-46078.2526327942,-3886.4597068223,-51683.1561619206,-58522.7767261550,-11112.3073036105,-39425.0898546746,-53512.3868637976,-23095.0916379342,-36808.0981250867,-8728.0592788518,-15264.6311860140,-2885.3867861084
11003831731,19487,4,0,28341.0602784806,6152.3038737969,4573.1315093282,12525.9868235904,-46086.1981388196,-3896.2912058552,-51689.4346934812,-58530.5275490312,-11121.1167161103,-39433.5585716634,-53518.6897307518,-23101.6621942186,-36817.8079471514,-8734.6785059235,-15271.1895746016,-2888.7694058251
11003869202,19488,4,0,28333.7109895996,6152.6810723984,4563.7988858650,12519.0755717949,-46095.8227870065,-3905.3926430788,-51697.4045349002,-58537.5726454917,-11129.1838991039,-39440.5915004270,-53525.7591626060,-23109.2061662488,-36826.9945582527,-8745.0453836166,-15275.6672870324,-2894.0015154590
11003869202,19488,4,0,28335.9376781182,6165.6640049085,4564.8209723981,12523.7357996781,-46093.3649122483,-3903.2146253474,-51695.3968649244,-58533.8614979607,-11125.9594594458,-39438.0971225783,-53523.0579339113,-23104.3755906101,-36823.5754354455,-8743.6704338757,-15274.9128898294,-2895.5103098650
11003869202,19488,4,0,28342.7759237327,6146.8892487107,4573.5817141106,12529.9413250578,-46084.9326983500,-3894.9162561142,-51687.2445080531,-58526.5243767764,-11118.0139534204,-39429.5675671054,-53514.3580306829,-23097.2331525751,-36813.7317687157,-8737.7934363102,-15272.7592074917,-2895.1574466572
11003869202,19488,4,0,28348.5555797236,6156.5503999881,4579.0450099841,12533.2144355032,-46080.7713460366,-3892.4218782655,-51684.6527886298,-58525.0155823704,-11115.6655879336,-39427.0001830758,-53512.8127331864,-23096.8559539736,-36810.8236891750,-8736.0047848772,-15270.0214757066,-2893.9163415812
11003869202,19488,4,0,28347.2414684667,6174.7654421320,4575.1635146976,12531.6569703098,-46083.8862764232,-3895.2569516252,-51688.1084145275,-58528.6780591141,-11118.5736674743,-39430.8938460591,-53518.5802214804,-23103.7915411626,-36815.5690909360,-8740.7136835477,-15271.5911085967,-2894.8410865398
11003869202,19488,4,0,28337.3856340401,6154.0316867457,4567.9115673911,12523.0665763528,-46092.1603102628,-3900.5498997432,-51696.1269267338,-58537.8525025186,-11125.7039378125,-39439.1070414146,-53525.1021069775,-23111.0434884691,-36824.7435343405,-8747.7587800082,-15279.4271053507,-2900.4382270783
11003869202,19488,4,0,28333.7596603869,6149.5053035276,4565.2468417869,12520.3896830518,-46094.3139926005,-3903.4458115871,-51696.3581129735,-58537.0859376188,-11125.9594594458,-39439.7154262558,-53523.8853372952,-23109.5468617599,-36824.3054972548,-8746.7731965655,-15278.4901926954,-2897.1407812393
11003869202,19488,4,0,28343.8831841435,6173.9502064449,4571.8904042522,12530.6957222608,-46088.4126596414,-3897.8973418358,-51689.1670041511,-58528.8240714760,-11120.3379835136,-39431.9524356827,-53515.9763343603,-23102.0150574265,-36817.3577423689,-8736.0899587550,-15268.8777122052,-2888.4408780109
11003894138,19489,4,0,28347.9106917919,6163.8388503850,4579.2518608301,12535.5019625059,-46083.6429224868,-3894.1131881239,-51685.7965521311,-58525.1250916418,-11117.3325623984,-39428.4116359072,-53513.6888073576,-23099.1191455826,-36814.7051844615,-8734.9705306472,-15270.8488790905,-2889.7428215710
11003894138,19489,4,0,28345.3554754591,6159.0204424431,4576.5871352259,12532.4722059970,-46085.7235986435,-3896.1208580997,-51687.7677190165,-58526.8650722875,-11117.4664070634,-39428.6793252374,-53515.8789927857,-23101.1998217393,-36816.8710344960,-8740.7015158509,-15276.4216842355,-2895.9361792538
11003894138,19489,4,0,28352.2302241641,6185.5460215171,4579.9089164585,12538.1423527165,-46083.8132702423,-3893.4074617082,-51687.1593341753,-58525.5022902433,-11115.0937061829,-39427.8884249439,-53514.3458629861,-23099.7031950301,-36817.2238977039,-8741.7966085649,-15274.8277159516,-2898.4427247994
