timestamp,sequence,battery,flags,EEG-ch1,EEG-ch2,EEG-ch3,EEG-ch4,EEG-ch5,EEG-ch6,EEG-ch7,EEG-ch8,EEG-ch9,EEG-ch10,EEG-ch11,EEG-ch12,EEG-ch13,EEG-ch14,EEG-ch15,EEG-ch16
561575809423,46986,-2,0,8496.6296852795,11130.2303210307,14376.5109949075,2744.2658383559,-5206.3871227814,-2280.1533784384,-5048.4139149291,-20488.7953138537,-7479.0086968864,-2088.4878180834,-4650.5545642125,1365.0087326881,-21003.3307094054,11555.9780328654,13911.1939330045,19231.2273441122
561575809423,46986,-2,0,8499.0023861599,11133.1749036618,14372.7146734987,2740.2018276170,-5199.6340510446,-2284.8866125025,-5048.5599272910,-20483.1860056183,-7470.9171784991,-2082.1484480387,-4655.4094752449,1373.9884929434,-20995.0323401722,11566.3084074681,13923.5076421894,19242.8474945781
561575809423,46986,-2,0,8505.5972778380,11137.3849267626,14369.3320537819,2744.3631799305,-5192.6254576746,-2280.2385523162,-5043.5346685031,-20478.1607468304,-7463.8599143418,-2077.0380153730,-4651.9295139535,1379.0502548218,-20990.5424600445,11569.6423563976,13926.8172557252,19247.4347162803
561575809423,46986,-2,0,8507.3250907868,11142.4345209441,14377.9832862231,2750.5808730070,-5194.7304692250,-2271.6238229655,-5039.3124777055,-20481.0444909775,-7467.9117573838,-2076.8068291334,-4643.8744986568,1373.1732572563,-20996.8088239084,11561.9523720055,13919.5531407219,19242.3851220988
561575809423,46986,-2,0,8505.3904269920,11140.9013911444,14386.2086492754,2753.2942693985,-5201.0576715729,-2271.0154381244,-5040.7847690211,-20488.0895874380,-7474.3363013063,-2081.4183862293,-4641.4896300795,1365.2642543214,-21003.0873554690,11555.6616727480,13911.9483302076,19235.1331747923
561575809423,46986,-2,0,8500.4746774755,11135.1460705471,14379.6745960814,2748.5123645471,-5205.7544025466,-2279.3138073576,-5046.9294559167,-20491.7520641817,-7479.0573676736,-2085.6770801173,-4650.5910673030,1362.1736593284,-21003.9877650339,11553.6053319849,13909.8554863540,19231.0083255694
561575809423,46986,-2,0,8497.8707903554,11130.0964763656,14369.0156936646,2739.0093933284,-5207.2023584685,-2290.7514423712,-5055.5320175705,-20492.8106538053,-7478.4611505293,-2086.5409865917,-4664.9246141604,1362.5508579299,-21001.4203810042,11554.5909154276,13910.3178588333,19231.4463626550
561575809423,46986,-2,0,8494.8532015433,11128.8553712897,14360.8511690964,2734.8115379244,-5206.5939736274,-2294.9127946846,-5057.0651473702,-20491.2775240056,-7475.6382448664,-2085.2877138190,-4667.2851473441,1363.8649691867,-20999.7655742363,11557.8396904793,13912.7757335915,19234.5369576480
561575818279,46987,-2,0,8495.2547355385,11130.3033272116,14364.2581242068,2738.7295363014,-5207.9445879747,-2287.5635058036,-5053.9015461963,-20490.9854992818,-7478.9843614927,-2087.5022346408,-4658.0620331523,1362.8550503504,-21005.0828577480,11556.7689331589,13911.1939330045,19231.0204932662
561575818279,46987,-2,0,8492.8820346580,11132.9193820285,14373.2987229462,2743.6209504243,-5215.5615661859,-2285.2638111040,-5053.9380492867,-20495.9012487983,-7486.0172902564,-2092.0651209494,-4651.5766507457,1356.6130218803,-21014.3668104239,11549.3588057937,13904.1975073313,19226.7861347718
561575818279,46987,-2,0,8489.1708871270,11130.4250041798,14371.9237732052,2739.5569396854,-5219.9662724358,-2290.7879454616,-5058.2575816589,-20498.2739496788,-7490.2516487508,-2096.1291316882,-4657.3563067366,1354.6296872981,-21017.6764239597,11544.8689256661,13902.9564022554,19224.0362352898
561575818279,46987,-2,0,8492.3588236946,11131.0577244146,14366.8741790237,2736.3811708146,-5212.0816048945,-2295.0101362592,-5057.3693397908,-20491.4235363675,-7482.5738320555,-2090.8970220544,-4662.2842239499,1364.0231492454,-21007.0175215428,11553.2768041707,13912.6783920169,19233.2715171784
561575818279,46987,-2,0,8500.7545345024,11134.8540458234,14369.3077183883,2739.7272874409,-5202.8463230059,-2290.9582932172,-5053.1958197805,-20481.9205651487,-7472.8518422939,-2082.9150129385,-4659.6438337393,1373.7816420974,-20996.7601531211,11564.0208804654,13921.3174567612,19242.8961653654
561575818279,46987,-2,0,8501.3020808595,11137.1294051293,14374.1261263302,2742.9638947958,-5204.6349744389,-2284.1078799058,-5049.3386598876,-20481.1783356425,-7473.8739288271,-2083.4260562051,-4649.9096762809,1371.6036243661,-20997.1981902067,11561.7941919468,13917.2291106287,19242.5554698543
561575818279,46987,-2,0,8495.7414434114,11134.5133503123,14375.3063929220,2742.4771869229,-5213.5052254228,-2282.2827253824,-5050.6406034477,-20488.4546183427,-7483.5715831950,-2090.6901712084,-4647.6708200655,1361.6382806681,-21005.9467642224,11555.0897909973,13907.0690837816,19232.4562814913
561575818279,46987,-2,0,8488.4773284081,11128.6241850500,14371.8872701148,2738.1819899444,-5219.8810985580,-2289.7050204444,-5057.2719982162,-20495.0616777175,-7490.7748597141,-2097.4067398546,-4655.4824814258,1355.6031030440,-21009.9256010835,11547.4849804830,13900.6932106463,19227.4796934907
561575845871,46988,-2,0,8485.4597395960,11124.0126279541,14364.1364472386,2730.0661361635,-5218.2141240933,-2297.9912219808,-5063.3680143245,-20495.0738454143,-7486.5891720070,-2096.9321996785,-4668.0517122439,1356.0898109169,-21005.1923670194,11550.0036937253,13903.0659115268,19230.1930898822
561575845871,46988,-2,0,8490.3268183252,11125.0955529714,14358.1134373112,2727.6812675862,-5208.2487803953,-2297.8817127094,-5061.4698536201,-20489.6713880250,-7477.0740330915,-2090.9091897512,-4669.1589726548,1363.4147644043,-20997.0643455416,11557.2556410318,13909.1375922415,19234.1962621370
561575845871,46988,-2,0,8494.4394998513,11130.4858426640,14363.7714163339,2732.5240109217,-5204.0509249914,-2287.9163690114,-5055.5441852673,-20487.3473579318,-7474.3119659127,-2087.4900669439,-4658.5609087220,1363.9501430645,-20996.7114823338,11558.0100382348,13910.5733804666,19233.4905357212
561575845871,46988,-2,0,8490.7283523203,11128.5755142628,14370.9260220658,2735.9309660322,-5209.7940778918,-2282.7450978617,-5053.1836520837,-20492.0197535118,-7478.9235230086,-2088.9866936532,-4649.7149931318,1358.4260087069,-21006.6281552445,11550.4538985078,13904.7815567788,19228.2340906937
561575845871,46988,-2,0,8488.0879621098,11126.2514841696,14369.9161032294,2733.6191036358,-5212.7873313102,-2285.4098234659,-5054.9114650326,-20496.3271181871,-7482.8901921729,-2093.7929338982,-4653.0854451517,1356.3331648533,-21009.3293839392,11548.7260855589,13899.9631488370,19220.4224293334
561575845871,46988,-2,0,8484.4741561533,11121.8224425260,14361.6177339962,2727.0485473514,-5212.0207664104,-2294.3165775403,-5060.7276241139,-20497.0815153901,-7481.3205592827,-2093.5495799618,-4664.7420987081,1357.3917544769,-21003.6714049165,11551.1961280140,13906.7162205737,19226.6036193195
561575845871,46988,-2,0,8489.1465517334,11123.7571063209,14358.1621080985,2726.0386285151,-5206.9225014416,-2296.6284399367,-5060.8979718694,-20491.5817164262,-7473.7157487684,-2087.2467130075,-4666.3482346887,1364.7532110548,-20997.1008486321,11561.3439871643,13916.1583533083,19239.9759181279
561575845871,46988,-2,0,8499.5621002138,11133.3330837205,14368.3951411266,2737.2572449859,-5201.5200440522,-2289.3034864492,-5053.0741428123,-20486.7633084843,-7470.7103276531,-2082.9636837258,-4657.7578407317,1367.1867504194,-20995.7380665879,11565.0186316049,13919.9060039298,19240.1706012770
561575870429,46989,-2,0,8500.9857207421,11136.0464801120,14377.3870690787,2742.3311745610,-5204.5741359547,-2281.4188189080,-5050.5919326604,-20490.7178099517,-7475.1637046903,-2086.5774896822,-4648.2305341194,1362.0276469665,-21000.0089281728,11558.7522677410,13911.8266532393,19233.2593494816
561575870429,46989,-2,0,8496.0334681351,11130.9725505369,14376.4136533329,2739.0458964188,-5212.7264928261,-2286.2128914562,-5056.1160670180,-20499.6854025102,-7483.0118691411,-2091.7730962256,-4652.2580417678,1353.8266193078,-21004.5718144814,11552.2668853344,13905.1222522899,19227.5405319748
561575870429,46989,-2,0,8488.3556514399,11123.6354293526,14364.8178382606,2728.4234970924,-5215.9874355747,-2297.8330419221,-5065.4365227844,-20503.2748730730,-7486.5161658261,-2097.3459013705,-4667.5528366742,1351.4539184273,-21003.4402186769,11549.9671906349,13902.3115143238,19226.3967684735
561575870429,46989,-2,0,8486.3723168577,11121.4209085309,14354.0250911787,2723.0697104903,-5212.8725051880,-2303.5031886416,-5068.4419438997,-20501.0603522512,-7482.7441798110,-2095.1557159424,-4673.8192005380,1354.5323457235,-21000.2036113220,11551.0622833489,13907.6531332291,19232.8091446992
561575870429,46989,-2,0,8488.9518685842,11125.3024038174,14356.1422704259,2726.9755411705,-5211.2055307232,-2297.6626941666,-5063.6722067451,-20498.3591235565,-7481.1988823145,-2093.3913999031,-4667.4189920091,1357.0388912691,-21000.0454312633,11550.3200538427,13903.4917809156,19229.5482019506
561575870429,46989,-2,0,8487.3700679972,11128.4051665072,14364.1364472386,2731.8182845060,-5214.9653490415,-2290.7879454616,-5060.7276241139,-20500.7561598307,-7486.3701534642,-2095.8371069645,-4657.5631575826,1352.1961479335,-21007.3703847507,11547.7770052067,13902.4818620793,19229.5360342538
561575870429,46989,-2,0,8483.9874482804,11126.5556765901,14365.2802107399,2732.7065263741,-5219.1388690518,-2291.6031811488,-5061.8835553121,-20504.2969596061,-7490.4463318999,-2099.9862915811,-4656.6505803208,1349.5070869357,-21009.8039241153,11547.3998066052,13901.3137631843,19224.8514709770
561575870429,46989,-2,0,8487.2848941194,11126.4826704092,14365.9859371556,2731.0517196062,-5215.8900940001,-2297.6018556825,-5064.3292623735,-20501.0846876449,-7486.1146318310,-2096.7861873167,-4662.4910747959,1354.6418549950,-21004.6448206623,11553.8243505278,13906.8378975419,19230.0105744299
561575903560,46990,-2,0,8492.5413391470,11128.6120173532,14362.1652803532,2728.8737018748,-5208.2852834857,-2298.4900975506,-5062.4554370628,-20493.4555417369,-7477.3295547248,-2090.1669602450,-4665.6546759698,1364.0231492454,-20994.0954275168,11565.1281408763,13916.3165333670,19237.8709065775
561575903560,46990,-2,0,8495.2060647512,11132.3353325810,14362.6884913166,2731.1368934839,-5204.6471421357,-2294.3774160244,-5057.0651473702,-20490.1945989883,-7473.7035810715,-2088.3296380247,-4658.7677595680,1367.1989181162,-20992.3554468712,11566.5517614045,13917.2412783255,19239.0633408661
561575903560,46990,-2,0,8493.7337734356,11132.0311401605,14370.1716248627,2735.9187983353,-5210.8404998186,-2285.9817052166,-5054.7289495802,-20495.0130069302,-7480.6635036543,-2090.4833203624,-4650.3963841538,1359.7401199638,-21002.4911383247,11557.0731255795,13908.9185736986,19232.8699831833
561575903560,46990,-2,0,8488.7328500414,11128.1253094803,14371.0355313372,2735.0062210736,-5217.2528760442,-2287.4053257449,-5057.2111597321,-20500.8291660116,-7488.3291526527,-2096.6523426516,-4651.7591661980,1352.9018743493,-21010.0594457485,11550.2713830555,13902.6400421380,19226.7374639845
561575903560,46990,-2,0,8487.3822356940,11127.6507693042,14367.3852222903,2732.8768741296,-5216.7905035650,-2292.0412182344,-5060.8614687790,-20497.9210864709,-7486.8446936403,-2097.1147151309,-4660.4225663360,1355.9681339487,-21006.5673167603,11553.1429595057,13907.0204129943,19229.1345002586
561575903560,46990,-2,0,8490.7283523203,11128.5633465659,14361.7394109644,2728.9953788431,-5210.6214812757,-2297.7965388317,-5062.1999154295,-20494.2951128177,-7481.1623792240,-2092.1259594335,-4666.6889301998,1361.7842930300,-20999.3762079380,11556.0388713495,13909.7824801731,19232.1642567675
561575903560,46990,-2,0,8491.3367371615,11127.7481108788,14358.0404311303,2727.9002861290,-5209.0153452951,-2295.4846764353,-5061.2630027741,-20493.7475664606,-7479.2277154292,-2091.2377175654,-4664.9976203414,1362.3683424775,-20999.5587233903,11557.2069702445,13911.5467962124,19234.3057714084
561575903560,46990,-2,0,8490.2903152347,11128.3078249326,14363.8565902116,2730.7353594888,-5212.6291512515,-2290.5810946157,-5058.4157617176,-20497.3492047202,-7484.1799680361,-2096.5671687738,-4657.1494558906,1357.1727359341,-21006.0441057970,11550.0158614222,13904.6112090233,19227.6865443367
561575962052,46991,-2,0,8485.7639320166,11126.9328751917,14368.6871658503,2731.4045828140,-5219.1510367486,-2289.8388651095,-5061.1899965932,-20505.6597416503,-7491.7604431568,-2101.1057196888,-4656.5410710494,1349.3367391802,-21015.0238660523,11543.2262865950,13897.1280754772,19219.5220197685
561575962052,46991,-2,0,8479.7287543924,11121.1410515039,14364.3432980845,2726.2089762706,-5222.9716935510,-2299.7920411106,-5067.2616773078,-20508.9328520957,-7493.8897901008,-2103.9529607454,-4666.9444518331,1346.1244672189,-21017.2140514804,11542.9342618712,13896.3615105774,19218.6337779004
561575962052,46991,-2,0,8481.8215982459,11122.9297029369,14358.0404311303,2724.0552939330,-5217.0581928951,-2305.4743555269,-5070.6077939342,-20504.9540152346,-7488.1344695036,-2101.6654337427,-4677.1896525580,1351.9162909066,-21009.3415516360,11550.5755754760,13903.3214331601,19224.2917569231
561575962052,46991,-2,0,8489.7427688777,11128.5390111723,14358.5879774873,2726.8781995959,-5210.5119720043,-2300.9966430961,-5065.5703674495,-20499.7462409943,-7479.8239325735,-2094.7298465536,-4672.3469092224,1355.1285628679,-21000.6294807108,11553.3376426548,13907.3124377180,19228.7329662635
561575962052,46991,-2,0,8492.7116869025,11133.0410589968,14367.3365515030,2734.6168547753,-5210.4754689139,-2290.2525668014,-5059.4378482507,-20501.2793707940,-7481.3813977668,-2093.3062260253,-4660.6902556661,1353.0843898016,-21001.2987040360,11551.0014448648,13904.6963829011,19225.9222282974
561575962052,46991,-2,0,8490.6796815330,11134.3186671632,14372.8363504670,2738.4010084872,-5215.8292555160,-2288.3909091875,-5059.7785437617,-20506.3776357628,-7488.6820158606,-2100.0106269747,-4657.9160207904,1345.7959394047,-21007.4920617189,11541.6688214016,13896.4223490615,19216.3827539882
561575962052,46991,-2,0,8488.1122975034,11130.3885010894,14370.8773512785,2735.0427241641,-5219.4552291692,-2295.5576826162,-5064.3049269799,-20508.0567779244,-7492.5026726630,-2102.8822034250,-4665.2166388842,1344.4818281478,-21011.5074016705,11541.3524612842,13895.1690762887,19217.4656790054
561575962052,46991,-2,0,8487.4795772686,11127.2127322186,14363.8809256053,2729.0318819335,-5217.3015468315,-2304.2697535415,-5068.2594284473,-20504.3334626966,-7488.5603388924,-2100.0349623684,-4674.2329022300,1350.1763102609,-21007.8570926236,11545.8423414119,13900.2795089544,19222.7586271234
561575974959,46992,-2,0,8493.1862270786,11133.3817545078,14363.1386960991,2732.1224769266,-5209.5142208649,-2299.2201593599,-5063.2706727499,-20495.8404103142,-7481.3448946764,-2093.8051015950,-4670.2175622784,1359.1560705163,-20999.9480896887,11554.0068659801,13905.9131525834,19228.3801030556
561575974959,46992,-2,0,8496.9095423064,11137.1537405229,14370.7678420071,2739.4109273235,-5209.1856930506,-2290.0092128650,-5056.2012408958,-20495.3171993508,-7481.3448946764,-2092.0529532525,-4658.2932193919,1357.7081145943,-21003.5497279483,11551.4273142536,13903.6134578838,19225.4841912117
561575974959,46992,-2,0,8492.2979852105,11134.3430025568,14375.9634485505,2739.4230950203,-5217.0460251983,-2286.7969409037,-5055.9457192625,-20500.4763028037,-7488.1709725940,-2097.5162491260,-4652.7082465502,1350.9672105544,-21012.7120036559,11542.8977587808,13896.6048645138,19218.3782562671
561575974959,46992,-2,0,8486.8225216402,11130.4371718767,14371.6560838751,2736.1621522718,-5220.1366201913,-2293.1971494326,-5060.7397918107,-20503.0680222270,-7491.0547167411,-2102.0304646473,-4660.3617278518,1349.8356147499,-21014.9751952650,11541.3524612842,13896.2641690028,19215.8717107216
561575974959,46992,-2,0,8488.7206823445,11129.6341038863,14362.7371621039,2731.3437443299,-5214.6733243178,-2297.8330419221,-5064.4996101290,-20499.0283468818,-7484.9587006328,-2097.8812800307,-4667.7110167329,1356.3331648533,-21005.8494226478,11549.0911164636,13903.7107994584,19223.5373597201
561575974959,46992,-2,0,8495.1330585702,11133.8684623807,14365.9129309747,2734.0328053278,-5205.8030733339,-2295.4360056480,-5060.1314069696,-20492.4334552038,-7475.6382448664,-2088.6094950516,-4664.6934279208,1363.6337829471,-20997.7579042605,11555.9415297749,13911.5102931219,19230.9718224789
561575974959,46992,-2,0,8496.9338777000,11137.4579329435,14371.3275560609,2740.7007031867,-5205.3285331578,-2287.3201518671,-5054.9723035167,-20493.9665850035,-7476.6481637027,-2089.6315815848,-4656.2003755384,1362.0519823601,-21001.1283562805,11553.7513443468,13908.2736857670,19227.4675257939
561575974959,46992,-2,0,8494.3786613672,11137.5187714276,14374.8561881396,2742.2946714706,-5210.9378413931,-2283.5968366393,-5055.7267007197,-20500.0747688086,-7483.5715831950,-2094.3648156489,-4652.1607001932,1352.9992159239,-21010.6921659833,11546.1343661357,13900.3160120448,19218.3782562671
561576000993,46993,-2,0,8489.5845888190,11133.1627359650,14375.7565977045,2736.5393508733,-5216.6688265967,-2290.6784361902,-5063.4045174150,-20506.6331573961,-7489.6797670001,-2101.3247382316,-4660.7754295438,1346.3313180649,-21017.4209023264,11540.1965300861,13895.1325731983,19212.9757988778
561576000993,46993,-2,0,8487.7594342955,11130.0356378815,14364.3554657814,2729.0075465399,-5215.7075785477,-2300.7897922501,-5069.6830489756,-20505.6840770439,-7487.3070661196,-2100.7528564809,-4673.1864803032,1349.3975776643,-21013.3933946780,11545.1001119057,13900.0726581084,19216.2975801104
561576000993,46993,-2,0,8494.0988043403,11132.4448418524,14359.8412502601,2728.6790187257,-5207.0806815003,-2300.2300781962,-5067.0913295523,-20499.1013530627,-7479.4710693656,-2094.9123620059,-4671.6776858972,1357.3795867801,-21003.8417526720,11553.8851890119,13907.8843194687,19221.8460498617
561576000993,46993,-2,0,8503.3705893194,11142.1789993108,14373.7367600319,2739.3865919299,-5203.3938693629,-2289.2791510556,-5058.0507308129,-20494.1491004558,-7474.7134999079,-2087.4413961566,-4657.7091699444,1359.7279522669,-20999.4127110285,11554.9437786355,13909.1010891510,19224.1335768644
561576000993,46993,-2,0,8506.2543334664,11146.2673454433,14385.6976060088,2748.1595013392,-5205.6692286688,-2279.7761798369,-5052.3927517902,-20498.6754836739,-7478.5828274975,-2089.2787183769,-4649.5446453762,1353.9969670633,-21004.6569883591,11550.9406063807,13899.7197949005,19214.8131210980
561576000993,46993,-2,0,8504.6116943953,11142.9333965138,14384.6268486884,2745.9571482143,-5212.2276172564,-2285.5680035246,-5057.1138181575,-20504.2239534252,-7486.0416256500,-2094.4013187394,-4656.4558971717,1348.3389880407,-21008.9765207313,11545.2826273580,13895.1204055014,19210.6030979973
561576000993,46993,-2,0,8500.8153729866,11138.8085472908,14376.5840010884,2740.0923183456,-5212.7994990071,-2295.3995025575,-5064.4509393417,-20506.4993127311,-7486.6256750975,-2095.8006038740,-4667.7110167329,1347.9496217423,-21007.0905277237,11547.0834464878,13896.7630445725,19214.2899101346
561576000993,46993,-2,0,8505.0618991778,11142.5805333060,14372.1427917480,2740.4816846439,-5202.9558322773,-2293.9393789388,-5061.9200584026,-20498.6998190676,-7473.6549102843,-2087.0885329488,-4667.4189920091,1357.6107730198,-20996.9670039670,11558.2655598681,13907.6409655322,19225.3503465467
561576036093,46994,-2,0,8514.7838889393,11155.2714410923,14381.6457629668,2753.3672755794,-5194.3532706235,-2280.8712725509,-5051.3098267730,-20489.5497110567,-7465.8310812271,-2080.3962996962,-4653.4626437532,1364.1813293041,-20989.2040133940,11561.5265026167,13909.8433186572,19228.9641525031
561576036093,46994,-2,0,8515.4531122646,11157.4494588236,14395.1640741371,2760.5340490081,-5194.4506121981,-2270.2853763150,-5045.7005185376,-20492.2144366609,-7467.3398756332,-2080.2989581216,-4641.4409592922,1360.2633309272,-20990.2626030176,11557.0122870954,13904.7572213852,19226.1169114465
561576036093,46994,-2,0,8509.0894068262,11152.7527278499,14393.8864659706,2757.3217770469,-5200.4857898222,-2274.1425362079,-5049.8132000637,-20495.6700625587,-7475.3462201426,-2085.5554031491,-4647.4031307354,1355.6639415281,-20996.3951222164,11553.4958227135,13901.8613095413,19223.6590366883
561576036093,46994,-2,0,8504.4413466398,11144.9410664896,14381.6700983604,2746.1274959698,-5203.9900865072,-2286.4075746054,-5056.2134085926,-20496.0107580697,-7477.7797595072,-2091.2377175654,-4660.3982309423,1357.0632266627,-20998.5001337667,11553.9581951928,13903.7107994584,19224.8636386738
561576036093,46994,-2,0,8501.3629193436,11141.2785897459,14372.4469841686,2738.6078593332,-5202.7733168249,-2293.9880497261,-5059.0484819524,-20493.3216970718,-7475.0906985094,-2088.5121534771,-4666.6280917157,1360.3606725017,-20997.3928733559,11556.3308960733,13907.7018040164,19228.4652769334
561576036093,46994,-2,0,8503.5896078622,11141.6801237411,14372.5564934400,2742.1121560182,-5202.1770996806,-2289.4616665079,-5054.3882540692,-20491.4113686706,-7474.2997982159,-2087.8307624550,-4659.6681691329,1362.1128208442,-21002.2234489946,11554.7490954863,13906.0591649453,19227.8325566986
561576036093,46994,-2,0,8503.1150676861,11146.2916808370,14380.6236764336,2750.1063328309,-5204.3672851088,-2282.5504147125,-5049.2534860099,-20491.3505301865,-7480.1037896004,-2090.3373080005,-4649.3256268334,1358.9248842766,-21008.1491173473,11548.5800731971,13898.1623297072,19219.4368458907
561576036093,46994,-2,0,8498.5400136807,11144.4300232230,14383.4100790061,2752.0288289289,-5208.8571652364,-2282.1367130205,-5049.3629952813,-20493.8935788225,-7483.2917261680,-2090.8726866607,-4648.2913726035,1356.1628170978,-21013.4298977685,11545.9518506833,13895.9843119759,19220.8482987222
561576080910,46995,-2,0,8496.7513622477,11139.0032304400,14377.3262305946,2745.3730987668,-5205.1825207959,-2288.4639153685,-5052.1737332474,-20492.1170950864,-7480.0916219036,-2088.3783088120,-4655.6284937877,1359.7522876606,-21008.8791791567,11549.5899920334,13900.3768505289,19227.1876687670
561576080910,46995,-2,0,8501.3020808595,11141.8261361029,14373.6272507604,2744.7768816224,-5194.9129846773,-2286.1885560626,-5048.1705609926,-20482.3464345375,-7468.7756638583,-2080.6153182390,-4657.7700084286,1370.3260161997,-20996.5898053655,11559.7013480932,13913.5788015818,19237.9925835457
561576080910,46995,-2,0,8507.4589354519,11148.1411707540,14377.7886030739,2750.5443699165,-5187.5028573122,-2276.8802679930,-5041.6973462828,-20477.0048156323,-7462.0834306056,-2074.1907743165,-4647.1354414053,1374.3048530608,-20990.6398016191,11565.0429669985,13917.1926075382,19242.5067990670
561576080910,46995,-2,0,8508.3106742295,11154.0181683195,14391.4407589092,2756.7620629930,-5189.7660489212,-2269.3362959628,-5037.6211678472,-20480.6307892855,-7465.7580750462,-2076.4904690160,-4638.0826749690,1369.2309234857,-20993.4870426757,11559.5066649441,13912.7879012883,19239.6473903137
561576080910,46995,-2,0,8509.0529037357,11154.3588638306,14393.0590625867,2758.7453975752,-5194.4019414108,-2270.7964195816,-5041.4783277400,-20486.0089112812,-7473.4480594383,-2082.6229882148,-4639.7739848274,1362.5995287172,-20999.3518725443,11555.0654556037,13908.3953627353,19233.6000449926
561576080910,46995,-2,0,8500.1218142676,11144.7585510373,14382.8503649522,2748.1108305519,-5201.9094103505,-2284.9474509866,-5051.9182116141,-20493.8814111257,-7481.0285345590,-2089.6680846752,-4656.6262449272,1355.6761092249,-21003.5618956451,11551.2326311045,13904.9275691407,19230.1322513981
561576080910,46995,-2,0,8497.5665979348,11138.5651933544,14370.9381897626,2737.0138910494,-5203.5277140280,-2295.9348812177,-5060.7397918107,-20495.4632117127,-7479.3980631847,-2090.6901712084,-4668.7087678724,1356.9415496945,-20999.8020773268,11554.0555367674,13908.2615180702,19233.2228463911
561576080910,46995,-2,0,8498.6616906489,11138.6868703226,14365.8520924906,2736.3933385114,-5200.4249513381,-2293.9028758483,-5059.0484819524,-20493.8570757320,-7474.9325184507,-2088.7433397167,-4664.4500739843,1359.4237598464,-20993.5357134630,11553.7513443468,13909.7216416890,19236.8488200444
561576098280,46996,-2,0,8499.5864356074,11140.8040495698,14375.7079269172,2740.0193121647,-5203.8562418422,-2285.8356928547,-5055.9578869593,-20499.2838685151,-7476.7576729741,-2087.8916009391,-4655.3729721544,1354.2524886966,-20998.9990093365,11550.9041032902,13904.7937244757,19232.9551570610
561576098280,46996,-2,0,8496.0943066193,11138.9302242591,14380.5019994654,2741.0048956073,-5209.8184132854,-2285.6531774024,-5058.9146372873,-20507.5213992642,-7484.3868188821,-2092.1259594335,-4654.9227673720,1345.5404177714,-21006.3726336112,11546.3533846785,13897.2740878391,19225.9952344783
561576098280,46996,-2,0,8493.0402147167,11133.2357421459,14374.2843063889,2734.2031530833,-5212.6413189484,-2294.2922421467,-5065.3391812098,-20512.3398072061,-7488.8158605256,-2097.3824044610,-4668.0638799408,1342.9243629545,-21009.1103653963,11546.4142231626,13896.8847215408,19222.8194656075
561576098280,46996,-2,0,8494.9018723306,11132.4448418524,14366.4118065444,2729.9931299826,-5207.6890663414,-2300.2665812867,-5069.1720057090,-20508.0324425308,-7483.2552230776,-2094.0727909251,-4675.3888334282,1348.4728327057,-21002.7223245643,11553.4471519262,13904.5503705392,19229.8767297648
561576098280,46996,-2,0,8500.0853111772,11138.5165225671,14371.8994378116,2735.6632767020,-5201.1306777538,-2294.0245528165,-5063.0394865103,-20498.4929682216,-7475.1150339030,-2084.8375090365,-4667.0296257108,1355.2259044425,-20998.2689475271,11558.5819199855,13908.5292074003,19236.3986152619
561576098280,46996,-2,0,8503.3827570162,11144.3205139516,14379.9544531084,2745.4582726445,-5200.9968330888,-2282.5382470157,-5055.6171914483,-20498.6389805835,-7476.9645238201,-2086.3949742299,-4656.4924002621,1354.9703828092,-21002.8074984421,11553.6905058627,13905.4629478009,19233.8677343228
561576098280,46996,-2,0,8504.0519803415,11148.9807418348,14386.1356430944,2751.7246365083,-5203.8684095390,-2279.9465275924,-5052.6361057267,-20501.1211907353,-7480.7608452289,-2088.3418057215,-4649.7393285254,1352.0988063590,-21007.0296892396,11546.9982726101,13901.3502662748,19231.1543379312
561576098280,46996,-2,0,8502.4093412704,11148.3115185096,14386.7318602388,2749.0477432073,-5205.4988809133,-2285.1299664390,-5056.3350855608,-20501.4375508527,-7481.5395778255,-2088.4269795993,-4655.1296182180,1351.4782538210,-21007.4433909316,11544.2483731281,13899.1600808466,19230.3147668505
561576132284,46997,-2,0,8498.0776412014,11140.5485279365,14372.5199903496,2738.4253438809,-5206.3506196909,-2296.0687258828,-5065.4121873908,-20501.0968553417,-7481.0772053463,-2091.5297422891,-4669.5240035595,1353.0113836207,-21003.9755973371,11547.4484773925,13902.4453589888,19231.3733564741
561576132284,46997,-2,0,8497.3232439984,11140.4633540588,14366.5943219968,2735.6267736116,-5204.8053221944,-2297.9182157999,-5064.6091194004,-20498.9310053072,-7478.8261814340,-2090.1912956386,-4668.8304448406,1356.1628170978,-21002.8196661389,11551.3786434663,13904.7937244757,19233.8190635355
561576132284,46997,-2,0,8496.4836729176,11142.5683656091,14374.7831819586,2742.7083731625,-5205.8274087275,-2287.3688226544,-5056.1525701085,-20495.0008392334,-7477.7554241136,-2086.3341357457,-4652.9516004867,1357.5986053229,-21003.6714049165,11551.8653513393,13904.3678550869,19233.9650758973
561576132284,46997,-2,0,8487.1997202417,11136.8860511928,14377.0585412645,2745.5921173096,-5206.5209674464,-2278.8879379688,-5049.0831382544,-20492.0197535118,-7478.0231134437,-2084.6428258874,-4642.1953564952,1359.0465612449,-21004.4258021195,11551.8653513393,13904.4043581773,19232.7361385182
561576132284,46997,-2,0,8483.4277342266,11132.5786865175,14374.9656974110,2740.4573492503,-5205.3893716419,-2280.7252601891,-5049.6063492178,-20491.9345796340,-7478.1812935024,-2085.5797385427,-4647.1719444958,1358.2069901641,-21003.6470695228,11553.1307918088,13906.2781834881,19233.9164051100
561576132284,46997,-2,0,8490.2903152347,11132.7003634857,14371.0476990340,2736.3690031178,-5203.1626831233,-2290.1430575300,-5057.3693397908,-20493.7840695511,-7476.2101266171,-2085.7135832078,-4659.7290076170,1359.1804059099,-21001.2500332487,11555.2601387529,13908.2615180702,19237.0313354967
561576132284,46997,-2,0,8505.7554578967,11142.5440302155,14373.7002569414,2739.7637905314,-5197.2126793769,-2291.3111564250,-5059.4378482507,-20492.1049273895,-7470.6738245626,-2083.6694101415,-4663.2211366052,1361.5774421840,-20997.2103579035,11558.8131062252,13911.2669391855,19241.5090479276
561576132284,46997,-2,0,8515.7816400788,11154.7360624321,14383.7507745171,2749.5344510802,-5197.0544993182,-2285.5193327373,-5054.6559433993,-20492.2631074482,-7472.1826189687,-2084.9470183079,-4654.5455687705,1358.4138410101,-20996.6384761528,11555.1262940878,13905.6454632533,19236.0335843572
561576154798,46998,-2,0,8511.2917599511,11152.4363677325,14391.4650943029,2750.8728977307,-5202.4934597980,-2279.9951983797,-5054.6559433993,-20498.8945022167,-7478.0717842310,-2089.1327060150,-4650.0070178555,1351.9041232098,-21003.4767217673,11550.1740414809,13901.7883033604,19233.7825604450
561576154798,46998,-2,0,8501.9226333974,11142.9090611202,14386.9387110847,2744.6065338669,-5206.8129921702,-2287.1254687179,-5060.8736364758,-20504.9540152346,-7483.4499062267,-2093.3792322062,-4658.1715424237,1348.4971680994,-21005.1193608384,11546.4385585562,13898.1744974040,19230.7528039361
561576154798,46998,-2,0,8500.1704850549,11136.9103865865,14376.4744918170,2735.8336244576,-5204.6106390452,-2294.4869252958,-5065.4365227844,-20503.1288607111,-7479.6535848180,-2092.6126673064,-4668.8426125374,1351.7216077574,-20999.6073941776,11549.6629982143,13904.4286935710,19235.1940132765
561576154798,46998,-2,0,8504.9402222095,11135.8152938724,14373.5542445795,2733.8989606627,-5198.3077720909,-2292.9051247088,-5062.1512446422,-20496.4852982458,-7470.1506135993,-2084.2534595890,-4665.4234897302,1360.0929831716,-20992.4162853553,11558.8374416188,13911.6684731806,19242.6528114289
561576154798,46998,-2,0,8508.2255003517,11142.5805333060,14381.8647815096,2741.8201312945,-5193.9274012347,-2279.5936643845,-5052.3440810029,-20492.5551321720,-7467.9969312616,-2079.0335176520,-4651.9538493472,1361.1272374016,-20993.0003348028,11560.1272174820,13910.9505790681,19242.8718299717
561576154798,46998,-2,0,8507.3372584836,11148.0073260890,14390.5525170412,2749.8508111976,-5196.2027605406,-2270.5530656451,-5046.1142202296,-20494.7453176001,-7473.5697364065,-2080.8586721754,-4642.4387104316,1358.0853131958,-20999.0598478206,11555.1871325719,13906.0713326421,19237.7248942156
561576154798,46998,-2,0,8502.4093412704,11142.2155024013,14387.6687728941,2746.6385392363,-5203.1018446392,-2275.1767904378,-5051.0421374429,-20500.5493089847,-7479.1060384609,-2085.9812725379,-4648.4982234495,1353.2790729508,-21003.0630200753,11547.7039990258,13900.5958690718,19234.6342992226
561576154798,46998,-2,0,8498.5521813775,11136.3993433199,14379.0783789371,2740.5790262185,-5202.0797581060,-2285.1908049231,-5057.7343706955,-20500.4641351069,-7478.8140137372,-2087.1250360392,-4660.5077402137,1354.2281533030,-21003.4888894641,11550.7824263220,13903.9663210917,19237.5545464601
561576189825,46999,-2,0,8503.2245769575,11138.6260318385,14376.4379887265,2739.7151197441,-5192.8079731270,-2283.1587995537,-5055.4955144801,-20493.2365231941,-7468.2889559853,-2081.0655230214,-4660.3738955487,1362.8793857441,-20992.7204777758,11559.5066649441,13910.9019082808,19246.0597665393
561576189825,46999,-2,0,8512.4841942398,11147.6179597907,14389.1410642097,2749.8021404103,-5187.1986648916,-2271.0154381244,-5046.2237295010,-20489.0873385775,-7461.2438595249,-2074.8599976417,-4646.0768517817,1366.5905332751,-20984.0205745474,11564.0452158590,13911.5346285156,19248.8218337181
561576189825,46999,-2,0,8515.0637459662,11152.1443430088,14400.5665315264,2755.3384424647,-5189.0238194150,-2263.1307705831,-5042.8167743906,-20491.5087102452,-7465.9284228017,-2077.3057047031,-4637.2552715851,1361.4679329126,-20984.8479779314,11561.1249686215,13908.9064060018,19244.4049597714
561576189825,46999,-2,0,8509.6369531832,11146.3160162306,14395.0910679561,2749.4736125961,-5198.1495920322,-2270.1515316499,-5047.6230146356,-20497.6168940503,-7474.1537858540,-2085.0200244889,-4643.0714306664,1356.4426741248,-20991.6983912427,11553.5079904104,13904.0028241822,19238.6618068710
561576189825,46999,-2,0,8504.3561727620,11141.4124344110,14384.8945380185,2742.1608268055,-5201.3983670840,-2280.7982663700,-5053.2809936583,-20495.7065656491,-7474.2511274286,-2085.1295337603,-4652.0146878313,1359.1804059099,-20991.7592297268,11555.1993002687,13909.6486355080,19242.0687619814
561576189825,46999,-2,0,8509.7099593641,11144.9532341864,14382.8625326491,2742.8543855244,-5191.9684020462,-2282.3800669570,-5048.8032812274,-20483.5875396135,-7463.3732064689,-2074.6531467957,-4650.4693903348,1371.8348106058,-20983.0228234080,11565.7851965047,13921.0862705216,19253.2022045744
561576189825,46999,-2,0,8514.1024979172,11149.7594744315,14386.2938231531,2748.7557184835,-5186.7971308964,-2270.5895687356,-5040.0668749086,-20478.6231193097,-7458.4574569524,-2071.1731855044,-4639.2264384704,1375.8258151637,-20977.4500182631,11570.2872443292,13923.4468037052,19255.7330855136
561576189825,46999,-2,0,8511.3769338289,11150.1731761235,14394.0933168166,2753.5132879413,-5189.8633904958,-2264.0920186321,-5036.8424352505,-20482.6262915645,-7461.0491763757,-2072.2682782184,-4629.6261256771,1371.4332766106,-20981.4896936083,11567.5495125440,13918.6162280665,19252.2652919190
561576221068,47000,-2,0,8508.6270343469,11146.3038485338,14398.2059983428,2751.7976426893,-5193.5136995427,-2264.3475402654,-5038.6432543803,-20485.2666817750,-7465.7459073493,-2073.8135757149,-4630.6603799070,1367.8681414415,-20982.4631093541,11565.5905133555,13917.1439367510,19250.5131435765
561576221068,47000,-2,0,8503.2245769575,11138.4435163862,14387.5349282291,2742.2460006833,-5196.2149282374,-2276.0163615186,-5047.2214806405,-20489.5132079663,-7466.2204475254,-2078.1331080871,-4644.6532312534,1365.9456453435,-20982.5847863223,11567.0749723679,13918.8230789125,19250.5009758797
561576221068,47000,-2,0,8502.8595460528,11136.8982188896,14377.2897275042,2737.4032573477,-5193.0513270634,-2282.9519487077,-5051.0786405333,-20487.7732273206,-7463.1663556229,-2076.7216552556,-4652.9029296994,1369.0605757301,-20980.1755823514,11571.0173061386,13922.1205247515,19252.3261304032
561576221068,47000,-2,0,8503.9911418573,11140.8162172666,14378.1658016754,2739.2770826585,-5192.9296500952,-2279.6058320814,-5047.5500084547,-20486.5442899415,-7462.7283185373,-2075.6508979352,-4646.6122304419,1369.4864451189,-20983.9110652760,11570.3237474197,13922.7289095927,19251.4257208383
561576221068,47000,-2,0,8503.7721233145,11144.0649923184,14383.7629422140,2746.8088869919,-5196.3487729024,-2272.3052139876,-5042.1962218526,-20487.6637180492,-7468.8121669487,-2078.9605114710,-4636.6712221376,1366.9920672702,-20990.5911308318,11563.6558495607,13913.6031369755,19243.0421777272
561576221068,47000,-2,0,8502.1051488498,11144.6368740690,14389.1897349970,2750.1063328309,-5200.4006159445,-2270.6260718260,-5040.9429490798,-20489.3671956044,-7472.7545007194,-2081.1263615055,-4633.1425900589,1363.9258076709,-20995.8475758593,11555.6616727480,13911.3399453664,19241.8375757418
561576221068,47000,-2,0,8497.3962501793,11139.0762366210,14383.9454576663,2742.5380254070,-5201.4227024776,-2277.3304727755,-5047.3918283960,-20491.0341700691,-7473.7157487684,-2081.4062185325,-4643.9718402313,1364.0961554264,-20996.5533022751,11553.7148412563,13912.0335040853,19244.9890092189
561576221068,47000,-2,0,8497.3232439984,11133.7467854125,14373.2013813716,2734.9818856800,-5196.6529653230,-2281.8933590841,-5049.3994983718,-20487.8340658047,-7468.8730054328,-2078.9848468647,-4650.9439305109,1370.2043392315,-20990.7979816778,11558.6549261665,13917.7766569857,19250.0872741877
561576249800,47001,-2,0,8500.5963544437,11138.2853363275,14375.0752066824,2739.9828090742,-5188.9386455373,-2272.7310833764,-5042.4274080922,-20481.9814036328,-7461.8887474565,-2072.6576445168,-4642.1831887984,1376.2638522493,-20986.0769153105,11565.2863209350,13922.2300340229,19256.5969919880
561576249800,47001,-2,0,8500.6571929279,11139.9401430954,14384.7971964439,2746.6628746300,-5191.4816941733,-2263.1429382799,-5037.6941740281,-20484.2445952419,-7465.1375225082,-2072.9131661500,-4631.7919757116,1372.7230524738,-20991.5402111840,11563.4976695020,13917.6184769270,19253.1291983935
561576249800,47001,-2,0,8495.5954310495,11140.2686709096,14388.4475054908,2747.4537749235,-5195.4970341248,-2262.9239197371,-5038.1930495978,-20487.1770101762,-7471.4160540688,-2079.9217595201,-4630.3318520928,1368.6833771286,-20994.8254893262,11559.0929632521,13914.1750187262,19251.7542486525
561576249800,47001,-2,0,8493.5877610737,11138.6868703226,14383.5925944584,2744.5578630796,-5193.9760720220,-2269.1537805105,-5042.2083895494,-20486.1670913399,-7471.2213709197,-2080.8708398722,-4640.1511834289,1369.0970788206,-20992.9638317123,11560.4800806899,13916.8762474209,19253.4820616013
561576249800,47001,-2,0,8491.7626065503,11133.6616115347,14375.1360451665,2736.3203323305,-5193.7205503887,-2279.2042980862,-5048.2679025672,-20485.5222034083,-7469.4570548803,-2081.5035601070,-4651.1994521442,1370.1069976569,-20990.4572861668,11561.6238441913,13920.0398485948,19258.3369726337
561576249800,47001,-2,0,8494.9018723306,11138.2731686306,14373.4690707017,2737.1599034113,-5193.1121655475,-2280.7009247954,-5048.6816042592,-20485.0111601418,-7468.0699374425,-2083.1705345718,-4651.8078369853,1370.8370594663,-20989.2040133940,11561.4899995262,13918.2877002523,19258.1544571813
561576249800,47001,-2,0,8496.8852069127,11140.6337018143,14379.7841053529,2742.9760624926,-5198.8796538416,-2274.7995918363,-5045.3719907234,-20489.2698540298,-7474.4944813650,-2086.6383281663,-4643.2904492093,1365.7996329816,-20995.9449174339,11554.2015491293,13910.3178588333,19252.7763351856
561576249800,47001,-2,0,8492.2371467264,11139.3804290415,14385.6124321310,2745.3609310699,-5205.9734210894,-2274.8239272299,-5045.8830339899,-20495.0495100207,-7480.2619696591,-2090.6658358147,-4641.5748039572,1358.5355179783,-21001.5055548820,11548.2758807765,13904.8058921725,19246.5829775027
561576324292,47002,-2,0,8493.5634256801,11139.6481183716,14383.6656006394,2743.9859813289,-5207.4578801018,-2280.1412107416,-5049.7280261860,-20494.5506344510,-7481.0163668621,-2091.3958976241,-4649.5446453762,1358.0244747117,-21003.7322434006,11548.6895824685,13905.6211278596,19245.7555741188
561576324292,47002,-2,0,8491.7991096408,11134.0023070458,14372.9336920415,2738.1454868539,-5201.2280193284,-2285.6045066151,-5052.4170871839,-20490.9976669787,-7475.2488785681,-2087.0155267678,-4657.3441390397,1363.7311245217,-20996.0544267053,11555.7711820194,13910.4638711952,19251.2553730827
561576324292,47002,-2,0,8494.8532015433,11138.6381995353,14374.3451448730,2739.8854674996,-5195.3023509757,-2279.6423351718,-5047.4648345769,-20486.9214885430,-7467.2181986649,-2078.7414929282,-4653.1949544231,1368.8415571873,-20989.7272243574,11560.9181177755,13913.8221555183,19256.5361535039
561576324292,47002,-2,0,8502.3606704831,11145.5007805435,14383.7751099108,2749.0477432073,-5193.8543950537,-2268.8495880899,-5042.1597187621,-20486.4226129732,-7468.3011236822,-2078.5833128695,-4641.1124314779,1366.0186515244,-20990.8831555556,11558.5697522887,13911.1695976109,19254.5406512249
561576324292,47002,-2,0,8503.1759061702,11147.2285934923,14390.7593678871,2752.1991766844,-5198.5997968147,-2265.0410989843,-5040.5292473878,-20490.0607543233,-7473.9712704017,-2081.2480384738,-4636.4278682011,1361.3949267317,-20994.8498247199,11552.9726117501,13905.7914756151,19247.8605856691
561576324292,47002,-2,0,8500.7788698961,11144.3935201326,14388.8733748796,2747.6119549822,-5201.8729072600,-2272.9622696160,-5045.4206615107,-20492.8471568957,-7476.1736235266,-2084.2656272858,-4642.9254183046,1358.6328595529,-20993.0733409837,11550.8189294125,13903.1024146173,19244.1372704413
561576324292,47002,-2,0,8501.1682361944,11140.8892234476,14384.2131469964,2743.9373105417,-5195.9350712105,-2280.0317014702,-5046.9294559167,-20485.3031848655,-7468.9338439170,-2080.4449704834,-4650.1043594301,1367.1137442385,-20984.8114748409,11561.5751734040,13912.1916841440,19252.0219379826
561576324292,47002,-2,0,8502.5675213291,11143.0429057852,14379.9179500179,2745.6164527032,-5186.5051061727,-2274.4102255380,-5041.2714768940,-20479.4626903905,-7460.9031640138,-2075.4927178765,-4646.1498579626,1374.0493314275,-20981.2950104591,11567.0141338838,13917.9348370444,19257.8867678512
561576336079,47003,-2,0,8506.5706935838,11150.8910702360,14392.9252179216,2754.6083806554,-5182.7817909449,-2260.5877219471,-5031.3669716802,-20476.9074740577,-7457.4475381161,-2070.2484405458,-4631.1105846895,1376.7262247286,-20985.0304933837,11565.1889793604,13916.7180673622,19258.6046619638
561576336079,47003,-2,0,8506.6923705520,11152.7283924563,14400.8950593407,2759.1347638735,-5183.9255544462,-2252.8490667677,-5027.0839423985,-20478.8908086398,-7459.4673757887,-2071.1245147171,-4623.8464696862,1372.9907418040,-20989.2526841813,11557.5111626651,13911.1817653077,19250.2819573369
561576336079,47003,-2,0,8504.9767253000,11147.9343199081,14395.9063036433,2754.3771944157,-5186.2739199330,-2259.4804615362,-5033.3138031718,-20481.8962297551,-7463.1906910165,-2076.0645996272,-4632.8992361225,1368.6103709477,-20991.2846895507,11554.0190336769,13906.0956680357,19245.1715246713
561576336079,47003,-2,0,8504.8063775445,11144.6977125532,14387.3889158672,2749.4127741120,-5181.8448782895,-2266.8662535077,-5038.8136021358,-20481.2635095203,-7458.5061277397,-2072.4386259740,-4642.3657042507,1371.8834813931,-20985.4198596821,11560.4070745090,13911.1330945204,19249.5397278307
561576336079,47003,-2,0,8507.7509601756,11145.9753207196,14385.7584444929,2748.3906875788,-5174.9822972813,-2265.7711607937,-5037.1344599742,-20475.8367167373,-7449.1491688829,-2065.8315665991,-4642.5117166126,1378.4540376775,-20977.9123907423,11567.0628046711,13917.2656137192,19258.0449479099
561576336079,47003,-2,0,8509.8681394228,11150.0514991552,14390.4916785570,2754.1460081761,-5173.6195152372,-2257.6553070128,-5032.5107351815,-20475.7880459500,-7450.4876155334,-2065.3448587262,-4632.5707083082,1376.0691691002,-20980.8204702830,11563.0352970227,13915.6838131322,19256.7065012594
561576336079,47003,-2,0,8506.9965629726,11150.7815609646,14399.1915817854,2757.4312863183,-5181.3338350229,-2254.7715628657,-5032.6202444529,-20483.0886640437,-7458.1045937445,-2069.2141863159,-4627.7036295791,1368.6590417350,-20991.7835651205,11553.0942887184,13907.9694933465,19252.7641674888
561576336079,47003,-2,0,8502.8960491433,11146.7783887099,14397.6341165921,2752.4668660145,-5187.6245342804,-2261.2082744851,-5039.0447883754,-20488.4911214331,-7463.7382373736,-2073.5458863848,-4633.9334903524,1363.9379753677,-20996.3586191259,11548.5314024098,13904.5990413265,19249.5153924371
561576369966,47004,-2,0,8504.2588311874,11144.2718431643,14391.0757280045,2748.2568429138,-5185.1179887349,-2269.0321035422,-5044.9096182441,-20486.4956191542,-7461.5237165518,-2072.3534520962,-4645.3346222755,1368.0141538034,-20991.2603541571,11553.3498103517,13910.0988402905,19255.6357439390
561576369966,47004,-2,0,8505.2444146301,11143.5904521423,14382.8868680427,2744.1563290845,-5183.2806665146,-2271.8793445988,-5046.6252634961,-20483.8917320341,-7457.0825072114,-2069.3236955873,-4647.2692860704,1371.0925810996,-20984.8114748409,11557.4138210905,13912.7392305010,19260.8556858760
561576369966,47004,-2,0,8504.6725328794,11146.5715378639,14386.0261338230,2747.6484580726,-5184.5096038937,-2265.0776020748,-5043.7050162586,-20485.3640233496,-7456.9973333337,-2068.3746152351,-4639.2994446513,1369.7419667522,-20984.3491023617,11558.3507337459,13912.6783920169,19259.7970962524
561576369966,47004,-2,0,8504.7577067572,11148.9442387444,14395.8576328560,2753.8783188460,-5186.3590938108,-2256.6210527828,-5039.1908007373,-20487.8340658047,-7462.0590952120,-2071.1731855044,-4630.4656967579,1365.4832728642,-20987.2815172960,11555.8806912908,13909.8919894445,19256.4509796261
561576369966,47004,-2,0,8501.2655777690,11145.4034389689,14398.3520107047,2753.0752508557,-5188.8899747500,-2258.4340396094,-5043.2548114762,-20490.3041082597,-7465.4782180192,-2074.2029420133,-4632.0474973449,1362.2344978125,-20990.5911308318,11553.8243505278,13908.4318658257,19254.2851295916
561576369966,47004,-2,0,8495.1087231766,11139.1005720146,14389.7007782636,2742.9273917053,-5191.7007127161,-2270.9789350339,-5052.0642239760,-20492.2874428419,-7466.9991801221,-2076.9650091921,-4646.6974043197,1362.3561747807,-20989.6298827828,11554.9316109386,13912.0943425694,19255.8790978755
561576369966,47004,-2,0,8495.9239588637,11138.4678517798,14381.1833904875,2738.0968160666,-5188.7074592976,-2277.5616590151,-5055.0209743040,-20489.5862141472,-7462.7161508404,-2076.4052951382,-4652.7690850343,1365.6171175292,-20985.6388782249,11559.3971556727,13917.8618308635,19258.5438234797
561576369966,47004,-2,0,8501.4237578277,11144.1379984993,14384.7241902630,2740.7493739740,-5188.2207514247,-2272.9501019192,-5050.8839573842,-20489.5253756631,-7461.8765797596,-2075.4197116956,-4644.9574236740,1366.3228439450,-20986.8069771199,11558.4724107141,13915.7568193131,19257.6799170053
561576377284,47005,-2,0,8500.9735530453,11146.3038485338,14393.8621305770,2747.4659426203,-5192.8323085206,-2266.9270919919,-5046.4549157406,-20492.5672998688,-7465.4903857161,-2077.1718600381,-4636.3913651106,1360.5188525604,-20993.0490055901,11553.8121828309,13911.5346285156,19252.3626334936
561576377284,47005,-2,0,8497.4084178761,11144.1988369834,14392.9495533153,2746.0301543952,-5199.2203493526,-2270.9911027307,-5049.4116660686,-20497.4222109012,-7472.6814945384,-2084.3264657700,-4640.0781772480,1355.4327552884,-20998.3297860112,11548.5922408939,13907.5679593513,19247.0331822852
561576377284,47005,-2,0,8491.9086189122,11136.6913680437,14383.2762343410,2737.7196174651,-5203.0166707614,-2282.4774085316,-5055.2521605436,-20497.9089187741,-7474.4944813650,-2087.1615391297,-4652.6109049756,1356.0898109169,-20997.9890905002,11550.6485816570,13910.6220512539,19250.6469882416
561576377284,47005,-2,0,8496.8852069127,11138.8572180781,14379.1392174212,2736.8678786875,-5192.9661531857,-2281.5769989667,-5051.5166776190,-20489.1360093647,-7465.3200379605,-2079.9339272169,-4653.2192898168,1368.3183462239,-20986.6974678485,11562.2808998197,13921.7068230596,19261.0138659347
561576377284,47005,-2,0,8505.3174208110,11146.8635625876,14388.1554807670,2747.2347563807,-5187.0769879234,-2272.8284249510,-5041.9772033098,-20481.4216895790,-7459.5160465760,-2077.5612263364,-4642.5725550967,1372.9542387135,-20981.5626997892,11566.2354012872,13926.5739017887,19266.7448511383
561576377284,47005,-2,0,8506.7288736425,11149.5404558887,14396.3200053352,2752.4546983177,-5188.7196269944,-2264.9194220161,-5039.7748501848,-20486.4712837605,-7465.4538826256,-2082.8176713639,-4636.5008743820,1365.4832728642,-20985.0183256869,11558.1560505967,13916.9005828145,19256.1832902960
561576377284,47005,-2,0,8500.8640437738,11142.3615147631,14396.2591668511,2746.6020361459,-5200.4492867318,-2273.0474434938,-5046.6982696771,-20497.0936830869,-7474.5066490619,-2090.8605189639,-4643.3634553902,1355.8829600709,-20996.7479854242,11553.4349842294,13909.1740953319,19250.5983174543
561576377284,47005,-2,0,8495.0843877829,11134.2821640727,14385.1013888645,2737.1720711081,-5203.1018446392,-2283.4386565806,-5055.4590113896,-20500.1721103832,-7476.7820083678,-2095.3990698788,-4656.6019095335,1355.7491154058,-20999.7290711459,11554.7612631831,13911.5589639092,19251.3892177478
561576408389,47006,-2,0,8495.9117911669,11132.8950466349,14371.9846116893,2732.8890418264,-5197.3708594356,-2288.6585985176,-5056.5906071941,-20494.2464420304,-7469.3840486994,-2089.6194138879,-4659.5464921647,1363.2079135583,-20992.2337699029,11563.7896942257,13920.7334073137,19260.7096735142
561576408389,47006,-2,0,8500.1583173581,11139.8914723081,14377.6060876215,2739.8611321060,-5192.0170728335,-2279.1312919053,-5050.0200509097,-20487.2256809635,-7462.2537783612,-2080.6396536326,-4648.3765464812,1369.6446251776,-20985.1400026551,11569.0339715564,13925.9776846444,19265.3699013973
561576408389,47006,-2,0,8500.6693606247,11141.0230681126,14383.5560913680,2745.4947757350,-5194.6452953472,-2269.8838423198,-5043.5225008063,-20489.0630031838,-7465.4417149288,-2080.3962996962,-4637.3404454628,1366.0551546149,-20987.6222128070,11565.2619855413,13921.2201151866,19258.7871774161
561576408389,47006,-2,0,8497.0190515778,11136.4480141072,14384.9675441994,2743.3654287910,-5198.4051136655,-2267.8396692536,-5044.6784320045,-20493.9300819130,-7470.9171784991,-2082.2944604005,-4636.5130420789,1360.6526972255,-20991.2968572476,11559.8838635456,13917.5819738366,19253.8714278997
561576408389,47006,-2,0,8493.3930779246,11129.9747993974,14383.3492405220,2738.5348531523,-5199.5367094700,-2275.0794488632,-5051.1394790174,-20495.8039072237,-7471.0753585578,-2083.0123545131,-4645.8456655421,1360.0564800812,-20989.2283487877,11559.4944972472,13917.0465951764,19253.5550677823
561576408389,47006,-2,0,8494.8288661497,11126.8355336171,14377.7399322866,2733.8016190881,-5192.8444762174,-2278.9852795434,-5054.5829372183,-20490.9003254041,-7462.4606292072,-2077.6829033046,-4652.0755263154,1367.3205950845,-20978.5572786739,11566.5395937077,13922.0110154801,19257.1932091323
561576408389,47006,-2,0,8502.9203845369,11133.5886053538,14382.2054770206,2740.6398647026,-5184.9233055857,-2269.0442712390,-5046.7226050707,-20483.7457196722,-7453.8093967660,-2069.6643910983,-4644.2882003487,1372.4431954469,-20971.7555361499,11577.3688438801,13930.8325956768,19263.8854423850
561576408389,47006,-2,0,8506.0109795299,11137.5552745181,14395.3952603767,2747.5632841949,-5185.4343488523,-2258.8599089982,-5041.2958122877,-20486.6537992129,-7454.5151231818,-2067.6688888194,-4631.7189695306,1368.4643585858,-20975.6005283460,11572.3435850923,13924.3350455733,19259.9066055238
561576452138,47007,-2,0,8496.6661883699,11133.0167236031,14394.5921923864,2743.7791304830,-5195.8620650295,-2261.3299514533,-5045.5058353884,-20496.7164844854,-7464.0059267037,-2075.5413886638,-4633.9456580492,1357.8784623499,-20985.6753813154,11560.0420436043,13914.9294159292,19250.5983174543
561576452138,47007,-2,0,8492.6265130247,11128.1253094803,14387.0725557498,2738.6565301205,-5200.8386530301,-2270.2123701340,-5051.6748576777,-20498.8093283390,-7467.9360927775,-2080.4814735739,-4642.6090581872,1358.2434932545,-20985.6145428312,11558.7279323474,13915.6594777386,19252.3991365841
561576452138,47007,-2,0,8490.9960416504,11122.1144672498,14376.3163117583,2730.5650117332,-5199.8165664970,-2278.5107393673,-5056.8947996147,-20496.9841738155,-7465.5755595938,-2078.8023314123,-4652.9029296994,1360.8352126778,-20981.7938860288,11562.7554399958,13918.9325881839,19256.0737810246
561576452138,47007,-2,0,8494.4273321545,11123.9396217732,14376.4136533329,2729.9444591953,-5196.9693254404,-2277.5373236215,-5054.4490925533,-20492.5307967783,-7461.1221825566,-2075.5048855733,-4649.8366701000,1362.8550503504,-20977.6081983217,11568.3890836248,13921.4026306390,19258.3856434210
561576452138,47007,-2,0,8499.0753923409,11133.1870713586,14385.5515936469,2741.7471251135,-5195.5092018217,-2266.2943717571,-5047.2458160341,-20493.2000201036,-7463.8234112513,-2075.8090779939,-4638.2408550277,1361.9181376951,-20980.8691410703,11565.4201656000,13918.0321786190,19253.7984217187
561576452138,47007,-2,0,8495.5467602622,11130.5710165417,14392.9617210121,2744.6187015637,-5201.7633979886,-2265.0167635907,-5047.2823191246,-20499.2717008183,-7470.9658492864,-2080.3597966057,-4636.2696881424,1354.8122027505,-20990.4694538636,11556.4890761320,13908.9307413955,19247.9457595469
561576452138,47007,-2,0,8491.6530972789,11125.2415653333,14390.7593678871,2740.9075540327,-5203.9049126295,-2273.0109404033,-5052.9524658441,-20500.8656691021,-7473.0951962304,-2083.4868946892,-4645.0669329454,1354.2768240903,-20990.7979816778,11549.2492965223,13905.3047677422,19245.4027109109
561576452138,47007,-2,0,8495.1087231766,11124.4750004334,14383.8237806981,2737.2207418954,-5194.2437613521,-2275.3714735870,-5052.1250624601,-20490.5596298930,-7463.3853741657,-2077.6829033046,-4649.3377945303,1365.8483037689,-20982.8646433493,11560.2610621471,13917.9226693476,19259.5902454065
561576468697,47008,-2,0,8499.6716094852,11126.8598690107,14382.8990357395,2737.9629714016,-5186.5902800504,-2271.7089968433,-5047.1119713690,-20483.7213842785,-7454.8558186928,-2070.3822852109,-4645.1277714295,1373.6964682197,-20977.4865213535,11567.3669970917,13925.1502812605,19267.4992483414
561576468697,47008,-2,0,8500.8762114707,11131.8486247081,14389.8467906254,2744.0833229035,-5187.9652297914,-2264.9072543192,-5042.7437682096,-20485.1328371100,-7457.9829167763,-2072.0492596756,-4633.9091549588,1370.7153824981,-20982.0007368748,11568.1822327788,13923.0209343164,19263.7637654167
561576468697,47008,-2,0,8497.3962501793,11129.7557808546,14390.3334984983,2745.9814836079,-5196.4826175675,-2263.3497891259,-5042.7559359064,-20492.0927596927,-7466.9261739412,-2079.0091822583,-4632.8627330320,1362.2344978125,-20991.9782482696,11560.8207762009,13915.0510928974,19255.8912655723
561576468697,47008,-2,0,8488.4773284081,11120.8368590834,14382.2298124143,2738.5348531523,-5205.1581854022,-2272.4025555622,-5051.5410130126,-20498.2861173756,-7473.4845625287,-2083.7789194129,-4643.1566045442,1356.1628170978,-20994.9836693849,11556.7932685526,13911.5832993029,19250.9998514495
561576468697,47008,-2,0,8487.1510494544,11117.7705994840,14372.1671271417,2730.5771794301,-5203.3208631820,-2280.3602292844,-5054.8871296389,-20496.2662797030,-7468.9338439170,-2080.0556041851,-4652.8420912153,1362.9402242282,-20987.5248712324,11561.7333534627,13914.3088633912,19259.0426990494
561576468697,47008,-2,0,8492.2128113327,11123.5989262622,14371.1328729117,2735.8336244576,-5193.3555194840,-2275.0186103791,-5049.2413183131,-20485.4735326210,-7458.2992768937,-2070.7838192060,-4646.8555843784,1375.2661011098,-20977.0606519647,11572.5382682414,13928.1191992852,19272.6218487038
561576468697,47008,-2,0,8497.8221195681,11131.3497491384,14382.3636570793,2745.3000925858,-5188.9751486277,-2262.1451871404,-5040.0668749086,-20480.2414229872,-7454.3691108199,-2065.3813618166,-4632.8018945479,1377.0304171492,-20977.8272168646,11571.3336662560,13929.0074411533,19273.9846307480
561576468697,47008,-2,0,8497.9559642332,11133.2722452364,14390.5038462539,2750.4956991292,-5194.3776060171,-2256.9739159907,-5039.0812914659,-20486.5929607287,-7461.2438595249,-2071.0636762330,-4628.3120144202,1369.4499420285,-20985.9795737359,11562.7067692085,13920.3075379249,19267.0368758621
561576499920,47009,-2,0,8495.3034063258,11128.9892159547,14387.3037419894,2747.5754518917,-5199.7313926192,-2264.7125711701,-5044.6297612172,-20491.5087102452,-7467.4250495109,-2078.6928221409,-4637.8879918199,1363.4999382821,-20990.2382676240,11558.6184230760,13915.5986392544,19260.6488350300
561576499920,47009,-2,0,8493.9162888879,11125.4240807856,14379.4190744482,2740.2018276170,-5198.8066476607,-2273.8626791809,-5051.5653484062,-20490.9246607977,-7466.3907952810,-2078.5224743854,-4651.1386136600,1365.9213099498,-20987.5370389293,11561.7333534627,13919.6748176901,19264.4329887420
561576499920,47009,-2,0,8499.8419572407,11129.9869670942,14377.4357398660,2740.8223801550,-5191.6277065351,-2274.0816977237,-5050.1903986653,-20484.2445952419,-7457.5327119939,-2070.5648006632,-4649.5203099826,1373.9033190657,-20980.3580978037,11569.4720086421,13926.1967031872,19271.4172467184
561576499920,47009,-2,0,8505.1592407523,11137.1172374325,14384.0427992409,2748.8530600581,-5189.7052104371,-2264.7125711701,-5043.1574699016,-20480.9228140093,-7455.4763712308,-2068.2894413573,-4638.3381966023,1374.4752008164,-20979.0318188500,11568.0727235074,13924.8947596272,19270.4681663662
561576499920,47009,-2,0,8503.9059679796,11136.3263371390,14390.5403493443,2750.2888482832,-5196.1784251469,-2260.0401755901,-5043.0114575397,-20487.0918362985,-7462.8864985960,-2072.9009984532,-4631.9379880734,1366.8703903020,-20989.1675103035,11556.1240452273,13912.5445473519,19260.1134563698
561576499920,47009,-2,0,8495.9604619542,11129.7071100673,14388.6543563368,2745.7624650651,-5204.3186143215,-2267.9126754345,-5049.9957155161,-20494.9278330525,-7470.7468307436,-2078.8753375933,-4638.3990350864,1360.8717157683,-20994.6308061770,11546.9861049133,13909.8676540508,19258.3856434210
561576499920,47009,-2,0,8490.1321351760,11121.3357346531,14374.1747971175,2736.0283076067,-5206.0099241798,-2279.1434596021,-5057.5761906368,-20495.9864226761,-7468.8851731297,-2079.6540701900,-4651.4914768679,1361.3097528539,-20992.9759994091,11551.2447988013,13911.8631563298,19259.9796117048
561576499920,47009,-2,0,8493.1375562913,11122.8323613623,14368.1517871901,2731.5870982664,-5198.3199397877,-2280.4940739494,-5056.5176010132,-20491.0341700691,-7462.0225921215,-2073.2051908738,-4653.7059976897,1368.0141538034,-20987.6952189880,11560.8086085041,13919.5896438124,19268.0224593047
561576529944,47010,-2,0,8494.0136304625,11126.9328751917,14375.1238774697,2736.9652202621,-5197.4195302229,-2273.0961142811,-5051.9790500982,-20490.3527790470,-7460.5381331091,-2070.6864776314,-4643.2417784220,1368.0019861065,-20990.7614785873,11560.7964408073,13919.8086623552,19268.2049747571
561576529944,47010,-2,0,8491.9937927899,11125.6796024189,14382.7773587713,2741.3820942088,-5202.6151367662,-2267.8031661631,-5049.7158584892,-20495.8282426174,-7465.5633918970,-2075.3953763019,-4636.7077252280,1362.1736593284,-20995.7624019816,11556.4160699510,13913.5909692787,19262.7781819741
561576529944,47010,-2,0,8488.3313160462,11123.3312369321,14384.3348239646,2738.8268778760,-5209.0153452951,-2272.3417170781,-5055.2764959372,-20502.0581033907,-7471.0875262546,-2081.9294294958,-4641.7938225000,1355.5544322567,-20997.1251840257,11551.6828358869,13908.5657104908,19258.8115128098
561576529944,47010,-2,0,8485.1798825691,11119.1942200123,14378.1171308881,2732.3293277726,-5209.9035871632,-2281.4431543016,-5062.0904061581,-20501.5592278210,-7471.3552155847,-2082.5378143370,-4653.0124389708,1357.6716115039,-20991.1995156730,11556.7324300684,13911.7901501489,19262.1332940424
561576529944,47010,-2,0,8488.9640362810,11119.1455492250,14369.7335877771,2728.6060125447,-5205.6327255783,-2287.3809903512,-5064.9011441242,-20496.9841738155,-7465.5268888065,-2079.8000825518,-4658.1837101205,1362.7333733822,-20983.4608604936,11561.5751734040,13914.6738942959,19264.3599825610
561576529944,47010,-2,0,8493.7702765261,11125.7526085998,14375.8661069759,2735.2130719196,-5203.1870185169,-2282.7450978617,-5060.2652516346,-20493.2365231941,-7463.5557219212,-2078.1817788744,-4649.5203099826,1362.5630256267,-20982.3049292954,11563.2543155655,13917.5333030493,19266.2581432654
561576529944,47010,-2,0,8495.8631203796,11127.7724462724,14384.6268486884,2738.7660393919,-5206.2532781163,-2275.4079766774,-5057.2963336099,-20500.5128058942,-7468.2646205917,-2081.4548893198,-4642.0736795270,1356.2479909756,-20989.9340752034,11555.7346789290,13910.7680636157,19260.4298164872
561576529944,47010,-2,0,8491.4340787361,11124.1343049224,14385.8679537643,2737.0625618367,-5212.5074742833,-2278.6080809419,-5061.4211828328,-20506.4141388533,-7474.1902889445,-2085.8230924792,-4645.2251130041,1348.6310127644,-20993.9372474581,11550.6607493538,13905.5481216787,19255.1612037629
561576561222,47011,-2,0,8489.4385764571,11121.6399270737,14377.7277645898,2731.5749305695,-5213.3470453641,-2287.7703566496,-5067.5050312443,-20510.6484973477,-7475.2853816585,-2088.7555074135,-4657.8186792158,1349.5679254198,-20991.6618881522,11553.8243505278,13906.0104941580,19254.0052725647
561576561222,47011,-2,0,8489.4142410635,11117.8801087554,14369.1982091169,2725.4789144612,-5210.2807857647,-2294.5964345672,-5070.4496138755,-20508.6408273719,-7470.9780169832,-2086.4071419267,-4665.0462911287,1352.1839802367,-20990.0557521716,11556.8541070367,13910.4395358015,19258.9331897780
561576561222,47011,-2,0,8491.9329543058,11120.8125236897,14371.4370653323,2728.5816771511,-5207.6403955541,-2289.3399895397,-5065.3635166035,-20504.2482888188,-7468.3132913790,-2083.5964039606,-4658.9259396267,1354.3619979680,-20988.9971625480,11557.8031873889,13910.8167344030,19260.0769532794
561576561222,47011,-2,0,8496.4350021303,11127.2614030059,14384.1766439059,2739.4839335045,-5204.8904960721,-2275.4931505552,-5056.1647378053,-20501.4983893369,-7468.3862975599,-2082.3187957942,-4643.8988340504,1355.7369477090,-20991.3090249444,11554.8099339704,13910.4273681047,19257.6677493084
561576561222,47011,-2,0,8499.3187462773,11129.7679485514,14393.0347271930,2744.2171675686,-5207.1293522876,-2271.5143136941,-5053.6216891693,-20501.3158738845,-7470.3696321421,-2082.9515160290,-4639.3602831354,1354.9095443251,-20994.6794769643,11551.0501156521,13904.4286935710,19252.3504657968
561576561222,47011,-2,0,8499.1483985218,11126.9450428885,14387.9729653147,2738.9850579347,-5206.0585949671,-2278.5715778514,-5056.4810979227,-20499.1743592437,-7469.3840486994,-2082.9393483321,-4647.0867706180,1356.5643510930,-20991.6010496681,11553.4106488358,13909.7094739921,19257.0228613768
561576561222,47011,-2,0,8494.3664936704,11121.6885978610,14375.6835915235,2732.0738061393,-5203.4790432407,-2282.8667748299,-5057.9777246319,-20493.3703678591,-7464.4926345766,-2080.5788151485,-4653.1827867263,1365.0452357786,-20986.3689400343,11557.0852932763,13917.3386199001,19266.2094724781
561576561222,47011,-2,0,8492.8820346580,11121.7372686483,14371.8142639338,2732.2441538948,-5202.6029690694,-2280.5549124336,-5054.1935709200,-20491.4965425484,-7463.5435542244,-2079.2160331043,-4647.7681616401,1367.7342967764,-20988.5591254624,11555.7225112321,13917.0830982668,19269.7867753441
561576593433,47012,-2,0,8492.9672085358,11130.7900350845,14379.1757205117,2739.3379211426,-5208.5651405127,-2275.9555230345,-5052.7821180885,-20495.0738454143,-7471.1240293451,-2083.5964039606,-4640.5040466368,1362.3075039934,-20996.5167991846,11546.8765956419,13909.7459770826,19264.2139701992
561576593433,47012,-2,0,8490.6066753521,11130.9482151432,14380.5628379495,2740.1166537392,-5217.8977639759,-2279.8005152305,-5055.5806883578,-20502.9950160461,-7481.1988823145,-2091.9069408907,-4642.4995489158,1353.8509547015,-21003.4645540705,11540.9144241986,13900.8878937955,19254.9665206137
561576593433,47012,-2,0,8489.1952225206,11126.4705027124,14373.1405428875,2734.7750348340,-5221.9374393211,-2289.6076788698,-5064.2440884958,-20507.3875545992,-7484.3868188821,-2094.6568403726,-4654.5699041641,1350.5656765593,-21002.5398091120,11541.9730138222,13899.2939255117,19251.9610994985
561576593433,47012,-2,0,8491.0690478314,11124.0369633478,14365.2802107399,2729.6524344715,-5217.5692361616,-2295.4360056480,-5067.9552360267,-20503.8832579141,-7479.3128893069,-2090.4346495751,-4662.9656149719,1354.5931842077,-20997.2711963876,11549.5169858524,13903.3457685537,19257.3270537974
561576593433,47012,-2,0,8498.7833676171,11130.0599732752,14368.2977995520,2736.1256491813,-5206.7643213829,-2286.3102330308,-5058.6956187445,-20493.9787527003,-7469.4205517899,-2082.7933359703,-4652.8907620026,1363.8284660963,-20991.4550373063,11557.3529826064,13911.9118271171,19264.9318643117
561576593433,47012,-2,0,8501.6671117642,11136.5331879850,14380.8183595828,2743.8399689671,-5206.5331351432,-2276.0163615186,-5050.9082927778,-20492.4699582942,-7471.1848678292,-2080.1286103660,-4638.5572151451,1361.6261129713,-20996.3829545195,11553.8365182246,13909.6608032048,19263.4109022089
561576593433,47012,-2,0,8495.9117911669,11132.8950466349,14387.1577296276,2743.1099071577,-5213.0550206403,-2272.7554187700,-5051.8452054332,-20501.0360168576,-7477.4025609057,-2084.5941551001,-4637.6081347929,1355.1407305647,-21002.9170077135,11547.0712787910,13904.3556873900,19257.4608984624
561576593433,47012,-2,0,8491.9329543058,11127.6386016074,14379.1148820276,2736.8678786875,-5216.0847771492,-2281.6743405413,-5057.2963336099,-20504.7228289949,-7481.1502115272,-2089.1935444991,-4646.9407582561,1352.5490111414,-21003.2698709213,11546.2438754071,13903.7229671552,19255.2463776407
561576625809,47013,-2,0,8495.6806049273,11127.7602785756,14375.1968836506,2734.4100039293,-5211.0716860582,-2286.9186178719,-5061.2386673805,-20500.9630106766,-7472.1461158782,-2083.0123545131,-4653.4504760564,1359.3994244527,-20992.7204777758,11555.3939834179,13910.8289020998,19263.3743991184
561576625809,47013,-2,0,8500.9492176516,11133.6981146252,14379.2122236022,2737.6952820715,-5201.7999010791,-2283.0371225854,-5054.6437757025,-20493.3095293750,-7462.8621632023,-2073.8014080181,-4649.2647883493,1365.6536206197,-20982.9376495302,11561.5873411008,13915.5012976799,19266.6475095638
561576625809,47013,-2,0,8503.1637384734,11139.5507767970,14385.8192829770,2748.2203398233,-5202.4812921012,-2272.9987727065,-5048.1097225085,-20493.6623925829,-7464.5291376671,-2073.0226754215,-4638.7397305975,1362.7942118663,-20983.8015560046,11559.9933728170,13911.0844237331,19260.2229656412
561576625809,47013,-2,0,8501.7644533387,11141.0230681126,14393.7161182151,2751.5421210560,-5205.2433592800,-2268.3750479138,-5047.5135053642,-20498.9188376104,-7469.2380363375,-2076.2227796859,-4632.9844100002,1356.0289724328,-20991.8809066951,11553.6174996818,13905.3047677422,19253.5307323886
561576625809,47013,-2,0,8498.8807091917,11135.6936169042,14390.5525170412,2745.0932417398,-5208.5651405127,-2275.7121690980,-5053.3174967488,-20503.4817239190,-7472.2434574528,-2080.4328027866,-4642.8402444268,1352.9383774397,-20995.7380665879,11551.3299726791,13904.0393272726,19251.4378885351
561576625809,47013,-2,0,8498.7225291330,11130.0964763656,14378.3239817341,2737.1112326240,-5207.2631969526,-2284.6189231724,-5058.3184201430,-20502.9585129556,-7467.8022481124,-2082.3674665815,-4654.6672457387,1355.3840845012,-20990.1165906557,11554.1285429483,13907.0325806911,19251.8029194398
561576625809,47013,-2,0,8501.8982980038,11132.6151896080,14376.0972932155,2737.1842388049,-5201.4348701744,-2284.4850785074,-5057.0894827639,-20498.4564651311,-7462.2172752707,-2078.3642943267,-4654.7037488292,1360.0321446875,-20984.0935807284,11562.2200613356,13914.6982296895,19260.3811456999
561576625809,47013,-2,0,8506.5950289775,11138.6990380194,14387.0847234466,2746.0058190016,-5197.7845611275,-2270.5774010387,-5048.7424427433,-20496.3636212776,-7460.3312822631,-2075.1398546686,-4641.8789963778,1361.7599576364,-20983.1201649825,11560.9911239565,13913.0069198312,19261.6344184727
561576680444,47014,-2,0,8507.0087306694,11141.1812481713,14395.2127449243,2752.0044935353,-5197.5412071911,-2262.4250441674,-5043.7171839554,-20497.7629064122,-7463.6773988894,-2077.5855617301,-4635.7464771790,1359.1195674258,-20986.9408217849,11555.7468466258,13908.9185736986,19256.8525136213
561576680444,47014,-2,0,8502.3485027862,11138.5773610512,14393.2415780390,2749.2789294469,-5200.9238269079,-2267.4868060457,-5049.1318090417,-20501.4010477623,-7466.6098138238,-2080.6153182390,-4643.7284862949,1355.2867429266,-20989.8489013256,11552.9726117501,13905.4751154978,19254.4189742567
561576680444,47014,-2,0,8500.3164974168,11132.0919786446,14386.1843138817,2741.0048956073,-5198.5267906337,-2276.9411064771,-5054.5099310374,-20498.5538067057,-7461.9374182438,-2077.3300400968,-4653.5356499342,1358.7910396116,-20984.2030899998,11558.5210815014,13909.5756293271,19259.8092639493
561576680444,47014,-2,0,8504.9037191191,11136.3385048358,14381.1468873970,2740.4938523408,-5192.5159484032,-2277.4034789564,-5051.8817085236,-20490.1945989883,-7455.9387437101,-2075.0425130941,-4653.3044636945,1366.2376700672,-20978.1557446788,11564.5197560351,13916.1340179147,19267.0855466494
561576680444,47014,-2,0,8507.5562770265,11142.9455642106,14387.6566051973,2749.9846558627,-5191.2991787209,-2268.7400788185,-5044.9339536377,-20487.3108548413,-7456.4254515830,-2073.9474203800,-4641.4287915953,1368.2818431335,-20980.8813087671,11563.2786509592,13914.3210310880,19267.3775713731
561576680444,47014,-2,0,8507.3007553932,11146.9852395559,14398.4250168856,2756.8472368708,-5195.6673818803,-2261.2569452724,-5040.6630920529,-20489.5497110567,-7460.6111392901,-2075.4318793924,-4631.4026094132,1365.0087326881,-20987.2693495992,11557.8640258730,13909.4174492684,19263.8976100818
561576680444,47014,-2,0,8508.1038233835,11145.9144822354,14398.3520107047,2756.6282183280,-5200.2667712794,-2264.5178880209,-5043.3278176571,-20492.5551321720,-7466.8288323666,-2081.2723738674,-4636.5373774725,1360.6405295287,-20989.9705782939,11552.2790530312,13905.4021093168,19257.6069108243
561576680444,47014,-2,0,8509.0042329484,11141.7166268315,14388.0703068893,2749.5101156866,-5198.4781198464,-2273.0596111906,-5049.6428523082,-20491.5452133357,-7464.5899761512,-2080.8586721754,-4647.4152984322,1363.5851121598,-20985.1278349583,11559.1781371298,13911.2182683982,19264.1774671087
561576722473,47015,-2,0,8513.2994299269,11140.6580372079,14384.8458672312,2749.5222833834,-5190.7151292734,-2272.9501019192,-5048.2192317799,-20486.7998115747,-7455.7562282577,-2072.2682782184,-4647.8776709115,1370.4963639552,-20977.0728196615,11567.4521709694,13918.1781909809,19271.9526253786
561576722473,47015,-2,0,8518.0691670815,11148.5062016587,14394.0933168166,2756.8350691740,-5186.9066401678,-2263.8851677861,-5041.7946878574,-20484.6217938434,-7453.3591919836,-2068.9464969858,-4637.2917746755,1371.2994319456,-20977.9123907423,11565.6391841428,13918.4945510983,19271.0887189041
561576722473,47015,-2,0,8516.0614971057,11149.0780834094,14401.1627486708,2761.5074647540,-5192.3456006477,-2258.1785179762,-5038.6675897739,-20488.7709784601,-7460.2704437790,-2072.6941476072,-4629.4436102247,1366.4323532164,-20984.8236425378,11557.6328396333,13913.5301307945,19264.9927027958
561576722473,47015,-2,0,8507.3007553932,11143.6391229296,14400.7125438883,2757.4191186215,-5201.5808825363,-2264.8342481383,-5044.9704567282,-20496.1689381284,-7467.8265835061,-2078.7779960187,-4635.2110985188,1358.9127165798,-20990.2504353208,11550.5755754760,13907.9451579528,19259.8335993429
561576722473,47015,-2,0,8501.3872547372,11135.0973997599,14387.7417790751,2747.4781103171,-5205.9612533926,-2279.0947888148,-5054.0353908613,-20498.3834589502,-7470.6008183817,-2082.6108205179,-4649.7028254349,1358.2799963450,-20990.9318263429,11551.8775190361,13909.3687784811,19260.7583443015
561576722473,47015,-2,0,8501.9226333974,11133.3574191142,14377.1923859296,2742.2703360769,-5204.6714775293,-2285.1056310453,-5054.5099310374,-20491.8372380594,-7466.9626770316,-2080.3719643025,-4654.1440347753,1366.0673223117,-20986.3567723374,11559.1416340394,13915.2214406529,19267.5600868255
561576722473,47015,-2,0,8503.4922662876,11137.6282806990,14382.0107938715,2746.2248375444,-5202.7733168249,-2278.5229070641,-5049.2169829194,-20489.9755804455,-7464.8333300876,-2077.5247232459,-4642.4143750380,1368.5008616763,-20987.7438897753,11558.5210815014,13915.4039561053,19269.6164275886
561576722473,47015,-2,0,8504.9158868159,11142.9455642106,14391.3434173347,2751.7246365083,-5205.4380424292,-2270.8329226720,-5043.9848732856,-20492.4334552038,-7467.6684034474,-2078.5224743854,-4632.6315467924,1364.7532110548,-20994.3752845438,11555.5764988703,13912.3741995964,19269.4095767426
561576733464,47016,-2,0,8497.9681319300,11139.9401430954,14391.0878957014,2749.1207493882,-5209.8305809823,-2274.2155423888,-5048.2192317799,-20497.7872418059,-7472.8275069003,-2084.6306581905,-4637.1700977073,1359.2047413036,-20999.0355124269,11551.0014448648,13907.6287978354,19264.9927027958
561576733464,47016,-2,0,8496.5810144922,11135.8031261756,14384.9067057153,2742.7205408594,-5210.4024627329,-2282.8789425267,-5055.1791543627,-20501.5105570337,-7474.2146243381,-2085.8109247824,-4649.2282852588,1357.9271331372,-20996.8574946956,11552.3398915154,13908.6995551558,19265.7957707862
561576733464,47016,-2,0,8497.6761072062,11133.0775620872,14377.5209137438,2737.6101081937,-5204.8174898912,-2285.6410097055,-5056.5176010132,-20497.3735401139,-7467.5467264791,-2082.0389387673,-4654.7889227069,1362.9402242282,-20992.0634221474,11558.6670938633,13914.6008881150,19272.4515009483
561576733464,47016,-2,0,8503.0542292020,11135.3772567868,14377.1923859296,2740.2139953138,-5202.7124783408,-2281.2971419397,-5053.2566582646,-20495.7309010428,-7466.0622674667,-2081.1385292024,-4649.4838068921,1362.7577087759,-20990.9926648270,11557.3529826064,13913.0920937089,19270.0179615837
561576733464,47016,-2,0,8499.8176218471,11136.0829832025,14386.5980155737,2744.0711552067,-5209.2343638379,-2276.0041938218,-5052.5874349394,-20503.0193514397,-7473.3750532573,-2084.6671612810,-4643.1079337569,1352.5733465351,-21000.9701762218,11548.5314024098,13903.1145823141,19261.9142754996
561576733464,47016,-2,0,8494.1961459149,11132.1041463414,14387.2185681117,2742.2581683801,-5217.4475591934,-2280.0317014702,-5057.9290538446,-20511.1838760079,-7482.2331365444,-2092.9898659079,-4647.6829877623,1346.1244672189,-21008.4654774647,11542.7030756316,13894.9378900491,19254.6014897090
561576733464,47016,-2,0,8491.8112773376,11126.3609934410,14376.7056780567,2736.3568354210,-5218.0316086409,-2289.2669833588,-5062.8448033611,-20509.5169015432,-7482.5251612682,-2093.3305614189,-4656.8209280764,1348.4363296153,-21005.4843917431,11546.3290492848,13897.9189757707,19258.6655004479
561576733464,47016,-2,0,8497.8221195681,11129.5002592213,14372.2888041099,2735.5172643402,-5208.4312958476,-2288.7437723954,-5060.2409162410,-20499.2351977278,-7470.6859922595,-2083.4503915987,-4656.7600895922,1360.1903247462,-20992.4892915362,11558.1803859904,13909.1619276351,19271.4050790215
561576757276,47017,5,0,8503.6261109527,11133.2114067523,14376.8638581154,2740.6276970058,-5201.7633979886,-2280.0438691670,-5049.8740385479,-20489.8539034773,-7461.7670704882,-2075.0181777004,-4644.6532312534,1369.1335819111,-20983.6798790364,11565.7730288079,13917.1074336605,19278.5596847534
561576757276,47017,5,0,8505.5364393539,11138.8815534718,14386.1478107913,2748.6218738185,-5201.6052179299,-2268.1803647646,-5039.9451979403,-20487.8097304110,-7462.5092999944,-2073.2295262674,-4630.9159015403,1369.6932959649,-20984.6654624791,11566.6125998887,13916.1218502178,19276.4790085967
561576757276,47017,5,0,8499.9027957248,11136.9712250706,14390.9540510363,2750.6538791879,-5206.2654458131,-2266.2578686666,-5040.9429490798,-20492.7498153212,-7467.4493849046,-2075.8334133876,-4627.2777601903,1365.1790804436,-20991.8809066951,11562.2200613356,13911.7171439679,19271.8187807135
561576757276,47017,5,0,8492.4683329660,11129.1108929230,14381.5849244827,2740.1774922234,-5213.1888653054,-2277.9875284039,-5051.1881498047,-20498.7119867644,-7473.7522518588,-2081.6009016816,-4642.0250087397,1359.1439028194,-20998.9016677619,11557.0974609731,13909.4174492684,19267.7060991874
561576757276,47017,5,0,8491.3732402519,11123.6110939590,14366.4483096349,2731.1733965744,-5211.3637107819,-2287.7946920432,-5057.5275198495,-20498.2252788915,-7471.7080787926,-2083.4990623860,-4653.9980224134,1362.6847025949,-20996.7236500306,11558.7887708315,13914.3088633912,19271.7214391389
561576757276,47017,5,0,8492.6508484184,11127.2735707027,14367.4460607744,2732.2319861980,-5206.7156505956,-2282.9154456172,-5053.3661675360,-20494.1369327590,-7467.0113478189,-2078.8388345028,-4647.5978138846,1367.1137442385,-20992.0755898442,11561.9402043087,13918.3485387364,19276.3086608412
561576757276,47017,5,0,8494.7923630592,11130.1694825466,14380.0517946830,2741.3699265120,-5206.3871227814,-2272.0496923543,-5046.3089033787,-20494.7574852969,-7469.5543964549,-2078.4981389918,-4635.7099740886,1364.8870557199,-20993.8399058836,11556.6837592811,13911.3642807601,19269.6164275886
561576757276,47017,5,0,8495.4250832940,11132.5300157302,14388.0338037988,2745.9328128206,-5210.3294565520,-2267.9126754345,-5043.7171839554,-20495.9864226761,-7474.1172827635,-2081.2723738674,-4633.2520993303,1361.7842930300,-20998.1472705589,11554.2258845229,13910.7072251316,19268.3144840285
561576789816,47018,5,0,8494.5611768196,11130.3033272116,14385.9044568548,2744.6673723510,-5211.5827293248,-2276.3327216360,-5047.6230146356,-20495.8039072237,-7475.5287355950,-2081.4792247134,-4640.0781772480,1361.8451315141,-20998.7678230968,11554.6882570022,13909.7216416890,19270.4559986693
561576789816,47018,5,0,8495.4737540813,11127.9549617248,14379.3704036609,2737.8412944334,-5210.0009287378,-2285.5436681310,-5051.1273113206,-20492.3239459324,-7468.8973408265,-2076.9041707080,-4647.4883046132,1366.9798995734,-20990.4937892572,11559.8960312424,13914.2845279976,19275.7489467873
561576789816,47018,5,0,8502.4945151481,11136.3263371390,14380.0152915925,2742.1729945023,-5198.6606352988,-2278.9122733625,-5045.5666738725,-20486.9579916334,-7459.0171710063,-2070.8689930838,-4643.5094677521,1373.1124187722,-20984.9696548996,11568.1944004756,13922.2422017198,19283.9499744460
561576789816,47018,5,0,8505.6337809284,11143.9676507438,14390.2483246206,2750.2645128896,-5196.9936608340,-2267.1947813220,-5038.5215774121,-20487.7002211396,-7457.8734075049,-2068.7396461398,-4631.8893172862,1370.2286746251,-20985.8700644645,11565.5053394778,13919.1637744236,19281.4920996877
561576789816,47018,5,0,8503.5652724685,11144.6368740690,14398.8630539712,2755.1924301029,-5198.9039892353,-2262.4615472578,-5037.1344599742,-20492.3482813260,-7462.6918154468,-2072.2074397343,-4627.9713189092,1364.8627203262,-20990.2017645335,11559.6283419123,13913.2137706771,19278.9855541422
561576789816,47018,5,0,8499.0875600377,11136.6305295595,14393.0955656772,2749.5952895643,-5204.0752603850,-2270.8085872784,-5043.8266932269,-20497.8602479868,-7468.8973408265,-2079.4837224344,-4639.0439230180,1359.8861323256,-20995.7258988911,11553.7878474373,13908.7360582463,19275.5177605477
561576789816,47018,5,0,8495.8387849860,11130.8752089623,14381.3294028494,2740.6885354899,-5203.3086954852,-2279.7883475337,-5051.7113607681,-20497.5560555662,-7466.6584846111,-2079.2890392853,-4651.2116198410,1361.2732497635,-20994.1440983041,11554.9924494228,13911.3886161537,19279.3262496533
561576789816,47018,5,0,8498.6981937394,11132.3840033683,14380.7453534019,2741.0048956073,-5197.6020456752,-2278.2430500372,-5050.4094172081,-20492.9931692576,-7460.9396671043,-2074.4949667370,-4650.2382040952,1365.0939065659,-20988.5469577656,11560.4435775994,13914.3575341785,19282.6967016732
561576843480,47019,5,0,8500.1704850549,11137.7012868800,14386.9143756911,2745.5069434318,-5200.5831313968,-2272.2322078067,-5046.7712758580,-20495.9499195856,-7464.0789328846,-2077.0258476762,-4641.2219407494,1362.8428826536,-20993.2680241329,11561.1128009247,13913.0069198312,19282.9035525192
561576843480,47019,5,0,8496.4350021303,11135.9004677502,14392.0978145377,2748.4636937598,-5205.6205578815,-2268.9469296645,-5047.1363067627,-20503.1045253175,-7471.1361970419,-2082.1971188259,-4639.3481154386,1356.0289724328,-21000.5564745298,11555.3818157211,13906.8500652387,19278.0486414869
561576843480,47019,5,0,8495.5345925654,11136.9103865865,14395.9914775210,2748.6462092121,-5206.2046073290,-2273.7653376063,-5051.6626899808,-20506.1707849169,-7472.0001035163,-2081.5765662880,-4644.4220450138,1352.3299925986,-20998.8773323683,11555.0046171196,13906.3998604563,19276.3086608412
561576843480,47019,5,0,8498.7103614362,11135.8152938724,14388.5448470654,2743.5114411528,-5202.4569567076,-2280.6035832208,-5055.5685206610,-20503.6642393713,-7466.9505093348,-2079.8122502487,-4654.8619288879,1356.5765187898,-20990.2382676240,11561.9523720055,13911.7536470584,19280.4213423673
561576843480,47019,5,0,8503.3949247130,11138.2853363275,14381.6579306636,2743.5601119401,-5196.7624745944,-2280.6644217050,-5055.5076821769,-20499.3082039087,-7460.9153317106,-2075.8820841748,-4656.6505803208,1360.2633309272,-20983.7407175205,11564.2520667050,13911.6806408775,19281.3095842354
561576843480,47019,5,0,8509.1502453103,11145.3426004848,14393.0590625867,2752.0409966257,-5195.5943756994,-2270.7477487943,-5048.9249581957,-20497.6899002313,-7459.0780094904,-2072.9009984532,-4643.9840079282,1361.0420635238,-20983.3391835254,11564.7022714875,13913.1894352835,19286.1523275709
561576843480,47019,5,0,8506.7410413393,11144.8315572182,14398.3641784015,2755.4479517362,-5201.5322117490,-2266.2943717571,-5047.1484744595,-20501.8634202415,-7467.5953972664,-2078.9483437742,-4640.0173387639,1355.7612831027,-20989.6907212669,11554.6882570022,13902.5792036539,19278.6326909344
561576843480,47019,5,0,8500.8762114707,11138.7842118972,14395.4926019513,2749.9968235595,-5208.2487803953,-2272.6945802859,-5051.6991930713,-20505.2338722615,-7473.4237240446,-2084.8618444302,-4646.6243981387,1350.2979872292,-20996.2126067640,11550.5634077792,13901.9221480255,19278.9490510518
561576848343,47020,5,0,8496.7756976413,11132.7246988794,14386.7926987229,2739.8367967123,-5207.0076753193,-2282.5504147125,-5058.9146372873,-20504.4064688775,-7473.1682024113,-2084.5576520096,-4657.2589651620,1352.6706881096,-20994.8619924167,11551.7558420679,13904.5382028424,19284.2054960793
561576848343,47020,5,0,8498.6130198616,11131.2889106543,14379.4069067513,2736.6245247511,-5201.9094103505,-2283.9740352408,-5057.1624889448,-20499.4177131801,-7467.2181986649,-2080.3232935152,-4658.8894365363,1359.1439028194,-20989.8732367193,11558.4480753205,13910.7923990094,19291.1654186620
561576848343,47020,5,0,8505.3174208110,11140.3051740001,14387.7417790751,2744.5091922923,-5197.6142133720,-2274.0330269365,-5050.1052247875,-20495.5362178936,-7463.9329205227,-2077.1231892508,-4647.5004723100,1362.5021871426,-20989.1310072131,11560.1758882693,13911.8874917234,19292.9905731854
561576848343,47020,5,0,8507.7266247820,11146.2308423528,14401.4547733945,2754.2920205380,-5199.0134985067,-2265.2722852239,-5044.6540966108,-20496.6678136981,-7467.4128818141,-2076.6364813779,-4636.9267437709,1358.9613873671,-20994.8376570230,11554.9316109386,13908.6873874590,19292.1753374983
561576848343,47020,5,0,8504.0641480383,11141.5219436824,14401.6859596342,2752.2843505622,-5204.6958129230,-2270.6869103101,-5047.4648345769,-20500.7804952243,-7473.3993886510,-2081.2358707769,-4640.7474005733,1354.7878673568,-21000.1062697474,11549.2127934319,13901.3380985780,19284.3636761380
561576848343,47020,5,0,8501.8496272165,11138.4921871735,14389.8954614127,2745.5799496127,-5205.0851792213,-2279.9221921988,-5054.8749619421,-20501.5592278210,-7471.5133956434,-2083.3408823273,-4653.1341159390,1356.8807112104,-20995.0566755658,11552.5589100582,13906.7527236642,19291.1045801779
561576848343,47020,5,0,8504.0641480383,11140.3903478778,14383.8602837885,2743.9981490258,-5196.9936608340,-2280.1047076511,-5052.8186211790,-20494.3559513018,-7461.8644120628,-2074.3489543752,-4651.9903524377,1364.6437017834,-20984.8601456282,11561.3561548612,13914.8199066578,19300.5467129125
561576848343,47020,5,0,8509.8681394228,11147.7639721525,14392.2559945964,2752.5642075891,-5190.6664584861,-2269.2267866914,-5042.4639111827,-20487.9314073793,-7455.2208495975,-2067.2308517337,-4639.5184631941,1370.6423763171,-20979.8227191435,11565.9433765634,13917.5211353525,19304.7689037100
561576877404,47021,5,0,8514.5405350028,11154.3588638306,14405.5674549207,2763.1257684314,-5191.9197312589,-2258.3001949444,-5034.8104298811,-20487.1770101762,-7457.7395628398,-2067.2795225210,-4628.7257161122,1368.3548493144,-20982.2562585081,11563.0718001132,13914.6860619927,19302.4205382232
561576877404,47021,5,0,8509.2354191880,11148.5305370524,14405.2754301969,2758.8184037561,-5200.9846653920,-2263.5931430624,-5041.6730108892,-20495.7674041332,-7467.5223910855,-2076.2106119891,-4634.4567013158,1358.7788719148,-20993.0368378932,11553.9581951928,13906.7162205737,19295.7648080611
561576877404,47021,5,0,8504.1979927033,11140.9135588412,14397.9018059222,2748.7313830899,-5206.8859983511,-2276.2353800614,-5051.9668824014,-20499.1621915468,-7471.2092032228,-2081.1385292024,-4649.4716391953,1357.8419592594,-20994.9228309008,11551.5611589187,13905.0979168962,19295.9473235134
561576877404,47021,5,0,8507.3494261805,11141.8626391934,14389.6156043858,2747.4781103171,-5197.8210642180,-2276.3205539392,-5050.2877402398,-20491.6060518198,-7461.2316918280,-2072.8766630596,-4651.3454645060,1367.8316383510,-20985.3103504107,11562.1957259419,13914.0168386675,19304.3186989276
561576877404,47021,5,0,8513.6401254379,11149.0902511062,14393.8134597897,2754.6083806554,-5190.9706509067,-2266.8054150236,-5042.4274080922,-20485.3640233496,-7454.4542846977,-2064.8946539437,-4640.0781772480,1371.3359350360,-20980.2972593196,11568.1944004756,13917.7888246826,19308.0906849427
561576877404,47021,5,0,8517.6676330863,11155.6729750874,14407.6846341679,2762.5782220744,-5190.7516323639,-2255.6963078243,-5037.4264846980,-20491.2653563088,-7456.3767807957,-2066.2939390784,-4630.4291936674,1365.6049498324,-20983.5338666745,11564.7996130620,13913.2137706771,19302.8342399152
561576877404,47021,5,0,8514.2241748854,11152.9230756055,14409.0960869993,2762.3592035316,-5195.1563386138,-2256.0856741226,-5039.5314962484,-20498.8458314294,-7462.8256601118,-2072.2196074311,-4634.4567013158,1358.3043317387,-20988.9728271544,11558.8009385283,13906.5823759086,19295.6796341833
561576877404,47021,5,0,8508.4810219850,11147.0460780400,14401.5156118786,2754.1581758729,-5197.7602257339,-2266.1726947888,-5046.3940772565,-20499.8679179626,-7462.2659460580,-2073.7405695340,-4644.1421879869,1357.6837792007,-20987.1720080246,11558.2777275649,13905.1830907740,19295.6187956992
561576912234,47022,5,0,8511.0849091051,11147.8126429398,14397.4272657461,2751.7854749924,-5191.2870110241,-2269.0442712390,-5047.7081885134,-20494.2464420304,-7455.7197251672,-2068.9221615921,-4649.2526206525,1364.5585279057,-20982.1954200240,11566.4179167395,13914.1141802420,19307.9081694904
561576912234,47022,5,0,8515.5139507487,11150.6598839964,14397.8287997413,2755.4236163425,-5187.1499941043,-2263.6174784560,-5042.5734204541,-20489.1238416679,-7453.6025459200,-2066.6346345894,-4642.3170334634,1370.0704945664,-20983.5460343713,11569.2043193120,13917.9713401349,19312.2520372561
561576912234,47022,5,0,8513.6279577411,11152.7770632436,14405.7012995857,2760.0595088320,-5191.9927374398,-2257.4362884700,-5040.0425395149,-20491.7520641817,-7459.0901771872,-2070.2484405458,-4631.6824664402,1366.0916577053,-20992.3432791743,11563.5950110766,13913.2381060708,19308.1515234268
561576912234,47022,5,0,8510.3548472957,11152.2660199770,14412.5395452002,2762.0063403237,-5196.8841515626,-2257.6796424064,-5039.5801670356,-20494.8669945683,-7464.8333300876,-2071.3922040472,-4631.0254108117,1361.2854174603,-20998.2081090430,11557.9126966603,13908.6508843685,19303.9901711134
561576912234,47022,5,0,8507.9943141121,11150.9275733265,14403.0730770720,2757.3217770469,-5196.7259715039,-2263.9703416639,-5043.6685131682,-20493.1878524068,-7464.4926345766,-2072.3412843994,-4638.6423890229,1363.5242736757,-20996.7844885147,11557.9491997507,13907.3367731117,19302.9437491866
561576912234,47022,5,0,8511.2309214670,11152.8865725150,14392.8278763470,2755.0342500442,-5191.6642096256,-2268.2898740360,-5042.8897805715,-20486.1427559463,-7457.5570473875,-2067.5228764575,-4644.1178525932,1370.1313330506,-20987.1476726309,11563.9843773749,13914.9050805355,19311.3516276912
561576912234,47022,5,0,8517.2417636975,11156.1475152635,14396.3808438193,2759.6458071401,-5188.3789314834,-2264.8829189256,-5037.6698386344,-20481.6650435155,-7454.3569431231,-2063.1911763885,-4637.2674392819,1375.6311320145,-20985.9674060391,11568.5837667740,13917.9956755286,19319.0294443865
561576912234,47022,5,0,8517.7771423577,11158.8122408678,14403.6449588226,2764.5128858692,-5191.3235141146,-2256.4020342400,-5033.2894677782,-20484.6096261466,-7458.7251462825,-2067.4620379734,-4628.2633436329,1371.9929906645,-20990.7979816778,11560.7599377168,13912.0821748726,19314.1015271732
561576937288,47023,5,0,8514.8325597266,11156.5368815619,14410.0695027452,2765.6566493706,-5198.2104305163,-2257.9594994333,-5035.9541933824,-20490.3284436534,-7464.9063362686,-2074.3976251624,-4627.0830770411,1363.9014722772,-20997.7092334732,11551.9626929138,13903.9054826076,19305.9613379987
561576937288,47023,5,0,8510.2453380243,11151.7184736200,14406.3826906078,2758.1856835213,-5200.5587960032,-2266.0996886079,-5043.6198423809,-20494.1734358494,-7467.2547017554,-2076.2592827764,-4638.4112027833,1359.9226354161,-20999.8142450236,11549.6143274270,13901.7883033604,19304.1240157784
561576937288,47023,5,0,8510.5860335354,11147.7274690621,14395.5291050417,2753.1604247334,-5194.1099166870,-2271.5264813909,-5047.1484744595,-20488.7831461569,-7459.1266802777,-2073.0470108151,-4646.7460751070,1367.6126198082,-20991.4307019126,11556.0388713495,13909.4417846620,19310.6824043660
561576937288,47023,5,0,8516.5603726754,11154.9307455812,14398.4006814920,2758.5750498196,-5184.8746347984,-2264.9680928034,-5041.1984707131,-20481.8475589678,-7451.2785158269,-2065.8315665991,-4639.7253140401,1374.1953437894,-20983.9475683665,11561.3074840739,13916.5963903939,19316.8879297457
561576937288,47023,5,0,8519.2007628860,11160.5035507262,14410.0086642610,2765.1334384072,-5187.4298511312,-2256.3533634527,-5034.7252560033,-20484.7799739021,-7453.7972290692,-2065.6612188436,-4628.7500515058,1370.9830718282,-20987.9994114085,11559.2876464013,13913.3354476454,19315.1357814032
561576937288,47023,5,0,8516.1101678930,11158.7635700805,14413.5737994302,2765.8148294293,-5194.3289352298,-2255.1974322545,-5035.9298579888,-20492.0684242991,-7462.4606292072,-2072.9618369373,-4628.0686604838,1363.4999382821,-20996.9426685734,11552.5224069677,13906.2903511849,19309.4899700773
561576937288,47023,5,0,8510.0263194815,11151.9983306469,14406.4556967887,2759.7309810178,-5201.2158516316,-2265.9415085492,-5044.6175935203,-20498.8701668231,-7469.9072596628,-2080.3962996962,-4641.9520025587,1357.2944129024,-21003.3550447991,11546.1221984388,13899.5372794482,19301.9459980471
561576937288,47023,5,0,8509.7829655451,11146.2673454433,14397.8166320445,2750.7877238530,-5200.4371190349,-2275.6026598266,-5050.1782309684,-20499.3568746960,-7468.6418191932,-2079.8852564296,-4653.6694945992,1360.3606725017,-21000.9215054345,11550.1983768745,13906.6188789991,19311.4611369627
561576967308,47024,5,0,8515.0272428757,11150.5747101186,14400.1528298345,2752.5033691050,-5193.1243332444,-2272.6459094986,-5046.9659590072,-20493.2121878004,-7459.9784190553,-2073.6432279594,-4650.2503717920,1366.5296947910,-20993.7425643090,11557.1461317604,13912.4107026868,19317.2651283472
561576967308,47024,5,0,8520.8799050476,11159.0799301979,14411.5782971512,2763.3934577615,-5189.2185025642,-2258.9085797855,-5038.2295526883,-20493.4677094337,-7458.4087861651,-2071.7815703455,-4638.1921842404,1364.8627203262,-20992.0634221474,11556.1848837114,13910.2570203492,19314.5030611684
561576967308,47024,5,0,8518.0448316878,11158.9704209265,14419.0492630005,2766.5205558450,-5193.9760720220,-2255.2461030418,-5038.8987760136,-20499.9774272340,-7464.1397713687,-2075.7482395098,-4634.1281735016,1356.1019786137,-20998.5366368572,11548.2880484733,13902.1655019619,19307.7013186444
561576967308,47024,5,0,8516.6698819468,11155.7338135716,14415.8126556456,2762.5417189839,-5198.5511260274,-2262.6683981038,-5045.3963261170,-20503.5912331904,-7468.7634961614,-2080.5666474517,-4643.5824739330,1352.6098496255,-20999.8264127204,11547.4849804830,13900.0483227147,19305.3042823702
561576967308,47024,5,0,8518.0083285974,11154.2736899528,14405.6282934048,2757.2001000787,-5195.6187110931,-2271.8306738115,-5049.9227093351,-20499.4177131801,-7464.4682991829,-2078.1331080871,-4652.5622341883,1358.3043317387,-20991.7713974237,11555.3939834179,13907.8234809846,19313.5174777257
561576967308,47024,5,0,8520.9772466222,11156.1718506572,14403.3164310084,2755.7643118535,-5187.9895651851,-2269.4823083247,-5047.8176977848,-20495.2320254730,-7456.7904824877,-2071.1001793234,-4649.7758316159,1364.3881801501,-20982.7186309874,11561.3318194675,13912.6905597138,19319.5526553499
561576967308,47024,5,0,8523.3134444122,11161.5378049561,14410.2155151070,2761.0815953652,-5190.9706509067,-2262.3033671991,-5042.7316005128,-20496.3757889744,-7459.5282142728,-2072.6698122136,-4639.8469910084,1363.8771368836,-20988.2184299514,11558.8739447093,13911.4251192442,19319.3823075944
561576967308,47024,5,0,8518.5923780449,11158.0821790584,14411.4079493957,2760.5218813113,-5197.4073625260,-2260.3930387979,-5043.4859977158,-20501.5592278210,-7467.3520433300,-2079.2282008012,-4634.7243906459,1357.8297915626,-20998.3297860112,11550.4660662046,13903.5039486124,19312.2520372561
561577002496,47025,5,0,8512.8735605381,11152.6432185785,14407.6724664710,2756.0320011837,-5201.8242364728,-2265.0654343779,-5046.2967356819,-20503.7737486427,-7471.1848678292,-2081.1871999896,-4638.5937182356,1356.0046370391,-21002.6006475961,11547.2659619402,13902.3115143238,19311.6558201118
561577002496,47025,5,0,8507.5319416328,11147.3624381574,14398.5466938538,2749.1329170850,-5199.9017403747,-2273.7410022127,-5050.0322186066,-20499.0161791850,-7468.4106329536,-2079.2768715884,-4648.1210248480,1361.5409390936,-20998.8651646714,11551.7680097647,13907.5314562608,19316.1822033300
561577002496,47025,5,0,8507.8848048407,11146.2065069592,14391.4529266061,2747.0035701410,-5192.5889545841,-2272.9379342224,-5047.0754682786,-20492.2144366609,-7461.2438595249,-2074.5436375243,-4647.3544599481,1368.8050540969,-20990.8588201619,11558.7766031347,13914.7225650832,19323.5314922110
561577002496,47025,5,0,8512.0826602446,11152.0104983437,14401.4669410913,2756.4457028756,-5187.4055157376,-2261.2447775755,-5037.2439692456,-20485.5708741956,-7457.0946749082,-2067.4377025797,-4632.6923852765,1371.8469783026,-20987.7803928657,11561.8063596436,13915.3917884085,19324.9916158298
561577002496,47025,5,0,8512.4476911493,11157.5589680950,14415.2042708044,2765.8391648229,-5185.8115474538,-2248.9189006939,-5029.1037800711,-20484.8164769926,-7456.1699299497,-2065.2475171516,-4620.0136451870,1371.5184504884,-20988.3644423132,11560.5530868708,13913.7978201246,19323.6288337856
561577002496,47025,5,0,8510.7563812909,11156.2935276254,14414.4133705109,2765.4984693119,-5188.3545960898,-2250.7075521269,-5029.2862955234,-20485.0354955354,-7458.4331215588,-2066.1600944133,-4622.1794952214,1370.9100656472,-20990.4207830763,11561.1493040152,13913.8829940024,19321.9253562304
561577002496,47025,5,0,8506.4368489188,11153.2516034197,14406.1150012777,2759.3537824163,-5189.3523472292,-2261.1839390914,-5037.4386523948,-20485.3761910465,-7458.5061277397,-2067.3646963988,-4635.1015892474,1371.9443198772,-20989.1675103035,11560.9302854724,13915.6229746481,19325.0159512234
561577002496,47025,5,0,8511.7906355208,11155.5999689065,14399.1550786950,2757.7233110420,-5188.4762730580,-2268.2168678551,-5041.4174892559,-20483.4050241611,-7457.1798487860,-2066.9144916163,-4640.8082390574,1375.3756103812,-20986.9651571786,11562.8406138736,13918.3242033428,19329.1894712337
561577067477,47026,5,0,8516.4143603136,11160.9050847213,14402.0266551452,2761.3249493016,-5190.5204461242,-2264.7612419574,-5039.0326206786,-20484.0377443959,-7459.6012204538,-2070.0172543062,-4635.3206077902,1372.7595555643,-20988.9363240639,11560.6504284454,13915.0145898069,19326.1962178152
561577067477,47026,5,0,8516.4873664945,11163.6063134160,14412.6855575621,2766.1190218499,-5195.0103262519,-2258.4583750031,-5035.6986717491,-20489.7930649932,-7465.6485657748,-2073.7405695340,-4626.1339966889,1366.3350116418,-20994.8376570230,11553.8121828309,13909.1619276351,19321.5481576289
561577067477,47026,5,0,8510.2453380243,11157.3886203395,14413.0140853763,2760.6922290668,-5200.9603299983,-2262.4615472578,-5040.2493903609,-20495.7795718301,-7472.0974450909,-2077.9870957252,-4632.4003605527,1359.7644553574,-20997.1616871162,11549.5778243365,13904.8302275661,19317.2894637408
561577067477,47026,5,0,8505.9866441363,11150.6598839964,14402.7567169546,2753.9391573301,-5198.1982628195,-2267.9126754345,-5044.4594134616,-20492.2874428419,-7469.4813902740,-2078.9118406838,-4641.6113070477,1363.8406337931,-20992.7326454727,11554.4570707625,13910.5125419825,19322.7405919175
561577067477,47026,5,0,8505.9744764395,11151.5967966518,14397.0378994478,2752.1626735940,-5191.7493835034,-2269.2997928723,-5043.4981654126,-20485.7168865575,-7462.0469275152,-2073.7527372308,-4644.9817590676,1370.2043392315,-20989.1431749099,11556.7689331589,13912.3255288091,19327.2426397420
561577067477,47026,5,0,8507.5684447233,11151.5116227740,14400.9437301280,2755.4966225234,-5191.4573587796,-2267.2799551997,-5040.0668749086,-20485.7412219511,-7461.9739213342,-2073.4485448103,-4638.2043519373,1369.5107805126,-20993.2193533456,11554.5179092467,13914.3331987849,19331.5135013269
561577067477,47026,5,0,8508.9555621611,11154.2980253465,14408.5120375518,2761.7264832968,-5194.1829228679,-2257.8256547683,-5038.2538880819,-20493.5650510083,-7467.0600186062,-2076.9163384048,-4631.2687647482,1363.1470750742,-20998.1472705589,11546.4385585562,13904.5868736297,19322.0957039859
561577067477,47026,5,0,8510.0141517847,11155.8919936303,14414.7297306283,2763.7098178789,-5195.4848664280,-2257.4727915604,-5040.1763841800,-20499.7340732975,-7467.2181986649,-2077.3543754904,-4631.7554726211,1359.3507536654,-21000.5443068330,11547.8256759940,13903.9176503044,19322.6189149493
561577082111,47027,5,0,8510.3061765084,11155.7581489652,14412.4057005352,2760.3393658590,-5193.3920225745,-2263.3862922164,-5044.1552210411,-20500.5493089847,-7463.0811817451,-2073.9960911673,-4639.6888109497,1361.5531067904,-20996.1396005831,11554.8221016672,13909.8433186572,19327.5346644658
561577082111,47027,5,0,8515.5626215360,11156.4882107746,14405.8594796444,2758.4898759419,-5184.4852685001,-2263.8851677861,-5043.9727055887,-20495.1468515953,-7453.3591919836,-2067.5472118511,-4644.3368711360,1369.9488175982,-20987.0746664500,11563.2786509592,13919.5531407219,19334.9447918309
561577082111,47027,5,0,8516.9740743674,11160.8199108435,14409.8261488087,2761.4101231794,-5182.3802569497,-2258.4583750031,-5039.7870178816,-20490.9733315850,-7452.2884346632,-2064.3349398899,-4636.3305266265,1371.6401274566,-20986.1620891883,11562.2078936388,13920.3318733186,19336.3684123592
561577082111,47027,5,0,8514.8203920298,11160.1628552151,14417.0537607215,2763.8314948472,-5186.9431432583,-2253.0559176137,-5036.8180998568,-20493.1391816195,-7459.0415063999,-2068.6909753525,-4627.4481079458,1367.9046445320,-20990.6763047096,11556.0267036527,13913.8951616992,19331.5986752046
561577082111,47027,5,0,8508.9555621611,11153.4584542657,14416.3723696994,2761.6169740254,-5193.7570534791,-2256.7792328415,-5038.9231114072,-20497.4343785980,-7467.4615526014,-2075.2980347273,-4628.7257161122,1362.2223301156,-20996.5167991846,11551.8288482488,13909.6486355080,19326.5977518104
561577082111,47027,5,0,8504.3196696716,11145.5129482403,14405.8351442508,2753.7566418778,-5195.5213695185,-2266.0145147301,-5044.4959165521,-20496.4731305490,-7468.1429436235,-2077.2813693095,-4638.7275629006,1363.7067891280,-20994.4726261183,11554.9681140291,13913.9073293961,19330.7104333365
561577082111,47027,5,0,8503.5896078622,11143.7851352914,14396.5876946653,2747.5389488012,-5191.6398742320,-2270.6747426133,-5047.5256730610,-20490.8881577072,-7461.5967227327,-2073.7770726245,-4644.9209205835,1370.2651777156,-20988.3644423132,11562.9744585386,13922.4247171721,19338.1692314890
561577082111,47027,5,0,8506.2056626791,11149.7838098251,14397.5367750175,2750.5322022197,-5187.8678882168,-2265.7833284905,-5042.7924389969,-20488.5519599172,-7457.9220782922,-2070.5526329664,-4640.1998542162,1372.6743816866,-20984.7993071441,11566.4665875268,13924.1038593337,19340.0065537093
561577093645,47028,5,0,8506.6802028552,11153.6774728085,14405.2875978937,2755.9103242154,-5189.3645149261,-2257.7891516778,-5039.4098192801,-20489.5253756631,-7460.6233069869,-2070.6256391473,-4629.7599703421,1368.5373647668,-20988.6321316433,11557.1217963668,13915.9271670687,19332.8032771901
561577093645,47028,5,0,8501.8131241260,11149.7351390378,14410.3980305594,2754.8760699855,-5196.9328223499,-2257.0712575653,-5042.2083895494,-20498.8093283390,-7469.1771978534,-2076.7459906493,-4630.3926905769,1361.4070944285,-20998.7069846127,11548.5192347130,13909.6973062953,19330.9294518794
561577093645,47028,5,0,8500.0974788740,11146.4620285925,14408.4755344614,2751.0675808799,-5196.1054189660,-2262.9725905244,-5046.8077789485,-20497.7872418059,-7467.7170742347,-2077.0623507667,-4638.0340041817,1363.9988138518,-20996.6993146369,11550.5025692951,13911.5467962124,19333.5455066963
561577093645,47028,5,0,8505.6216132316,11147.2772642796,14402.9392324069,2749.8508111976,-5185.7872120601,-2264.1893602067,-5045.0677983028,-20489.5132079663,-7456.7418117004,-2068.4962922033,-4642.3170334634,1373.2705988309,-20984.7749717505,11561.6360118881,13920.6725688296,19342.1237329565
561577093645,47028,5,0,8514.1876717950,11152.9352433023,14405.8959827349,2754.3406913253,-5177.9877183966,-2256.6453881765,-5038.3390619597,-20483.0278255596,-7450.0009076605,-2061.8283943443,-4636.2453527488,1377.1642618142,-20981.8303891193,11566.6004321918,13923.7753315195,19345.3603403114
561577093645,47028,5,0,8516.1223355898,11155.4417888478,14411.5539617576,2761.5318001476,-5182.3072507688,-2251.2064276966,-5034.3115543113,-20485.9967435844,-7455.7318928641,-2066.9874977973,-4628.9934054423,1371.4697797011,-20989.2161810908,11559.2024725235,13916.0731794305,19338.1570637922
561577093645,47028,5,0,8508.1038233835,11149.4674497077,14410.9820800069,2758.0031680690,-5193.6597119046,-2255.2339353450,-5039.1421299500,-20495.7187333460,-7469.0068500979,-2078.2426173585,-4632.2908512813,1360.8717157683,-21000.0454312633,11548.1298684146,13906.2538480944,19328.5932540894
561577093645,47028,5,0,8500.7910375929,11144.2231723771,14406.3583552142,2752.2721828654,-5200.6074667905,-2266.9879304760,-5048.2557348704,-20500.0626011117,-7474.0929473699,-2083.9370994716,-4643.6798155076,1357.6351084134,-21002.3694613564,11543.2627896854,13901.5449494239,19324.7969326806
561577126130,47029,5,0,8499.7932864534,11142.2276700981,14397.4150980493,2747.7214642536,-5197.7845611275,-2276.2475477582,-5053.7068630471,-20496.3392858839,-7468.6296514964,-2082.2822927037,-4652.3432156455,1362.8063795631,-20996.0909297958,11552.5224069677,13911.0235852490,19335.3219904324
561577126130,47029,5,0,8506.3516750410,11149.0294126221,14399.4592711156,2752.3695244399,-5189.4983595911,-2268.0221847059,-5046.4792511343,-20490.6204683771,-7460.5868038964,-2074.3246189815,-4647.0989383148,1369.5716189967,-20986.5757908803,11559.9812051202,13917.8131600762,19341.7343666581
561577126130,47029,5,0,8511.2187537702,11157.4737942172,14412.2475204765,2761.8968310523,-5187.9287267010,-2258.1176794920,-5039.7383470943,-20490.1215928074,-7459.0415063999,-2070.9785023552,-4633.4102793890,1368.5738678572,-20987.5613743229,11554.9437786355,13912.5323796551,19336.3197415719
561577126130,47029,5,0,8508.8582205865,11157.1330987062,14418.7937413672,2764.8292459866,-5191.2626756304,-2253.7251409390,-5038.5337451089,-20496.4122920649,-7464.1519390655,-2075.5292209670,-4630.2588459119,1361.0907343111,-20994.3631168469,11549.8576813635,13906.3633573658,19325.8433546074
561577126130,47029,5,0,8506.6802028552,11154.4440377083,14413.6103025206,2762.1766880792,-5195.7282203645,-2261.2082744851,-5043.4859977158,-20498.8458314294,-7468.1672790171,-2079.4228839503,-4638.9222460498,1358.0853131958,-20998.0377612875,11548.5070670161,13905.7428048279,19328.4229063338
561577126130,47029,5,0,8508.0308172026,11154.6022177670,14410.3006889848,2758.0275034626,-5190.4839430338,-2265.4791360699,-5046.5279219215,-20496.9598384219,-7462.2294429675,-2074.1664389228,-4646.0038456008,1364.5950309961,-20989.8002305383,11555.9050266845,13911.7171439679,19333.8862022073
561577126130,47029,5,0,8516.3535218294,11159.8464950977,14411.8094833908,2761.2762785143,-5182.7209524607,-2261.3299514533,-5040.3954027228,-20490.9368284945,-7453.1523411376,-2065.5760449658,-4642.0736795270,1370.4841962584,-20982.9984880143,11566.7707799474,13923.8361700036,19346.3094206636
561577126130,47029,5,0,8516.9254035801,11162.5112207019,14415.2529415917,2765.6079785833,-5183.8038774780,-2253.7251409390,-5036.6355844045,-20491.6182195166,-7454.8436509960,-2067.3160256115,-4632.8627330320,1368.3791847081,-20983.7528852173,11564.9456254239,13920.2588671376,19342.6347762230
561577154923,47030,5,0,8508.8338851929,11157.0479248284,14416.9320837533,2763.5394701234,-5191.8467250779,-2255.5016246751,-5038.3633973534,-20499.8314148721,-7463.3245356816,-2074.2516128006,-4630.9889077213,1359.7279522669,-20991.9417451792,11556.0632067432,13909.4174492684,19334.8839533468
561577154923,47030,5,0,8498.9293799790,11148.0681645731,14407.8306465297,2754.1703435697,-5201.3375285998,-2265.4669683731,-5047.0024620976,-20503.7007424618,-7470.7103276531,-2081.8077525276,-4639.6401401624,1355.5300968630,-20995.6893958006,11552.9117732660,13906.9109037229,19332.7667740996
561577154923,47030,5,0,8500.1218142676,11145.6954636926,14399.7877989298,2750.8728977307,-5197.4803687070,-2273.5828221540,-5049.7523615796,-20498.1036019232,-7467.4493849046,-2081.6009016816,-4647.9263416988,1362.5995287172,-20990.8831555556,11560.4435775994,13913.3719507358,19341.0529756360
561577154923,47030,5,0,8506.1204888014,11150.0636668521,14400.5300284360,2751.6516303274,-5191.6642096256,-2272.2443755035,-5046.5279219215,-20490.0850897169,-7460.4772946250,-2075.1641900623,-4644.3977096201,1370.5085316521,-20986.6487970612,11565.3836625095,13919.5774761155,19348.7186246345
561577154923,47030,5,0,8509.1137422198,11154.1885160750,14408.1591743440,2757.6381371643,-5192.5281161000,-2265.0167635907,-5040.2007195736,-20489.6348849345,-7460.9274994075,-2074.9330038227,-4634.9312414919,1369.5959543904,-20992.1607637220,11558.8982801029,13915.7081485258,19346.3215883604
561577154923,47030,5,0,8508.3106742295,11154.9307455812,14415.3624508631,2761.3736200889,-5197.0666670150,-2261.2934483628,-5039.7261793975,-20491.7885672721,-7466.0866028604,-2078.7171575346,-4628.0443250901,1364.9843972945,-21000.9458408281,11547.5458189671,13906.4728666372,19337.9502129462
561577154923,47030,5,0,8501.7401179451,11148.0924999668,14411.0307507942,2756.7255599026,-5198.7823122670,-2263.5931430624,-5042.5734204541,-20497.5682232630,-7469.0555208852,-2081.1993676865,-4633.0695838780,1360.2146601399,-21004.4744729068,11543.5548144092,13901.1677508224,19330.7347687302
561577154923,47030,5,0,8499.7689510598,11143.3470982058,14405.5552872238,2750.7268853689,-5195.9107358168,-2270.8815934593,-5046.6739342834,-20493.3947032528,-7465.0888517209,-2078.0966049966,-4642.6820643681,1364.9843972945,-20999.4857172094,11551.4638173441,13908.0911703147,19338.6072685746
561577189942,47031,5,0,8508.1159910803,11149.6256297664,14404.9103992922,2754.2555174475,-5185.5681935173,-2269.4944760215,-5042.3787373049,-20485.2910171687,-7455.8048990450,-2071.2826947758,-4642.9862567887,1373.6843005229,-20989.8975721129,11559.4944972472,13914.9902544133,19346.2485821794
561577189942,47031,5,0,8513.5062807729,11158.2038560266,14414.3768674205,2762.1401849888,-5182.2707476783,-2258.1906856730,-5036.5260751331,-20485.1450048068,-7454.5272908786,-2069.3480309809,-4633.6414656287,1372.6500462929,-20989.5447089051,11559.3363171885,13915.0145898069,19345.7862097002
561577189942,47031,5,0,8510.4278534767,11157.6806450632,14421.9086717539,2764.6954013216,-5188.6466208135,-2255.1974322545,-5035.9663610792,-20492.5794675656,-7461.4507103708,-2074.3854574656,-4629.1515855010,1364.0231492454,-20996.0300913117,11550.6607493538,13907.9573256496,19337.9015421589
561577189942,47031,5,0,8505.5851101411,11151.2317657471,14415.6788109805,2759.9499995606,-5196.7259715039,-2262.4007087737,-5043.3521530508,-20498.2982850724,-7468.2402851980,-2081.7590817403,-4637.2309361914,1357.1484005405,-20999.4613818158,11545.9275152897,13904.4043581773,19333.3021527598
561577189942,47031,5,0,8502.4701797545,11145.0749111547,14405.8351442508,2750.7755561561,-5196.5191206580,-2272.4025555622,-5049.7766969733,-20497.7507387154,-7466.2812860096,-2080.3476289089,-4647.2571183735,1359.8861323256,-20995.5433834388,11551.3543080727,13907.6409655322,19336.7456109607
561577189942,47031,5,0,8505.5121039602,11144.8802280055,14402.5376984118,2748.4393583661,-5188.9994840214,-2270.8450903688,-5048.1340579022,-20491.3383624897,-7457.6057181748,-2072.6576445168,-4648.1331925448,1367.6612905955,-20988.8633178830,11562.5485891498,13916.1826887019,19347.3801779840
561577189942,47031,5,0,8509.1989160976,11151.3169396248,14408.1470066471,2755.1802624060,-5184.6799516492,-2260.5633865535,-5041.0281229576,-20487.3473579318,-7453.4443658614,-2068.8126523207,-4637.8028179421,1370.4355254711,-20985.3225181075,11565.0916377858,13918.1416878904,19348.5847799694
561577189942,47031,5,0,8509.1502453103,11152.7648955468,14416.2020219439,2760.8260737319,-5189.4496888038,-2254.2726872960,-5037.7185094217,-20492.1535981768,-7458.7494816762,-2071.3435332599,-4629.7112995548,1363.7067891280,-20994.0954275168,11556.4769084352,13910.7437282221,19341.9168821105
561577218800,47032,5,0,8505.1714084492,11152.1808460993,14418.1610211324,2758.7819006656,-5195.4483633375,-2260.0036724996,-5042.2935634272,-20499.5393901484,-7465.1618579018,-2076.6729844683,-4634.2863535603,1357.3552513865,-21000.8119961631,11551.0744510458,13907.7991455909,19338.6802747556
561577218800,47032,5,0,8504.2831665811,11147.6787982748,14410.7508937672,2752.1383382003,-5195.2171770979,-2267.1096074442,-5047.7690269975,-20499.4177131801,-7464.0302620973,-2076.7459906493,-4645.9795102071,1359.2534120909,-20998.3176183144,11554.5909154276,13911.2912745791,19342.7199501008
561577218800,47032,5,0,8504.8428806349,11144.8558926118,14401.0410717025,2745.3974341604,-5189.8390551022,-2270.9789350339,-5050.3485787240,-20495.9012487983,-7457.9099105954,-2071.7694026487,-4650.3233779729,1363.1592427710,-20990.4694538636,11561.9037012182,13917.8009923794,19349.8258850454
561577218800,47032,5,0,8506.4368489188,11149.6256297664,14404.9103992922,2750.3131836769,-5187.5758634931,-2264.9072543192,-5045.7735247185,-20496.6069752140,-7454.8801540865,-2067.6688888194,-4642.6090581872,1363.5486090693,-20988.2549330418,11563.7531911353,13918.0565140127,19351.4076856324
561577218800,47032,5,0,8505.4999362634,11151.0370825979,14415.6058047996,2755.7034733694,-5190.4109368528,-2257.7161454969,-5041.6243401019,-20499.6610671166,-7459.7107297252,-2071.9154150106,-4634.3715274380,1357.7689530785,-20993.0490055901,11559.4458264600,13912.5323796551,19344.9588063162
561577218800,47032,5,0,8503.3462539257,11148.9564064412,14418.1731888292,2754.9855792569,-5195.8498973327,-2260.6850635217,-5046.1263879264,-20508.1784548926,-7465.9040874080,-2078.0722696030,-4639.3481154386,1349.3124037865,-20997.7335688669,11551.2569664981,13904.4773643583,19333.2534819725
561577218800,47032,5,0,8500.6936960183,11141.3759313205,14411.0307507942,2746.6872100236,-5199.0134985067,-2272.1226985353,-5055.2278251500,-20511.9991116950,-7467.9969312616,-2081.7469140435,-4651.5158122616,1347.2438953266,-20999.7899096300,11552.7292578137,13906.9230714197,19336.8307848385
561577218800,47032,5,0,8504.5630236080,11141.9599807680,14402.3916860499,2743.2315841259,-5192.6132899778,-2275.1037842569,-5055.8605453847,-20505.2825430488,-7460.6476423805,-2077.0015122826,-4656.4315617780,1356.4426741248,-20991.1751802793,11558.2898952618,13913.4449569168,19344.7032846829
561577254954,47033,5,0,8511.0240706210,11150.3921946663,14405.3362686810,2750.1550036182,-5185.1301564317,-2268.3142094297,-5048.4869211100,-20499.2108623341,-7454.6246324532,-2073.4242094166,-4647.7559939433,1363.4756028884,-20986.7826417262,11561.3318194675,13916.8762474209,19347.8060473728
561577254954,47033,5,0,8511.4377723130,11153.0082494832,14415.5936371028,2755.4722871298,-5187.2473356789,-2260.7093989153,-5043.0479606302,-20501.0238491608,-7459.3943696078,-2075.6265625416,-4638.4112027833,1358.8032073084,-20993.3166949202,11555.5521634766,13910.2448526523,19343.3891734261
561577254954,47033,5,0,8507.9334756280,11149.8933190965,14417.9054994991,2754.7057222300,-5194.6087922568,-2263.5809753655,-5045.3233199361,-20504.1266118506,-7467.2790371490,-2082.6716590020,-4640.1633511258,1354.9825505060,-21000.6294807108,11548.9451041018,13903.4796132188,19337.9502129462
561577254954,47033,5,0,8504.9037191191,11146.9487364654,14411.1402600656,2749.8386435008,-5197.1883439832,-2272.5242325304,-5048.9249581957,-20502.0459356939,-7468.3132913790,-2084.9713537016,-4647.9141740020,1357.2944129024,-21003.5253925546,11549.8698490603,13905.5481216787,19340.9799694551
561577254954,47033,5,0,8508.8947236770,11147.8369783335,14406.2853490332,2747.9039797059,-5189.0481548087,-2274.6170763840,-5047.4039960928,-20491.4357040643,-7458.7251462825,-2074.8234945512,-4648.5468942368,1367.1502473289,-20993.8520735804,11558.4602430173,13915.4891299830,19351.7483811434
561577254954,47033,5,0,8515.3557706900,11154.3588638306,14409.6923041436,2753.0509154620,-5180.5794378199,-2264.9437574097,-5038.5094097152,-20483.5997073103,-7449.8427276018,-2066.2452682911,-4638.0948426659,1376.0570014033,-20987.0868341468,11565.1524762699,13920.1736932599,19358.6352975452
561577254954,47033,5,0,8516.7915589151,11159.6639796454,14416.6887298168,2761.8238248714,-5180.1900715216,-2254.5525443229,-5031.0141084723,-20482.8453101073,-7450.1834231128,-2064.4809522517,-4625.8906427524,1375.0105794766,-20988.9484917607,11561.5873411008,13916.0853471274,19356.5667890853
561577254954,47033,5,0,8511.4986107971,11156.2691922318,14418.1853565261,2761.2762785143,-5187.8678882168,-2254.4673704452,-5036.1367088348,-20490.2311020788,-7458.9563325221,-2068.0217520272,-4626.2191705667,1366.0551546149,-20998.0012581970,11552.3642269090,13907.2515992339,19350.7384623071
561577321183,47034,5,0,8504.3196696716,11147.9464876049,14413.2817747064,2753.0265800684,-5194.6574630440,-2266.3552102412,-5045.7856924153,-20497.3978755075,-7466.0744351636,-2073.5337186880,-4640.0660095512,1360.6526972255,-20999.9480896887,11549.5899920334,13906.6310466959,19349.4608541407
561577321183,47034,5,0,8505.3782592952,11147.7153013652,14405.6891318889,2749.0112401168,-5190.7272969702,-2270.7234134006,-5049.6671877019,-20493.0418400449,-7460.7936547424,-2069.4818756460,-4647.4274661291,1366.2133346736,-20992.7326454727,11558.3872368364,13914.7590681737,19359.1220054181
561577321183,47034,5,0,8510.2696734180,11152.7405601531,14407.1249201140,2753.3672755794,-5185.6898704855,-2264.4448818400,-5044.7271027918,-20487.5177056873,-7454.6611355436,-2062.0109097967,-4641.1976053557,1371.0439103123,-20989.3256903622,11562.7919430863,13920.0276808980,19364.2811088710
561577321183,47034,5,0,8513.5184484697,11160.2480290929,14418.9032506386,2762.7364021331,-5186.8336339869,-2255.8909909734,-5039.1299622532,-20487.1161716921,-7456.6566378226,-2061.6580465888,-4628.4215236916,1369.3282650602,-20993.4748749789,11559.8838635456,13916.4260426384,19360.0467503767
561577321183,47034,5,0,8513.9443178585,11161.3917925942,14425.3399622580,2767.7373255273,-5193.3190163935,-2254.9419106213,-5038.3025588692,-20490.7299776485,-7464.7968269972,-2068.7883169271,-4625.5377795446,1363.6581183408,-21000.8971700409,11550.1253706936,13910.2570203492,19351.9673996862
561577321183,47034,5,0,8511.2430891638,11157.3034464617,14422.9185905902,2762.8337437077,-5197.5655425847,-2263.0212613117,-5044.7392704886,-20495.4875471063,-7469.0555208852,-2072.9740046342,-4634.0551673206,1361.0055604334,-21005.1436962321,11547.0712787910,13906.7527236642,19349.2053325074
561577321183,47034,5,0,8510.0384871783,11154.2736899528,14416.4940466677,2756.8594045676,-5194.6209599536,-2270.4557240705,-5048.4504180196,-20493.1148462258,-7464.7846593003,-2070.7108130251,-4643.1809399378,1363.1714104678,-21000.3861267743,11553.0091148406,13910.8167344030,19352.9043123416
561577321183,47034,5,0,8513.8956470712,11158.9460855328,14416.4940466677,2759.4876270814,-5186.2252491457,-2265.1384405589,-5042.9749544492,-20486.0575820685,-7456.0725883751,-2065.6003803595,-4638.7153952038,1370.5206993489,-20990.9926648270,11561.7455211595,13918.9812589712,19357.3941924693
561577329588,47035,5,0,8520.6608865048,11166.5143929567,14426.2647072165,2767.5669777718,-5182.7209524607,-2253.3966131247,-5034.4819020668,-20487.2500163572,-7454.0284153089,-2062.5341207601,-4626.8153877110,1367.1989181162,-20990.3599445922,11560.2367267534,13917.5698061398,19354.7294668650
561577329588,47035,5,0,8519.6631353653,11167.7676657294,14436.4734048509,2771.3998022710,-5187.5636957963,-2251.5106201172,-5035.3336408444,-20494.3681189986,-7460.7206485615,-2068.3502798414,-4626.3773506254,1359.5211014210,-20996.5533022751,11552.2303822439,13909.6243001144,19346.8691347174
561577329588,47035,5,0,8516.7550558246,11162.2191959782,14431.5333199408,2768.0171825543,-5192.0779113176,-2260.9770882454,-5042.4274080922,-20500.4884705005,-7465.2105286891,-2075.5778917543,-4637.7541471548,1355.2137367456,-20999.1328540015,11550.1862091777,13907.3976115958,19344.4599307465
561577329588,47035,5,0,8515.4774476582,11160.6860661785,14423.0767706489,2761.3127816048,-5188.8656393563,-2271.5264813909,-5048.2800702641,-20498.8336637326,-7462.9595047769,-2077.3422077936,-4649.3986330144,1358.6936980370,-20996.2004390672,11555.6860081417,13911.5832993029,19349.2661709915
561577329588,47035,5,0,8516.3413541326,11160.4183768484,14419.4751323893,2759.0860930862,-5185.6290320014,-2273.5584867604,-5048.3165733545,-20496.5461367299,-7458.9319971285,-2075.8455810844,-4652.1363647995,1362.0884854506,-20990.7858139810,11559.9203666360,13916.7058996653,19353.5978710605
561577329588,47035,5,0,8516.5482049786,11160.5887246039,14421.1786099445,2759.6944779274,-5188.6709562072,-2269.9933515912,-5046.3210710756,-20499.0770176691,-7463.0446786547,-2083.1096960877,-4646.0403486912,1358.8762134893,-20994.0954275168,11556.2578898923,13912.5323796551,19349.2418355979
561577329588,47035,5,0,8515.8424785629,11160.0046751564,14425.6319869817,2762.3348681379,-5196.6894684135,-2267.8153338599,-5046.7347727675,-20503.4452208285,-7471.1605324356,-2089.6680846752,-4642.8524121236,1353.3642468285,-21000.1184374442,11549.2249611287,13906.7283882705,19343.3283349419
561577329588,47035,5,0,8513.5306161665,11156.3543661095,14423.3931307663,2759.2807762354,-5199.5002063796,-2272.4390586526,-5050.4459202985,-20505.6475739535,-7473.7522518588,-2092.7100088810,-4649.5203099826,1351.5755953956,-21000.9580085250,11546.2317077102,13904.8302275661,19343.0363102182
561577342388,47036,5,0,8512.3381818779,11151.0249149011,14410.5927137085,2752.8805677065,-5196.7624745944,-2278.3890623991,-5053.7068630471,-20500.5979797720,-7470.5156445039,-2091.1282082940,-4659.4126474996,1356.9172143008,-20993.6695581280,11552.6319162391,13910.4395358015,19348.7551277250
561577342388,47036,5,0,8512.3260141811,11152.8257340309,14407.1857585981,2752.6858845573,-5188.0260682755,-2277.0384480517,-5052.4900933648,-20494.3194482113,-7462.8378278087,-2085.2268753349,-4658.5730764189,1362.3805101743,-20986.7826417262,11557.8153550857,13915.4526268926,19354.2549266889
561577342388,47036,5,0,8510.9875675305,11154.6995593416,14412.7707314399,2755.7278087631,-5188.5127761485,-2270.6382395229,-5049.2291506162,-20496.8138260600,-7462.7283185373,-2083.7667517161,-4648.9849313224,1360.0443123843,-20988.3036038291,11555.0411202100,13911.6928085743,19352.4906106496
561577342388,47036,5,0,8509.1259099166,11153.2029326324,14417.5891393817,2758.2343543086,-5195.4483633375,-2265.7833284905,-5047.7690269975,-20500.4884705005,-7468.4349683472,-2087.0763652519,-4642.8889152141,1354.8973766282,-20995.1053463531,11549.6873336080,13906.5093697277,19346.3580914509
561577342388,47036,5,0,8507.7509601756,11151.5967966518,14416.5183820613,2756.1415104551,-5200.5222929127,-2269.9081777135,-5051.7356961618,-20502.3501281145,-7473.3142147732,-2088.2079610565,-4644.7262374344,1353.9969670633,-20999.7290711459,11543.7860006488,13902.0924957810,19342.0385590787
