timestamp,sequence,battery,flags,EEG-ch1,EEG-ch2,EEG-ch3,EEG-ch4,EEG-ch5,EEG-ch6,EEG-ch7,EEG-ch8,EEG-ch9,EEG-ch10,EEG-ch11,EEG-ch12,EEG-ch13,EEG-ch14,EEG-ch15,EEG-ch16
561470226167,45164,-2,0,7952.1739232401,10274.4031972922,14081.6755331908,2292.8929570120,-5506.2965140732,-2668.7531118727,-5464.7316617261,-20392.8043536175,-7879.2164130897,-2245.2929270407,-4642.9254183046,1019.3609690388,-20881.3008779682,11113.5240732928,13325.3680017672,18727.7037141852
561470226167,45164,-2,0,7956.4691202186,10276.6420535076,14078.4754289263,2292.1872305963,-5498.3996788351,-2669.7995337995,-5461.7870790949,-20384.7006675334,-7869.3605786632,-2239.1360724483,-4646.2958703245,1028.1217107513,-20871.9560868081,11121.6764301641,13334.7857991081,18737.4135362499
561470226167,45164,-2,0,7963.5993905568,10283.4802991221,14081.0184775623,2299.5851902646,-5492.8025382966,-2663.7278530848,-5456.4089570992,-20380.4663090390,-7864.8585308387,-2234.2689937191,-4639.4576247100,1032.5020816076,-20868.2449392771,11124.3168203747,13336.8543075680,18739.7619017367
561470226167,45164,-2,0,7966.7508240340,10290.6227371572,14091.4461937396,2307.7132117424,-5494.3600034899,-2654.6264158613,-5452.5152941158,-20384.2747981446,-7867.6084303207,-2235.8142912156,-4630.0276596722,1026.1748792596,-20874.7424893806,11118.5980028679,13329.5780248679,18734.4689536187
561470226167,45164,-2,0,7962.9423349284,10287.3009559245,14095.5102044785,2305.6933740697,-5502.5001926645,-2656.4150672942,-5457.7474037497,-20391.8431055685,-7876.6490290601,-2244.2586728107,-4632.3638574622,1017.4019698503,-20882.5298153473,11110.6038260553,13322.4477545297,18726.3896029283
561470226167,45164,-2,0,7956.7124741551,10281.4239583591,14087.4065183944,2297.0299739318,-5507.5132837555,-2669.9455461613,-5466.6054870368,-20396.0044578819,-7882.4651881415,-2251.0725830316,-4647.3909630386,1013.3257914146,-20885.6447457340,11107.3307156099,13320.6591030967,18723.0799893925
561470226167,45164,-2,0,7955.9580769520,10276.8489043536,14077.3194977282,2289.6685173539,-5505.9193154717,-2680.1177407053,-5472.2269629690,-20394.6173404441,-7878.2551650407,-2249.3934408700,-4657.3441390397,1017.9981869946,-20881.0088532444,11113.0251977230,13324.9908031657,18726.5721183807
561470226167,45164,-2,0,7959.2676904879,10281.1562690290,14079.2298261294,2291.8830381757,-5500.2735041459,-2675.7495375459,-5466.9705179415,-20388.9106906342,-7872.1104781451,-2244.3073435980,-4650.6397380903,1022.7192533619,-20874.9615079234,11116.2861404716,13328.8722984522,18730.1250858530
561470258523,45165,-2,0,7963.3438689236,10286.5222233279,14087.2970091230,2301.8970526610,-5498.3388403510,-2662.4015741311,-5457.4310436323,-20385.5767417047,-7871.0518885215,-2241.8738042334,-4634.7730614332,1023.4614828681,-20875.4968865836,11116.5416621049,13328.8966338458,18729.5653717991
561470258523,45165,-2,0,7963.1978565617,10289.5519798368,14096.3862786497,2308.6014536104,-5498.3023372606,-2655.1252914310,-5453.0263373824,-20387.4627347122,-7873.0838938910,-2241.0829039399,-4627.8861450314,1022.1717070049,-20878.5753138798,11114.7651783687,13325.9155481242,18728.7258007183
561470258523,45165,-2,0,7961.2631927668,10286.5830618120,14093.7215530455,2305.4135170428,-5500.8575535934,-2661.2699783266,-5456.8348264880,-20386.7448405997,-7873.0473908005,-2242.5795306491,-4636.1601788710,1022.6949179683,-20878.1737798847,11115.8237679923,13327.2296593811,18731.0498308115
561470258523,45165,-2,0,7959.5718829084,10281.1684367258,14082.6732843303,2297.0178062350,-5498.2901695637,-2671.4665082642,-5462.6874886598,-20384.8466798953,-7870.6381868296,-2244.0761573584,-4647.3057891608,1026.7710964040,-20874.5234708378,11119.6079217042,13331.7073718119,18735.9290772375
561470258523,45165,-2,0,7961.3605343414,10281.0589274544,14081.2739991956,2293.2093171294,-5495.8322948055,-2673.5715198146,-5463.5270597406,-20384.2869658414,-7867.1095547509,-2241.9589781112,-4645.6874854834,1027.3429781546,-20873.1241857031,11120.8003559929,13333.1309923402,18737.9245795165
561470258523,45165,-2,0,7963.7697383124,10284.7822426822,14090.8134735048,2299.0254762108,-5495.3942577199,-2663.6061761166,-5459.1223534907,-20387.7547594360,-7868.5088398855,-2241.8981396271,-4635.0894215506,1024.2645508584,-20877.9547613419,11114.8990230338,13328.8236276649,18735.1260092472
561470258523,45165,-2,0,7963.9279183711,10287.5321421642,14096.4714525275,2303.1138223433,-5499.2270822191,-2657.8995263066,-5458.3801239845,-20391.5510808447,-7872.4998444435,-2244.8670576519,-4629.5652871930,1020.8697634448,-20881.0210209412,11108.8273423191,13323.3846671850,18731.5608740781
561470258523,45165,-2,0,7962.3217823904,10285.5853106725,14094.8288134564,2301.3981770912,-5498.6795358621,-2661.5376676567,-5459.4752166986,-20390.8696898227,-7873.1934031624,-2243.7111264537,-4634.4080305285,1022.0621977335,-20880.7776670048,11108.4379760208,13325.0151385593,18734.4567859219
561470299852,45166,-2,0,7963.6845644346,10282.0201755034,14088.0757417196,2298.1737374332,-5493.8611279202,-2665.3096536718,-5459.0493473098,-20382.9971899782,-7865.6737665258,-2237.6151103454,-4639.7739848274,1030.4700762381,-20872.4914654684,11116.8336868286,13333.9340603305,18741.6722301379
561470299852,45166,-2,0,7968.7706617066,10288.6272348782,14087.0658228833,2301.6780341182,-5485.3315724473,-2661.2699783266,-5452.6248033872,-20374.0295974197,-7858.6530054590,-2231.8597897481,-4635.2476016093,1037.9775451779,-20865.8600706998,11124.8887021254,13341.8795663559,18743.7650739915
561470299852,45166,-2,0,7969.4885558191,10292.4478916806,14095.8143968990,2308.7352982755,-5484.4798336697,-2650.2217096114,-5445.5675392299,-20372.6911507692,-7859.3830672683,-2231.4460880562,-4624.0776559258,1036.5295892560,-20868.6951440596,11121.5182501054,13337.0124876267,18736.7321452278
561470299852,45166,-2,0,7967.0428487577,10292.2897116220,14104.0519276482,2313.8822340316,-5488.2274842912,-2644.1621965935,-5442.4039380560,-20377.0958570191,-7864.0919659388,-2233.0643917336,-4617.7504535779,1031.0784610793,-20874.8033278647,11114.4366505545,13330.9894776994,18731.3175201416
561470299852,45166,-2,0,7965.0716818724,10289.1382781448,14100.2191031489,2310.7429682513,-5489.5902663353,-2648.4087227847,-5446.2854333425,-20378.3369620950,-7867.4380825651,-2235.7412850347,-4624.5400284051,1029.3628158272,-20876.4337992390,11113.8404334102,13331.0746515771,18730.6361291195
561470299852,45166,-2,0,7963.1613534712,10284.0400131760,14090.0834116954,2301.5928602404,-5487.1445592739,-2658.0212032749,-5451.2376859494,-20376.2076151510,-7863.7756058214,-2234.1473167508,-4635.1015892474,1033.6945158962,-20870.1065968911,11119.3280646773,13337.2923446537,18736.7564806215
561470299852,45166,-2,0,7964.1104338234,10282.2878648335,14086.1775810153,2296.6041045430,-5483.6280948921,-2659.2501406540,-5451.0916735875,-20373.6280634246,-7857.5335773513,-2228.9273748138,-4635.4787878489,1038.4034145667,-20865.9087414871,11122.4308273672,13341.0278275783,18740.9665037222
561470299852,45166,-2,0,7967.7485751735,10287.9580115530,14094.7923103659,2304.1359088764,-5483.4212440461,-2650.9152683303,-5447.7942277485,-20374.6379822609,-7858.3366453416,-2230.2658214643,-4626.0609905080,1036.3592415004,-20869.2548581135,11121.1897222912,13339.3243500231,18740.2364419128
561470322490,45167,-2,0,7966.4953024007,10287.6659868292,14099.4525382491,2308.1147457375,-5488.8845399196,-2646.6444067454,-5447.9159047168,-20380.9651846088,-7864.3353198753,-2234.5123476555,-4620.6341977249,1029.7765175192,-20874.1584399331,11113.0617008135,13331.8412164770,18734.6149659806
561470322490,45167,-2,0,7962.4556270555,10282.9814235524,14097.0311665813,2303.2598347052,-5493.2284076854,-2651.5601562619,-5453.8415730695,-20386.4893189664,-7868.0464674063,-2237.9923089469,-4627.6306233981,1023.4128120808,-20876.8961717183,11110.8593476885,13329.9430557726,18733.3981962983
561470322490,45167,-2,0,7962.0419253635,10281.4847968432,14091.7625538570,2298.8794638489,-5488.9818814942,-2658.8121035683,-5457.3337020577,-20382.6564944672,-7861.8287743298,-2235.0355586189,-4637.6081347929,1030.2267223017,-20868.4031193358,11118.6345059584,13337.5235308933,18740.8326590571
561470322490,45167,-2,0,7968.8436678875,10286.2545339978,14088.3069279593,2299.8772149884,-5479.5275810628,-2656.1717133578,-5452.1015924239,-20374.2486159625,-7851.7782567540,-2227.3942450141,-4634.8460676141,1039.6323519458,-20860.7983088215,11130.0599732752,13347.1116759898,18748.1576125446
561470322490,45167,-2,0,7972.4574738439,10289.4546382622,14093.9649069819,2303.5153563384,-5477.1062093950,-2647.8003379436,-5446.7234704281,-20373.2021940358,-7851.7660890572,-2224.7538548035,-4623.2380848450,1036.9311232511,-20865.1908473746,11128.8797066833,13343.7898947571,18743.4730492677
561470322490,45167,-2,0,7970.1212760539,10288.8705888147,14101.9712514914,2307.3360131408,-5482.8493622954,-2641.6678187448,-5445.5067007458,-20378.2274528236,-7859.3587318747,-2229.2680703248,-4618.4318446000,1029.7278467319,-20876.2147806962,11117.8922764522,13334.3964328098,18732.0840850414
561470322490,45167,-2,0,7963.2343596522,10285.0620997091,14098.2722716573,2305.0119830477,-5489.9918003305,-2648.9927722322,-5450.3737794750,-20384.3113012351,-7867.1947286287,-2236.6903653868,-4625.6594565128,1023.9116876506,-20882.3716352886,11110.4456459966,13327.6311933762,18722.3255921894
561470322490,45167,-2,0,7960.3992862924,10282.3973741049,14092.3831063950,2298.6604453061,-5491.5979363111,-2659.5543330745,-5457.4675467228,-20386.2216296363,-7866.8053623303,-2236.7390361741,-4637.9731656976,1025.8828545359,-20877.9669290387,11110.2874659379,13327.1931562906,18718.4684322966
561470359900,45168,-2,0,7963.4777135886,10285.1351058901,14088.5016111084,2296.9813031445,-5485.8669511075,-2662.8031081263,-5458.2341116226,-20381.6222402372,-7860.5389984665,-2233.2225717923,-4641.0029222065,1030.1293807271,-20869.6198890181,11118.2816427505,13333.2039985211,18723.2868402385
561470359900,45168,-2,0,7968.0527675940,10290.9999357587,14092.4196094854,2303.5275240353,-5482.6303437526,-2656.2082164482,-5452.2111016953,-20377.1810308969,-7858.5434961876,-2230.5456784913,-4632.5585406114,1032.2465599743,-20865.4950397952,11118.2451396601,13332.8389676165,18716.9718055874
561470359900,45168,-2,0,7967.7729105671,10292.1680346537,14102.0077545819,2308.5041120358,-5487.3392424231,-2646.5835682613,-5449.5585437879,-20382.1576188974,-7863.3132333422,-2233.8309566335,-4623.6396188402,1024.7999295186,-20873.2823657618,11113.0008623294,13328.1544043396,18708.9411256842
561470359900,45168,-2,0,7960.5939694416,10285.9746769708,14098.5277932906,2302.8826361036,-5496.8422136418,-2653.2271307266,-5455.2651935978,-20390.0301187419,-7872.6701921990,-2241.4357671478,-4630.8915661467,1018.2902117184,-20881.3860518459,11106.1869521085,13323.2873256104,18700.2533901526
561470359900,45168,-2,0,7954.3519409714,10276.8489043536,14083.2451660809,2293.2823233103,-5501.4902738282,-2667.7431930364,-5465.2183695990,-20393.4005707618,-7876.7585383315,-2247.0085722927,-4646.7704105006,1016.3555479235,-20884.7930069563,11102.7678293013,13323.4941764564,18697.5886645484
561470359900,45168,-2,0,7951.3343521593,10272.9917444608,14074.5087597621,2284.8622771089,-5502.7678819946,-2678.0492322454,-5470.1706222059,-20391.1982176369,-7874.7143652652,-2246.7408829626,-4654.0710285944,1019.8355092149,-20881.3617164523,11106.1991198054,13327.0106408383,18699.2921421036
561470359900,45168,-2,0,7954.3276055778,10276.2648549061,14076.6746097965,2288.0137105860,-5500.3465103268,-2672.1235638926,-5465.6929097751,-20389.9571125609,-7872.7797014704,-2244.0031511774,-4645.6144793024,1021.3321359241,-20877.8452520704,11110.9566892631,13330.4175959487,18698.8176019275
561470359900,45168,-2,0,7957.7223929914,10281.0467597576,14086.8346366437,2296.7987876922,-5499.7989639698,-2660.5642519109,-5457.7474037497,-20388.8741875437,-7873.6436079448,-2242.1658289572,-4632.2665158877,1020.9062665353,-20879.2688725987,11110.2022920601,13326.6212745399,18693.4029768413
561470385143,45169,-2,0,7957.7588960818,10282.3243679240,14093.9284038915,2299.4878486900,-5500.7967151093,-2658.1063771526,-5457.0416773340,-20390.0909572260,-7875.0915638668,-2242.0563196858,-4628.3728529043,1019.7381676403,-20882.4081383791,11107.1482001576,13322.5937668915,18687.6354885472
561470385143,45169,-2,0,7953.1716743796,10276.0093332729,14087.0901582770,2291.1894794568,-5500.2004979649,-2665.4191629432,-5461.4463835839,-20388.7160074850,-7873.3880863115,-2243.2244185808,-4639.2872769545,1021.0644465940,-20881.0453563349,11108.3041313557,13325.1489832244,18689.4606430707
561470385143,45169,-2,0,7953.8895684921,10273.4784523337,14076.2122373173,2286.2128914562,-5495.5402700818,-2673.0361411544,-5462.1277746060,-20383.8489287558,-7867.8396165603,-2240.9612269717,-4645.1886099136,1027.4768228197,-20874.9371725298,11112.9643592389,13333.3135077926,18694.1087032570
561470385143,45169,-2,0,7955.5808783505,10276.7028919918,14077.2343238504,2289.0357971191,-5494.7615374851,-2667.9865469728,-5457.5162175101,-20381.2085385452,-7866.2578159733,-2239.8661342576,-4638.5815505388,1028.9856172257,-20872.9660056444,11111.6867510725,13334.9561468636,18693.5854922937
561470385143,45169,-2,0,7953.3055190446,10278.2238540946,14086.8589720373,2292.6739384692,-5499.7381254857,-2661.9878724391,-5457.3580374514,-20386.9030206584,-7873.1203969814,-2244.4776913535,-4629.9668211881,1021.0522788972,-20879.7799158653,11106.1747844117,13326.6699453272,18684.0338502877
561470385143,45169,-2,0,7950.3244333230,10273.6366323924,14087.4795245753,2291.4936718774,-5507.2942652127,-2664.5430887720,-5463.3080411978,-20395.8219424296,-7882.6477035938,-2253.0072468264,-4634.6513844650,1013.3379591114,-20884.4644791421,11103.0720217219,13321.1701463633,18674.7864007022
561470385143,45169,-2,0,7946.2482548873,10268.6600443918,14080.3979250244,2282.3678992602,-5510.2753509343,-2675.2263265825,-5471.5699073406,-20398.1094694323,-7882.8180513493,-2253.4817870025,-4647.2571183735,1011.2937860452,-20878.8916739972,11103.1571955996,13321.8637050822,18671.9756627361
561470385143,45169,-2,0,7949.5335330295,10265.9223126066,14073.1581454147,2280.0682045606,-5503.2789252611,-2679.6188651356,-5473.4924034386,-20394.0211232998,-7874.7021975684,-2249.1014161462,-4653.0611097581,1019.6894968530,-20871.2868634829,11114.1446258307,13332.6686198609,18681.7706586786
561470431012,45170,-2,0,7956.3717786440,10275.8146501237,14079.4975154595,2286.1763883657,-5495.5889408690,-2672.2574085577,-5466.8245055796,-20387.3897285313,-7867.7544426825,-2244.1856666298,-4645.1156037327,1026.3938978024,-20867.4783743773,11119.7782694598,13336.2215873332,18683.3281238719
561470431012,45170,-2,0,7958.7809826150,10280.0733440117,14087.4795245753,2294.5112606895,-5496.8543813386,-2662.1703878915,-5460.9961788014,-20389.9936156514,-7869.8959573234,-2244.4533559599,-4634.5905459808,1021.1861235622,-20871.5302174193,11116.2861404716,13332.6442844673,18676.5142136511
561470431012,45170,-2,0,7954.0964193381,10276.0823394538,14090.7648027175,2293.1728140389,-5504.9580674227,-2662.0000401360,-5463.5757305279,-20396.7466873881,-7876.9045506934,-2249.5394532319,-4633.6171302350,1013.2406175368,-20880.6316546429,11108.0242743288,13325.8182065496,18668.4835337479
561470431012,45170,-2,0,7949.1076636407,10271.3977761770,14084.5836127315,2287.0281271434,-5507.6349607238,-2671.5638498388,-5469.4405603965,-20399.8616177748,-7880.3845119847,-2252.9950791296,-4644.9330882803,1011.1477736833,-20882.4081383791,11106.3329644704,13326.6942807209,18663.8841443489
561470431012,45170,-2,0,7946.6619565793,10267.8691440983,14075.1293123000,2280.0925399543,-5503.7169623468,-2680.1664114926,-5473.8939374337,-20397.6957677403,-7876.3691720332,-2250.2086765571,-4654.6064072546,1014.0436855272,-20875.7037374296,11112.6358314247,13329.8457141980,18663.1905856299
561470431012,45170,-2,0,7952.1252524528,10273.0160798544,14077.8062056011,2282.0028683555,-5494.9927237247,-2674.0217245970,-5469.2093741569,-20390.9183606100,-7866.5255053034,-2240.9855623653,-4646.4175472927,1020.8089249607,-20865.5193751888,11121.8832810101,13337.7547171329,18671.5376256505
561470431012,45170,-2,0,7958.1969331675,10282.5068833763,14090.8134735048,2294.4990929926,-5491.7926194603,-2659.2379729572,-5457.5648882974,-20386.5501574505,-7863.4714134009,-2236.0454774552,-4629.4314425279,1023.6926691078,-20863.5968790908,11125.0955529714,13338.8498098470,18670.7467253570
561470431012,45170,-2,0,7959.6448890894,10284.3928763839,14098.1262592954,2300.6681152819,-5492.5105135728,-2650.6597466970,-5453.3426974998,-20387.4505670154,-7866.8662008145,-2237.4204271962,-4623.3475941164,1021.1496204718,-20867.1011757758,11117.9896180268,13332.9728122815,18666.8408946768
561470481293,45171,-2,0,7955.8607353774,10282.4582125890,14095.9969123514,2299.1593208758,-5496.6718658863,-2657.6805077638,-5458.8668318574,-20389.7137586245,-7870.9788823406,-2240.4015129178,-4632.2421804940,1019.6529937625,-20872.4184592874,11117.2230531269,13334.0070665115,18664.4681937964
561470481293,45171,-2,0,7954.7048041793,10278.7835681485,14086.1897487121,2291.6518519361,-5495.6984501405,-2669.0451365964,-5464.1111091881,-20387.1220392012,-7870.0541373821,-2242.8228845856,-4644.5802250725,1024.2767185553,-20871.0678449401,11118.2938104474,13339.4825300818,18665.9769882024
561470481293,45171,-2,0,7957.0653373629,10280.3897041291,14082.2230795478,2290.1917283173,-5493.9219664043,-2671.1744835405,-5463.5878982247,-20384.0314442082,-7867.2312317191,-2242.2266674413,-4643.6676478108,1027.3308104578,-20869.4982120499,11118.8048537139,13341.1130014561,18667.1085840069
561470481293,45171,-2,0,7960.3506155051,10283.0300943397,14091.9085662189,2295.6915272813,-5496.7570397640,-2663.5453376325,-5460.8623341364,-20387.0246976266,-7870.8572053724,-2242.4456859841,-4633.0695838780,1022.6827502715,-20877.8574197673,11112.5628252438,13334.3842651130,18659.5889473704
561470481293,45171,-2,0,7957.7223929914,10283.5046345158,14096.6052971925,2297.7843711348,-5502.4271864835,-2660.6737611823,-5460.4851355349,-20393.1815522190,-7877.7197863805,-2246.9233984149,-4630.6968829975,1016.3312125299,-20888.0661174017,11102.3906306998,13325.0638093466,18649.9642991834
561470481293,45171,-2,0,7954.3032701841,10279.3676175960,14092.0910816712,2293.8907081515,-5506.3695202542,-2667.0983051048,-5466.9461825478,-20397.8904508895,-7881.3214246401,-2251.0604153347,-4640.7717359669,1011.3667922261,-20892.4464882580,11097.0855148850,13320.3305752825,18645.7907791731
561470481293,45171,-2,0,7953.6948853430,10278.3333633660,14087.4916922721,2289.5711757794,-5501.9769817011,-2675.3115004603,-5471.0710317708,-20395.5055823122,-7878.0726495884,-2248.8458945130,-4650.6397380903,1015.4916414491,-20885.2432117388,11101.2346995016,13324.7352815324,18649.0638896185
561470481293,45171,-2,0,7957.9900823215,10281.5943061146,14085.1554944821,2291.2503179409,-5496.6962012799,-2675.2384942793,-5466.8853440637,-20387.7547594360,-7871.4047517294,-2243.7111264537,-4648.3887141781,1022.5124025159,-20874.7424893806,11108.3041313557,13331.9142226579,18654.1013161032
561470492442,45172,-2,0,7962.7719871729,10289.9291784383,14093.4295283217,2300.8749661279,-5492.4253396951,-2661.9148662582,-5458.5991425273,-20385.9539403062,-7869.3605786632,-2242.0928227762,-4634.4810367094,1024.2158800711,-20873.7812413316,11111.1392047155,13331.3423409072,18652.7507017559
561470492442,45172,-2,0,7962.7841548697,10292.1315315633,14102.2389408215,2307.1413299917,-5496.6475304926,-2655.7701793626,-5456.0560938913,-20389.9449448641,-7874.4953467224,-2242.5186921650,-4627.6792941854,1018.4970625644,-20879.8164189558,11106.9048462211,13324.5892691705,18647.4699213347
561470492442,45172,-2,0,7958.4402871039,10288.1040239149,14099.3065258872,2301.7632079959,-5500.9183920775,-2661.5620030503,-5459.2440304589,-20392.8895274953,-7879.8734687182,-2247.4952801656,-4634.9434091887,1015.8810077474,-20883.8804296946,11102.8408354822,13322.3260775614,18641.6172591629
561470492442,45172,-2,0,7958.1604300770,10283.6628145745,14092.3466033045,2296.3607506066,-5496.7813751577,-2668.9477950219,-5463.3202088946,-20389.6772555340,-7874.5440175097,-2246.5340321166,-4644.7262374344,1019.8111738212,-20879.7920835621,11107.9269327542,13328.6776153030,18646.8493687967
561470492442,45172,-2,0,7960.8008202876,10285.0742674059,14089.7548838812,2295.6793595845,-5489.6997756067,-2669.9698815550,-5461.8600852759,-20383.8732641495,-7865.1992263497,-2238.6128614849,-4644.1421879869,1026.3938978024,-20873.1606887936,11114.6191660068,13334.7127929272,18653.6511113208
561470492442,45172,-2,0,7965.6070605326,10288.7002410592,14092.7724726933,2300.7776245533,-5489.1278938561,-2660.7589350600,-5456.0560938913,-20384.0192765113,-7864.3474875721,-2238.7588738467,-4634.5783782840,1025.7490098708,-20873.7447382411,11114.4366505545,13334.6397867463,18651.9111306751
561470492442,45172,-2,0,7964.3537877599,10289.8440045605,14099.2335197063,2305.5351940110,-5495.2360776612,-2655.9161917245,-5454.5959702726,-20389.8232678959,-7871.9766334801,-2241.9224750207,-4628.7865545963,1020.5777387211,-20879.9989344081,11110.3483044220,13329.3225032346,18646.1193069874
561470492442,45172,-2,0,7958.5862994658,10285.0134289218,14098.8928241952,2301.0574815802,-5499.7624608793,-2661.3186491139,-5459.9132537842,-20394.5078311727,-7876.6003582728,-2242.9810646443,-4632.8262299415,1016.2095355616,-20882.8583431615,11106.8196723433,13328.2274105206,18644.4523325226
561470523835,45173,-2,0,7954.5222887269,10278.0778417328,14088.9031451036,2292.3089075645,-5499.5312746397,-2669.9333784645,-5465.4982266259,-20394.0941294807,-7873.6192725512,-2242.4456859841,-4644.3125357424,1019.9693538799,-20878.4049661243,11110.1657889696,13333.2891723989,18646.7033564349
561470523835,45173,-2,0,7957.6493868104,10281.4117906622,14085.6178669614,2290.4594176474,-5491.8899610349,-2671.4665082642,-5464.4031339118,-20387.0855361107,-7866.8296977240,-2237.7489550104,-4644.4098773170,1027.0752888245,-20870.6663109449,11116.0184511415,13339.3365177199,18652.7263663622
561470523835,45173,-2,0,7962.8084902633,10286.5100556311,14092.9914912361,2297.7478680444,-5488.4708382276,-2660.6250903950,-5457.6257267815,-20384.4938166874,-7863.7634381246,-2233.6849442716,-4632.7775591542,1028.3163939005,-20870.3377831307,11115.2518862416,13339.8962317738,18651.9598014624
561470523835,45173,-2,0,7966.2154453738,10292.7399164044,14101.9955868851,2305.3526785587,-5491.9994703063,-2652.1320380126,-5454.0727593092,-20387.8886041010,-7868.7643615188,-2236.4105083599,-4623.5666126593,1023.4614828681,-20877.5653950435,11110.2509628474,13336.2824258173,18646.2409839556
561470523835,45173,-2,0,7963.8670798869,10289.9413461351,14101.5088790122,2305.9367280062,-5497.0247290942,-2655.0887883405,-5457.2971989672,-20392.8651921016,-7874.7387006589,-2241.7034564779,-4629.3584363470,1017.6818268772,-20881.6415734792,11106.7101630719,13332.5469428927,18639.7069307617
561470523835,45173,-2,0,7959.8517399354,10282.4582125890,14092.1275847617,2296.1782351542,-5499.1054052509,-2667.0374666207,-5465.8510898338,-20394.4226572950,-7874.8238745367,-2243.2730893681,-4642.7185674586,1018.2050378406,-20877.8330843736,11110.7255030235,13335.6740409762,18643.5762583514
561470523835,45173,-2,0,7958.7079764340,10279.0390897818,14085.5448607805,2287.6121765909,-5495.5767731722,-2673.4376751495,-5469.2093741569,-20391.1008760623,-7870.4435036804,-2240.9003884876,-4648.4617203590,1023.4371474745,-20869.7050628959,11118.6466736552,13342.4149450161,18651.2175719562
561470523835,45173,-2,0,7958.8539887959,10280.3897041291,14084.8147989711,2289.2061448747,-5493.7029478615,-2666.9279573493,-5464.6221524547,-20390.0787895292,-7868.8130323061,-2239.9878112259,-4641.2219407494,1023.5344890491,-20867.3688651059,11121.3113992595,13344.1670933586,18649.5992682787
561470543550,45174,-2,0,7956.2744370694,10279.2459406278,14089.9617347272,2291.5788457551,-5497.7304555099,-2660.4912457299,-5463.3445442882,-20396.7345196913,-7872.7431983799,-2243.8449711187,-4633.3616086017,1018.3145471120,-20872.7469871016,11114.8016814592,13338.1440834313,18644.7565249432
561470543550,45174,-2,0,7952.4172771766,10276.7758981727,14089.8887285463,2288.9384555446,-5504.6052042148,-2664.6769334370,-5468.4549769539,-20402.9400450710,-7879.8126302341,-2250.3303535254,-4638.5693828419,1011.2086121674,-20878.6483200608,11109.1923732238,13333.4473524576,18641.3008990455
561470543550,45174,-2,0,7950.0202409024,10271.2152607246,14078.7917890437,2281.3579804239,-5511.8571515213,-2680.6774547592,-5477.4712402997,-20403.6579391836,-7883.4021007968,-2256.8765744161,-4653.8276746579,1009.2131098885,-20879.1471956305,11108.4379760208,13333.9097249369,18640.7290172948
561470543550,45174,-2,0,7948.6452911614,10267.7961379174,14068.0598804459,2274.0816977237,-5511.5894621912,-2689.6207119240,-5482.3018159384,-20403.6701068804,-7882.0149833590,-2256.6210527828,-4663.0751242434,1012.7660773608,-20876.0566006375,11111.8449311312,13336.5744505411,18644.1968108893
561470543550,45174,-2,0,7950.7503027118,10272.9187382798,14071.5155063436,2277.8171806484,-5508.4988671982,-2686.9924894103,-5480.4888291118,-20403.8769577264,-7881.5891139702,-2256.1221772131,-4658.4148963602,1011.4276307102,-20876.6163146913,11111.4190617424,13335.3211777683,18642.4446625468
561470543550,45174,-2,0,7952.2956002083,10276.7515627791,14080.4952665990,2284.7771032311,-5514.0230015558,-2680.1785791894,-5478.2013021091,-20407.1987389591,-7886.4561926994,-2260.0766786805,-4649.7393285254,1005.2099376337,-20882.7244984964,11106.0531074435,13328.0935658555,18634.1827964041
561470543550,45174,-2,0,7947.1121613618,10272.8700674925,14082.1014025796,2284.0470414217,-5517.4056212726,-2677.4408474043,-5480.2333074785,-20414.0734876640,-7893.0267489838,-2263.0212613117,-4649.8123347063,998.9679091635,-20887.3603909860,11101.3077056825,13322.2652390773,18629.0966991321
561470543550,45174,-2,0,7943.5226907990,10268.8303921473,14075.3726662365,2276.9897772644,-5520.4962162656,-2687.5765388578,-5485.9764603789,-20414.2560031164,-7894.7423942358,-2262.9725905244,-4660.6780879692,998.6880521366,-20887.4455648637,11101.8552520396,13322.2044005932,18629.0601960416
561470606177,45176,-2,0,7953.3176867415,10281.3266167845,14095.5345398721,2293.7446957896,-5506.9170666112,-2663.7278530848,-5467.6640766604,-20402.0031324157,-7882.2218342050,-2247.0085722927,-4633.1060869684,1009.4321284313,-20879.1228602369,11109.1802055270,13333.0214830688,18630.9826921396
561470606177,45176,-2,0,7951.5290353085,10275.9119916983,14089.9982378177,2288.6951016081,-5508.9490719806,-2672.2330731641,-5472.1661244849,-20403.6336037899,-7884.1564979999,-2250.3303535254,-4644.6653989502,1009.1644391012,-20877.6018981340,11110.8228445981,13335.0778238319,18629.7415870637
561470606177,45176,-2,0,7953.9504069762,10275.8268178205,14082.8679674794,2284.5094139010,-5503.7169623468,-2679.4728527737,-5475.2688871747,-20399.9346239558,-7877.2087431140,-2250.3303535254,-4654.6307426482,1015.1266105444,-20869.8754106514,11119.9972880026,13342.4027773193,18636.3486464385
561470606177,45176,-2,0,7956.6151325805,10278.5523819088,14083.6710354697,2285.4463265564,-5498.5213558034,-2677.2461642551,-5471.7645904897,-20396.1869733343,-7871.6724410595,-2245.1834177693,-4651.1507813569,1018.6674103199,-20865.5193751888,11124.5236712207,13344.9823290458,18638.8430242872
561470606177,45176,-2,0,7957.9292438373,10282.8110757969,14091.6408768888,2291.9073735694,-5499.2270822191,-2668.3515778775,-5466.6419901273,-20397.9512893736,-7872.9013784386,-2248.4930313051,-4642.2196918888,1014.0680209208,-20869.4860443531,11117.5150778507,13339.0444929962,18631.4450646189
561470606177,45176,-2,0,7956.3352755535,10280.7303996402,14094.8166457596,2295.1926517115,-5504.8728935450,-2665.5286722146,-5467.4693935112,-20404.5461810516,-7880.7982136767,-2255.9639971544,-4641.2584438398,1006.2198564700,-20879.2080341146,11107.7444173019,13329.5293540806,18623.3413785348
561470606177,45176,-2,0,7951.6750476704,10275.8024824269,14091.8355600379,2290.7636100680,-5509.3262705821,-2673.9000476288,-5473.0543663530,-20406.5173479370,-7886.1398325820,-2260.1618525583,-4649.8366701000,1005.2586084210,-20883.4788956995,11104.5443130374,13328.1422366428,18623.7794156204
561470606177,45176,-2,0,7955.6052137442,10275.5347930968,14085.3623453281,2288.1962260384,-5505.4082722052,-2681.7238766859,-5473.9791113115,-20398.6570157893,-7879.8978041118,-2256.1708480004,-4656.7357541986,1015.0049335762,-20876.6284823882,11112.0152788867,13336.6961275093,18634.4748211278
561470637546,45177,-2,0,7961.3970374319,10281.4117906622,14086.0559040470,2291.8830381757,-5496.2703318911,-2675.6035251840,-5467.2990457557,-20390.1152926196,-7872.3781674752,-2248.6025405765,-4652.9637681835,1023.7048368046,-20868.5734670914,11118.3424812347,13343.3396899747,18642.1039670358
561470637546,45177,-2,0,7964.2442784885,10284.2590317188,14095.8995707768,2296.7744522985,-5495.4429285072,-2665.3461567623,-5461.1543588601,-20391.4659069670,-7872.0374719642,-2245.0252377106,-4639.3359477418,1021.8796822811,-20871.9439191113,11114.5583275227,13340.9061506101,18641.2278928645
561470637546,45177,-2,0,7963.3803720140,10284.1738578410,14102.3362823961,2302.1647419911,-5501.4294353441,-2660.2357240966,-5460.8866695300,-20394.9702036520,-7877.2209108108,-2247.2762616228,-4633.6171302350,1014.9562627889,-20879.2810402956,11106.8683431306,13334.9804822573,18633.6109146534
561470637546,45177,-2,0,7959.1946843069,10280.5600518846,14098.3452778382,2299.6581964456,-5504.8485581513,-2665.6016783955,-5465.3278788704,-20396.7345196913,-7879.9343072023,-2249.9653226207,-4640.2485250035,1012.4010464561,-20882.0917782617,11106.4546414386,13333.8002156655,18630.0092763938
561470637546,45177,-2,0,7956.3352755535,10275.0602529207,14087.6742077245,2292.7226092565,-5502.9260620533,-2673.4011720591,-5470.2071252964,-20395.8949486105,-7877.3060846885,-2246.0716596373,-4650.8344212395,1016.7935850091,-20877.8087489800,11110.6159937521,13338.9106483311,18635.3995660864
561470637546,45177,-2,0,7957.6007160231,10277.3234445297,14086.6156181009,2292.4427522296,-5499.0323990699,-2675.1654880984,-5468.0777783524,-20389.4095662039,-7871.7454472405,-2241.2410839986,-4648.5712296304,1024.3862278267,-20870.3377831307,11115.9089418701,13345.8097324297,18641.9944577644
561470637546,45177,-2,0,7963.7819060092,10283.2734482761,14096.0820862291,2301.0331461866,-5495.2969161453,-2659.9558670697,-5460.4851355349,-20388.7525105755,-7869.9446281107,-2237.7124519200,-4635.7464771790,1024.8972710932,-20872.4184592874,11114.7286752782,13345.5785461901,18639.2080551919
561470637546,45177,-2,0,7964.4876324249,10282.8840819778,14106.1812745922,2305.8150510380,-5497.9859771432,-2650.3433865796,-5457.0781804244,-20390.9913667909,-7873.4367570988,-2237.5056010740,-4625.6351211192,1021.0279435035,-20876.3972961485,11110.4699813902,13338.9836545120,18633.1728775678
561470712476,45178,-2,0,7960.2411062337,10278.2725248819,14107.2276965190,2302.2134127784,-5501.6606215837,-2653.7746770837,-5460.0227630556,-20395.1527191043,-7876.8437122093,-2239.5254387466,-4630.2101751246,1017.8400069359,-20879.6947419875,11106.8196723433,13336.6961275093,18629.6442454891
561470712476,45178,-2,0,7953.0013266241,10269.6942986217,14091.4096906491,2290.6541007966,-5503.1815836866,-2665.5651753051,-5466.9218471542,-20394.5078311727,-7877.0870661457,-2242.2144997445,-4643.3756230870,1019.6651614594,-20877.0421840801,11110.1414535760,13339.3000146294,18630.6784997190
561470712476,45178,-2,0,7952.4294448734,10268.0029887634,14085.6787054455,2285.2394757104,-5501.0644044394,-2668.9842981123,-5467.3233811494,-20390.7115097640,-7871.6846087563,-2238.8927185118,-4644.4220450138,1023.6074952300,-20872.9295025540,11115.4465693908,13345.7367262488,18636.5676649814
561470712476,45178,-2,0,7954.8021457539,10273.6122969987,14092.0302431871,2292.1385598090,-5500.4073488109,-2661.6228415344,-5460.6798186840,-20390.0666218323,-7872.3416643848,-2236.9823901106,-4634.1281735016,1024.4105632203,-20873.3797073364,11115.5195755717,13346.3086079995,18637.2733913971
561470712476,45178,-2,0,7954.0842516413,10274.5857127446,14097.2988559114,2298.4170913696,-5505.4812783861,-2654.5777450740,-5457.5405529037,-20391.9769502336,-7877.5372709282,-2241.5452764192,-4625.9271458429,1020.6264095084,-20879.7799158653,11108.8273423191,13340.3951073435,18632.3089710933
561470712476,45178,-2,0,7950.5191164722,10272.6267135561,14097.0798373686,2297.8208742253,-5512.8062318735,-2661.1239659647,-5460.9231726205,-20396.8075258723,-7884.3268457554,-2246.2785104833,-4629.9303180977,1016.9639327647,-20884.8660131373,11104.7754992771,13336.0269041841,18630.5811581445
561470712476,45178,-2,0,7947.9273970489,10266.4333558732,14088.8788097100,2290.6541007966,-5513.6092998638,-2673.1578181226,-5467.4085550271,-20396.3208179993,-7884.0226533348,-2248.4686959115,-4643.2296107251,1017.8156715423,-20881.3130456650,11106.6979953751,13338.3265988836,18632.3333064870
561470712476,45178,-2,0,7947.7327138997,10260.8970538188,14079.0716460707,2283.1953026441,-5511.4312821325,-2682.2592553462,-5469.9516036631,-20393.8629432411,-7879.5936116912,-2248.5782051829,-4650.4207195475,1020.7724218703,-20874.3409553854,11112.3681420946,13342.3662742288,18633.0146975091
561470723907,45179,-2,0,7953.3176867415,10269.3657708075,14085.2163329663,2289.2183125715,-5508.2798486554,-2674.4719293795,-5465.4982266259,-20394.3009803267,-7877.7076186837,-2248.2010065813,-4640.9907545097,1021.0644465940,-20874.7911601679,11115.4465693908,13342.6461312557,18636.9570312797
561470723907,45179,-2,0,7951.9062339100,10269.8159755900,14092.0910816712,2294.7789500196,-5512.3316916974,-2666.1492247526,-5463.4783889533,-20399.8251146843,-7882.9397283176,-2250.3911920095,-4634.4080305285,1015.9661816252,-20881.3982195427,11109.3748886761,13336.1242457587,18630.7880089905
561470723907,45179,-2,0,7945.5790315621,10263.9024749340,14089.8765608494,2292.3697460486,-5517.0892611552,-2669.2033166551,-5469.0146910077,-20405.3370813451,-7888.0988317705,-2256.7305620542,-4640.0538418543,1008.3248680204,-20886.7155030544,11105.8219212039,13332.4617690149,18624.8745083345
561470723907,45179,-2,0,7942.0382317866,10258.4513467573,14079.3880061881,2283.9131967567,-5517.4907951503,-2679.4485173801,-5475.6339180794,-20405.7386153403,-7887.3809376579,-2257.8621578588,-4652.3797187360,1009.7119854582,-20884.3549698707,11108.0607774193,13334.5546128685,18626.1886195914
561470723907,45179,-2,0,7941.6245300946,10256.0056396959,14072.0873880943,2277.0627834454,-5512.6723872085,-2684.0479067791,-5477.2278863632,-20402.7818650123,-7880.2993381070,-2251.9243218092,-4657.2833005556,1015.2847906031,-20877.1760287452,11113.7430918356,13340.6506289768,18634.0489517390
561470723907,45179,-2,0,7943.8147155227,10260.4103459458,14071.2113139230,2281.8568559936,-5509.5817922154,-2676.7229532917,-5471.4360626755,-20398.4988357306,-7877.0992338425,-2249.2717639018,-4647.5856461877,1017.9616839042,-20875.0101787107,11115.7507618114,13343.3883607619,18635.7524292942
561470723907,45179,-2,0,7948.3167633472,10266.7497159906,14082.7341228144,2292.2237336868,-5511.7719776436,-2666.3317402049,-5465.0845249339,-20401.9179585379,-7881.2484184592,-2251.2672661807,-4636.7320606217,1014.3113748573,-20878.9038416940,11109.3505532825,13336.1242457587,18629.2548791908
561470723907,45179,-2,0,7945.0679882955,10264.1214934768,14086.3965995581,2290.5689269188,-5519.4741297325,-2668.3515778775,-5469.1850387633,-20406.1888201227,-7887.6364592912,-2254.8080659562,-4638.7518982943,1008.4222095950,-20885.9246027609,11105.2743748468,13333.5325263354,18629.6929162764
561470737630,45180,-2,0,7941.2351637963,10257.4657633147,14076.7232805838,2283.6698428202,-5523.6963205300,-2680.8843056052,-5477.0940416982,-20408.3425024604,-7891.6761346364,-2260.1983556488,-4653.1341159390,1007.8138247538,-20885.2310440420,11106.2112875022,13334.2017496606,18628.5978235623
561470737630,45180,-2,0,7943.0359829261,10257.4535956179,14074.0098841923,2279.5936643845,-5518.5250493803,-2685.6783781534,-5478.0796251408,-20403.1225605234,-7885.7139631932,-2256.3655311495,-4658.5122379348,1013.4109652924,-20878.1494444910,11113.4875702023,13340.0909149229,18633.5257407756
561470737630,45180,-2,0,7949.0224897630,10263.8173010563,14079.0594783738,2283.8523582726,-5513.9864984653,-2677.8423813994,-5472.3121368468,-20397.9756247673,-7880.6887044053,-2250.1113349825,-4651.3454645060,1017.2072867011,-20874.7911601679,11113.5605763832,13340.8574798228,18633.8786039835
561470737630,45180,-2,0,7948.9251481884,10267.6379578587,14087.6012015435,2291.4450010901,-5518.1356830820,-2670.0428877359,-5468.2967968952,-20402.2829894426,-7885.6774601027,-2253.5791285771,-4642.0615118301,1010.9530905341,-20882.5784861346,11105.5663995706,13332.4374336213,18626.0304395327
561470737630,45180,-2,0,7944.6786219972,10263.6712886944,14087.2240029420,2291.5788457551,-5524.5723947013,-2670.2132354914,-5472.4581492086,-20408.5980240937,-7893.3674444948,-2259.2249399029,-4644.8600820994,1003.5064600785,-20890.9741969424,11097.4505457897,13325.7208649750,18619.0096784658
561470737630,45180,-2,0,7937.2563269352,10255.2877455834,14079.5096831563,2281.7838498127,-5529.9018459097,-2682.5391123731,-5481.2918971021,-20412.5038547739,-7897.4801260210,-2262.2668641087,-4658.3783932697,1001.8759887042,-20894.3446489624,11094.6154724299,13324.5892691705,18619.8127464562
561470737630,45180,-2,0,7936.6601097908,10254.5698514708,14072.6714375418,2276.5152370883,-5525.0591025742,-2689.5112026526,-5483.3725732588,-20408.1113162208,-7891.6883023333,-2259.9671694091,-4664.9367818573,1008.1666879617,-20888.5528252746,11101.7579104650,13330.7947945502,18627.3080476991
561470737630,45180,-2,0,7943.2550014689,10259.9966442539,14075.4091693270,2280.9321110351,-5518.0383415074,-2683.3300126666,-5475.8286012286,-20400.7498596429,-7884.7770505378,-2252.7760605868,-4656.8939342573,1013.2527852337,-20883.4788956995,11108.3406344462,13335.8930595190,18630.4229780858
561470756918,45181,-2,0,7948.5722849805,10264.1701642641,14087.6742077245,2289.4129957207,-5517.7098136932,-2670.3470801565,-5467.9195982937,-20401.5164245427,-7884.8622244156,-2249.5881240192,-4641.3071146271,1011.3302891356,-20888.2242974604,11105.0675240008,13333.0944892497,18629.6320777923
561470756918,45181,-2,0,7950.2635948389,10264.7785491053,14094.0865839502,2293.7325280928,-5519.6201420944,-2665.9910446939,-5466.7028286114,-20403.5849330026,-7888.8045581862,-2251.6444647822,-4636.4035328075,1008.2396941426,-20890.9376938519,11101.9404259173,13329.6997018361,18625.3247131170
561470756918,45181,-2,0,7947.0999936649,10260.8240476378,14087.5768661499,2287.9042013146,-5521.7494890384,-2675.0073080397,-5471.6307458247,-20406.1279816386,-7890.6053773160,-2255.1365937704,-4646.7339074101,1006.9864213699,-20890.0616196807,11101.1738610175,13329.2616647505,18624.6554897917
561470756918,45181,-2,0,7944.7759635717,10257.1250678036,14079.2663292198,2280.0560368638,-5521.4209612242,-2686.4327753564,-5476.8628554585,-20404.5218456580,-7885.7504662837,-2254.0293333595,-4657.0399466192,1009.5294700059,-20885.6690811276,11103.4613880202,13334.3112589320,18628.6829974401
561470756918,45181,-2,0,7944.5447773321,10257.9038004003,14077.3073300313,2277.9145222230,-5517.8071552677,-2685.7757197280,-5475.8529366222,-20403.1468959170,-7883.7671317015,-2253.4209485184,-4655.6163260909,1011.8291647054,-20884.0142743597,11106.9656847052,13337.0854938077,18631.8465986141
561470756918,45181,-2,0,7943.8755540069,10257.6239433734,14082.6611166334,2282.9276133140,-5518.8779125882,-2676.5647732330,-5471.4969011596,-20404.4853425675,-7883.4507715841,-2253.5426254866,-4643.9475048377,1009.8945009105,-20884.1602867216,11106.3329644704,13333.8245510591,18626.7361659484
561470756918,45181,-2,0,7942.6466166277,10257.9403034908,14091.0203243508,2285.9695375198,-5518.5372170771,-2667.5241744936,-5469.3553865188,-20408.1964900985,-7884.0226533348,-2252.3745265916,-4636.9997499518,1006.6822289493,-20885.9611058513,11106.9413493116,13332.5591105895,18624.8015021536
561470756918,45181,-2,0,7939.0693137618,10252.0998090158,14088.4529403212,2280.7982663700,-5519.2429434928,-2672.3790855259,-5472.5919938737,-20408.5858563969,-7883.9131440634,-2253.6034639707,-4645.0304298549,1006.4632104065,-20884.6469945945,11106.9535170084,13333.8367187559,18625.9817687454
561470789896,45182,-2,0,7938.0593949255,10250.1773129177,14079.5340185499,2274.8847657141,-5514.6557217906,-2680.0082314339,-5476.1206259523,-20404.8260380786,-7880.4940212561,-2251.6931355695,-4653.9858547166,1012.0116801577,-20878.0155998260,11111.6745833757,13338.5212820328,18631.2017106824
561470789896,45182,-2,0,7943.5591938895,10256.7843722926,14080.1180679974,2276.4057278169,-5511.4677852230,-2679.4363496832,-5473.3828941672,-20401.8571200538,-7876.2961658522,-2248.8215591193,-4651.3332968092,1017.0491066424,-20875.5577250677,11115.6534202368,13342.1350879892,18635.2657214213
561470789896,45182,-2,0,7944.9828144177,10259.5951102587,14085.5083576900,2281.4309866048,-5514.8139018493,-2672.2939116482,-5468.6009893158,-20403.1347282202,-7881.3822631242,-2250.2573473444,-4642.4752135221,1012.7539096639,-20881.5198965110,11109.8980996395,13336.9516491426,18630.9461890492
561470789896,45182,-2,0,7939.8845494489,10257.4535956179,14087.6985431181,2282.1123776269,-5522.9540910238,-2669.3858321075,-5470.7546716534,-20411.2262466074,-7889.3886076337,-2257.8864932524,-4640.9420837224,1004.0175033451,-20890.1102904680,11101.9404259173,13329.4320125060,18623.4265524126
561470789896,45182,-2,0,7935.6258555609,10252.6230199792,14085.7395439296,2277.5981621056,-5526.2272014692,-2674.9221341619,-5477.2157186664,-20415.1320772876,-7893.5377922503,-2261.8531624167,-4651.3089614156,1000.2576850268,-20894.7583506543,11098.2292783863,13326.1345666670,18620.7131560211
561470789896,45182,-2,0,7936.1612342211,10248.6198477244,14076.7719513711,2269.6039852929,-5524.5480593076,-2685.5810365788,-5482.8493622954,-20414.0978230577,-7891.3111037317,-2262.2060256246,-4663.5253290258,1003.3726154134,-20889.4654025364,11100.7966624160,13331.2206639390,18625.3490485106
561470789896,45182,-2,0,7941.2594991899,10252.0511382285,14074.9832999382,2271.9280153861,-5519.0482603437,-2686.9073155325,-5482.1679712733,-20408.3546701572,-7885.9573171296,-2259.6386415949,-4664.8394402827,1008.6655635314,-20881.4225549364,11105.0188532135,13334.7371283208,18627.4783954546
561470789896,45182,-2,0,7943.9485601878,10259.4977686841,14080.7751236259,2279.7518444432,-5520.7517378989,-2679.3025050182,-5477.2765571505,-20409.1455704507,-7888.0744963768,-2258.9207474824,-4654.2170409563,1008.0085079030,-20885.7299196117,11104.3009591010,13332.5956136800,18627.0646937626
561470867655,45184,-2,0,7938.9963075809,10254.1804851725,14076.2609081046,2272.4390586526,-5518.8779125882,-2688.4039422417,-5484.1878089459,-20409.3037505094,-7883.0735729826,-2251.6688001759,-4661.8096837738,1009.4199607344,-20884.9025162278,11105.5663995706,13334.9439791668,18629.9484379097
561470867655,45184,-2,0,7945.5546961684,10263.2697546992,14084.2915880077,2280.8956079446,-5516.9067457028,-2678.8644679326,-5478.6028361042,-20406.4565094529,-7880.6887044053,-2248.2983481559,-4650.8465889363,1011.4032953166,-20883.1260324916,11107.9634358447,13336.3189289078,18631.2625491665
561470867655,45184,-2,0,7948.0369063203,10268.4166904553,14093.5877083804,2288.1962260384,-5520.8612471703,-2671.2353220246,-5474.8916885732,-20409.6201106268,-7884.8743921124,-2252.3015204107,-4640.9299160256,1006.9255828857,-20886.3383044529,11107.4645602749,13332.1697442912,18625.9939364422
561470867655,45184,-2,0,7942.9873121388,10264.6203690466,14090.9594858667,2287.0524625370,-5525.8378351709,-2674.5936063477,-5476.7533461871,-20412.0658176882,-7892.4183641426,-2257.6553070128,-4645.5049700310,1004.1878511006,-20890.9498615488,11104.3739652819,13330.9651423057,18622.1611119430
561470867655,45184,-2,0,7938.4365935270,10258.4391790605,14082.8071289953,2277.8171806484,-5528.1862006577,-2685.6540427598,-5481.8881142464,-20412.2848362310,-7892.8320658346,-2260.3565357075,-4658.0011946682,1005.3194469051,-20890.1346258616,11103.9724312868,13330.8191299438,18624.4851420362
561470867655,45184,-2,0,7937.7673702017,10256.1151489673,14074.7764490922,2272.6215741050,-5524.7792455473,-2692.2854375283,-5482.9953746573,-20407.6854468320,-7889.8753155066,-2261.0865975168,-4664.9732849477,1009.9310040010,-20885.6934165212,11108.5718206858,13336.8543075680,18629.9241025160
561470867655,45184,-2,0,7940.5294373805,10258.5486883319,14075.9445479872,2275.8946845504,-5522.7715755715,-2686.4327753564,-5477.5199110870,-20406.6633602988,-7889.5346199956,-2260.6363927344,-4655.4946491227,1011.3059537420,-20885.1702055579,11107.7565849987,13337.0733261108,18630.3256365112
561470867655,45184,-2,0,7939.7993755712,10260.3738428554,14083.4641846237,2280.2993908003,-5528.3565484132,-2679.3755111991,-5476.1692967396,-20413.7327921530,-7895.9591639181,-2263.2524475513,-4648.1210248480,1003.0684229929,-20893.4807424879,11101.2346995016,13328.7992922712,18623.0493538111
561470891272,45185,-2,0,7937.6578609303,10258.3418374859,14085.1311590885,2279.9100245019,-5533.9901920423,-2680.8234671211,-5479.2112209454,-20418.5025293076,-7901.8361614836,-2268.5818987598,-4651.4063029902,997.1792577306,-20898.4208273980,11096.7934901612,13322.9953008867,18618.8880014976
561470891272,45185,-2,0,7938.7772890380,10256.2489936324,14081.5660239194,2279.6545028687,-5532.1285344283,-2687.1628371658,-5481.2675617084,-20415.2780896495,-7898.2466909208,-2264.9437574097,-4659.6194983456,1002.1315103375,-20893.2860593388,11100.4437992081,13325.0394739530,18622.3679627890
561470891272,45185,-2,0,7946.4429380365,10261.9434757455,14081.9432225209,2280.9807818224,-5521.2749488623,-2686.8708124421,-5477.6902588425,-20405.7507830371,-7887.3079314770,-2254.8810721371,-4660.9701126930,1011.1356059865,-20884.6226592008,11108.7056653509,13333.1674954307,18631.0070275333
561470891272,45185,-2,0,7954.5709595142,10271.8114778689,14087.9905678419,2288.1840583415,-5514.6435540938,-2678.2317476978,-5469.7569205139,-20399.7277731098,-7880.8347167672,-2248.1280004004,-4649.6419869508,1016.9517650678,-20881.9701012934,11109.4478948571,13335.6132024921,18635.3995660864
561470891272,45185,-2,0,7956.9801634852,10277.6398046471,14097.9315761462,2295.8740427336,-5516.1766838935,-2666.3195725081,-5463.8190844643,-20399.2410652368,-7883.0492375890,-2247.9333172512,-4636.2210173551,1015.0049335762,-20886.3626398465,11105.0553563040,13332.5834459832,18633.4405668979
561470891272,45185,-2,0,7959.5353798180,10279.8299900753,14105.3660389050,2301.2156616389,-5517.7463167836,-2662.7301019453,-5462.6996563566,-20402.5385110759,-7885.7382985868,-2248.7485529384,-4633.2642670271,1011.3059537420,-20891.8137680232,11099.8840851543,13329.0913169950,18629.7294193669
561470891272,45185,-2,0,7960.9468326494,10279.7934869848,14102.7864871786,2296.7744522985,-5517.4664597567,-2670.1523970073,-5467.0921949097,-20401.6989399951,-7883.6211193396,-2248.4321928210,-4642.8159090332,1013.9098408621,-20889.5262410205,11103.6560711694,13331.6587010246,18631.0191952301
561470891272,45185,-2,0,7966.8968363959,10282.0688462907,14098.0410854176,2297.8452096190,-5510.2510155407,-2673.7905383574,-5465.2305372958,-20394.7876881996,-7874.8968807176,-2242.5308598619,-4649.1917821684,1021.5268190733,-20879.0498540559,11110.4213106029,13336.9029783553,18634.8398520325
561470917660,45186,-2,0,7976.2051244654,10293.2509596710,14107.6779013014,2306.6059513315,-5502.5001926645,-2666.7332742001,-5457.6378944783,-20388.6064982136,-7867.9734612253,-2235.5100987950,-4639.8834940988,1026.2843885310,-20875.0953525885,11116.2983081684,13340.3464365562,18638.2103040524
561470917660,45186,-2,0,7984.1262950971,10301.4154842392,14123.5689133522,2317.2283506579,-5500.7358766252,-2654.1762110788,-5449.8140654211,-20387.7669271328,-7869.0320508489,-2233.2225717923,-4626.7423815300,1025.2623019979,-20877.7844135863,11113.7187564419,13337.5600339838,18636.0201186243
561470917660,45186,-2,0,7986.7788530045,10303.9220297847,14130.9182022332,2321.8642431474,-5502.5488634518,-2649.6133247702,-5447.5630415089,-20389.7989325022,-7872.8648753482,-2235.4005895236,-4623.8099665957,1022.5854086969,-20881.8849274157,11109.1802055270,13334.3964328098,18631.4694000125
561470917660,45186,-2,0,7990.4291620514,10304.3722345671,14129.5675878859,2318.2382694942,-5506.5520357065,-2659.1893021699,-5454.9244980868,-20394.8363589869,-7876.7828737251,-2239.4646002625,-4635.7708125727,1019.3974721293,-20884.5983238072,11105.8462565975,13332.3279243499,18630.2891334207
561470917660,45186,-2,0,7996.7806997930,10308.8012762107,14124.0434535283,2314.5149542664,-5507.1604205477,-2672.4520917069,-5462.4806378138,-20393.8629432411,-7876.0284765221,-2241.3262578764,-4648.4495526622,1022.0743654303,-20882.4446414695,11108.6326591700,13335.7470471571,18632.8686851472
561470917660,45186,-2,0,8013.5842891055,10325.1911638312,14131.1007176856,2324.7479872945,-5503.1085775056,-2671.0406388754,-5458.7694902828,-20388.5699951231,-7872.1226458420,-2240.4623514020,-4644.4585481043,1026.4060654993,-20879.0498540559,11111.3582232583,13338.7037974851,18635.2657214213
561470917660,45186,-2,0,8027.6379789360,10341.7879022977,14148.1354932377,2340.3226392278,-5501.5876154028,-2659.1406313826,-5452.1259278175,-20387.3288900472,-7872.5850183212,-2238.6615322722,-4630.8915661467,1025.2866373916,-20881.2157040904,11105.9192627784,13333.5325263354,18631.0922014110
561470917660,45186,-2,0,8034.0625228585,10349.1858619660,14158.6362155959,2347.5137480502,-5506.9900727921,-2653.5799939345,-5450.9578289225,-20391.2468884242,-7878.6810344295,-2241.9224750207,-4626.2921767476,1020.4073909656,-20888.6623345460,11102.5244753648,13330.1620743154,18630.3621396017
561470951385,45187,-2,0,8041.7890103411,10353.2377050081,14161.8241521635,2348.3898222215,-5507.7931407825,-2658.1428802431,-5453.2818590157,-20391.1252114559,-7880.3723442879,-2244.9765669233,-4634.7122229491,1021.7336699193,-20889.3072224777,11103.0963571155,13331.1963285454,18631.4207292253
561470951385,45187,-2,0,8053.7741917117,10358.0561129500,14160.8750718113,2349.1198840308,-5501.6119507964,-2663.9468716276,-5455.5572183216,-20384.9561891667,-7873.5949371575,-2240.9125561844,-4641.7816548032,1027.7445121498,-20881.3982195427,11110.1657889696,13339.4338592945,18641.1548866836
561470951385,45187,-2,0,8071.4781905890,10372.2558151423,14169.5506396461,2356.2014835818,-5492.2549919396,-2658.7512650842,-5451.0551704971,-20379.4320548091,-7865.1140524719,-2236.2644959980,-4638.5572151451,1033.2321434169,-20875.4482157963,11116.5781651953,13345.0553352267,18647.8106168458
561470951385,45187,-2,0,8086.4566253781,10389.0472367580,14185.1496269731,2370.9122290407,-5490.4055020225,-2647.0824438310,-5443.6207077383,-20379.0305208139,-7865.1018847751,-2235.8872973965,-4625.5377795446,1032.1248830061,-20875.9470913661,11114.8625199433,13343.0354975541,18645.2554005129
561470951385,45187,-2,0,8088.4886307475,10395.5326191646,14194.0685487443,2380.0988401420,-5493.5447678028,-2640.0130119769,-5440.2259203247,-20381.6344079340,-7868.9833800616,-2236.6295269027,-4619.3444218617,1028.4745739592,-20880.4248037969,11109.5452364317,13337.7182140425,18642.6150103024
561470951385,45187,-2,0,8085.8725759306,10392.5271980493,14194.3970765585,2377.8599839266,-5497.5236046639,-2647.1189469215,-5445.9204024378,-20385.1387046191,-7872.0131365706,-2240.6083637638,-4626.6085368650,1024.7512587314,-20882.3107968045,11105.6150703579,13334.6519544431,18640.0111231822
561470951385,45187,-2,0,8085.8239051433,10389.8624724451,14185.2226331540,2369.4642731188,-5495.1387360866,-2657.4493215242,-5450.1790963258,-20383.4960655480,-7868.3628275237,-2239.8174634703,-4638.8127367784,1029.5818343701,-20877.1760287452,11109.1558701333,13338.4604435487,18644.3793263417
561470951385,45187,-2,0,8091.9320889484,10391.9431486018,14183.1541246941,2369.1357453046,-5486.8647022470,-2655.3199745802,-5447.6117122962,-20378.7871668775,-7860.8188554934,-2231.4339203593,-4634.9555768855,1035.4588319355,-20872.5766393461,11116.3104758652,13343.6317146984,18648.7475295011
561470973940,45188,-2,0,8097.8942603917,10398.4528664021,14195.4921692726,2378.1885117408,-5482.3504867257,-2641.8868372876,-5438.1330764711,-20376.2319505447,-7856.2316337912,-2224.3523208084,-4618.2979999349,1036.8946201606,-20872.7713224953,11116.2739727748,13343.6073793048,18648.4676724742
561470973940,45188,-2,0,8092.2362813690,10396.6155441819,14198.5340934783,2382.6053856876,-5482.9710392637,-2632.0066674674,-5434.3367550624,-20377.7772480412,-7857.8377697718,-2223.8169421482,-4609.3304073764,1034.5705900675,-20875.0345141043,11113.6457502610,13340.7966413387,18643.3694075054
561470973940,45188,-2,0,8081.6625528298,10387.7939639852,14191.4403262305,2373.9906563369,-5484.7231876062,-2635.6204734238,-5438.4981073758,-20381.3180478167,-7860.0157875031,-2226.5425062365,-4615.2074049419,1032.0762122188,-20876.9205071119,11113.0008623294,13340.9548213974,18641.1548866836
561470973940,45188,-2,0,8076.6737971324,10380.5785197692,14183.3609755401,2363.7941263993,-5482.8006915081,-2645.0626061584,-5443.0244905939,-20380.0647750439,-7856.3289753658,-2224.0481283878,-4626.3408475349,1034.9842917594,-20872.0777637764,11117.4299039729,13345.4690369187,18647.0075488554
561470973940,45188,-2,0,8072.3299293667,10373.6307648833,14174.3203768007,2357.6129364132,-5480.1237982071,-2647.3014623738,-5442.6716273861,-20375.7817457622,-7852.1432876587,-2221.9917876247,-4628.2025051488,1039.9730474569,-20866.5779648124,11120.2893127263,13351.3095313937,18652.2153230957
561470973940,45188,-2,0,8067.8035461485,10371.8664488440,14173.8336689277,2359.7301156604,-5481.8637788528,-2641.7164895321,-5438.8996413710,-20376.2197828478,-7854.0536160599,-2222.5028308913,-4617.6652797001,1039.2429856475,-20869.6442244118,11119.8026048534,13350.1657678923,18650.5970194182
561470973940,45188,-2,0,8061.1113128959,10369.0800462715,14179.4064740726,2362.0054749663,-5490.1256449955,-2637.4091248568,-5438.8509705837,-20381.1963708484,-7862.2424760217,-2226.1774753318,-4611.2529034744,1032.8549448154,-20877.4315503785,11115.9576126574,13344.5564596569,18644.1846431925
561470973940,45188,-2,0,8048.3352312318,10359.2485472386,14171.4609680473,2354.6318506916,-5495.8566301992,-2643.8093333857,-5443.3286830145,-20385.3698908587,-7868.1681443745,-2231.2635726038,-4617.4462611573,1029.3993189177,-20880.4978099778,11114.9841969115,13343.1571745223,18642.5420041214
561471067764,45190,-2,0,8002.2318279697,10313.7291934240,14136.9533798574,2319.3455299051,-5502.3298449090,-2654.6872543454,-5455.4963798375,-20393.5952539110,-7873.4002540084,-2240.9247238812,-4628.2633436329,1022.1473716112,-20884.2576282961,11109.4235594634,13338.9714868152,18642.2986501850
561471067764,45190,-2,0,7993.4589185603,10306.7327677508,14134.2643188595,2315.5005377090,-5509.3871090663,-2657.6926754606,-5460.2417815984,-20398.6326803957,-7881.3335923369,-2247.8846464640,-4633.2155962399,1015.5281445396,-20889.2707193872,11104.5443130374,13333.0214830688,18636.7501804337
561471067764,45190,-2,0,7981.5102402802,10295.6479959451,14119.7604242466,2304.4644366906,-5511.5286237071,-2670.3714155501,-5469.2215418537,-20400.8106981270,-7880.9442260386,-2249.8923164397,-4645.9795102071,1014.2627040700,-20888.1877943699,11106.0166043530,13334.4086005066,18637.2003852161
561471067764,45190,-2,0,7977.6044096000,10290.1481969811,14107.8604167537,2295.4481733448,-5507.2699298191,-2676.5769409298,-5471.2778826168,-20397.3672399261,-7875.3349178032,-2245.3902686152,-4651.4428060806,1021.1739558654,-20879.8529220462,11113.7187564419,13340.6749643704,18644.8173634273
561471067764,45190,-2,0,7981.6197495516,10293.4699782138,14108.5904785631,2300.1084012280,-5502.4515218772,-2668.9599627187,-5465.6564066846,-20393.3762353682,-7869.3240755727,-2240.6448668543,-4641.9641702556,1025.2257989074,-20873.4162104269,11117.2838916111,13340.2855980721,18641.7632715247
561471067764,45190,-2,0,7977.6530803873,10291.6569913872,14114.0051036493,2303.2720024020,-5506.8927312176,-2660.3695687617,-5462.9186748994,-20397.8904508895,-7873.4610924925,-2240.1216558909,-4631.2809324450,1020.1397016355,-20878.6604877576,11111.8205957376,13338.4969466391,18640.5465018425
561471067764,45190,-2,0,7971.3258780394,10286.6925710834,14115.1123640602,2300.7654568565,-5511.6016298880,-2661.5133322630,-5464.0502707040,-20403.8161192423,-7879.7152886595,-2244.4533559599,-4631.7919757116,1014.6033995810,-20884.8295100468,11106.7953369497,13333.3621785798,18635.3265599054
561471067764,45190,-2,0,7966.7751594276,10281.2779459972,14107.8604167537,2294.1218943911,-5509.7521399710,-2669.6170183471,-5469.1242002791,-20403.4754237312,-7879.1555746056,-2245.2564239502,-4642.0006733460,1015.3212936936,-20882.5054799536,11109.4722302507,13336.3189289078,18637.3585652748
561471075620,45191,-2,0,7965.2298619311,10277.7493139185,14099.8419045474,2288.7559400922,-5503.1937513834,-2672.8901287925,-5469.8907651790,-20398.5961773052,-7871.4047517294,-2240.9125561844,-4647.5613107941,1021.4294774987,-20875.6794020360,11117.1865500365,13343.6438823952,18645.7786114763
561471075620,45191,-2,0,7964.4998001217,10280.9615858798,14100.7179787187,2290.8731193394,-5500.6263673537,-2667.4268329190,-5465.4860589291,-20393.9724525125,-7867.9369581349,-2238.0288120374,-4640.9177483288,1025.6881713867,-20872.9660056444,11120.0216233962,13345.4081984346,18648.2608216282
561471075620,45191,-2,0,7964.4876324249,10281.2292752099,14106.8748333111,2294.1705651784,-5502.2690064248,-2656.9991167417,-5459.6820675445,-20396.5641719358,-7871.9644657833,-2238.8927185118,-4629.9546534913,1021.4781482860,-20876.4094638453,11116.0914573224,13341.1860076370,18644.1238047084
561471075620,45191,-2,0,7959.7543983608,10275.1210914048,14107.3007026999,2293.1728140389,-5509.2289290076,-2657.3519799496,-5461.3368743125,-20401.6867722983,-7878.1213203757,-2241.9589781112,-4629.0299085328,1014.1166917081,-20882.3959706822,11111.3703909551,13336.2580904237,18638.3076456270
561471075620,45191,-2,0,7953.5853760716,10268.7087151791,14100.0365876966,2284.2295568741,-5513.2686043528,-2668.4245840585,-5469.0511940982,-20405.5317644943,-7880.8712198577,-2245.0860761947,-4640.0416741575,1014.7372442461,-20883.1382001884,11111.6015771947,13338.2900957931,18639.4149060379
561471075620,45191,-2,0,7950.6529611372,10262.7708791295,14085.7882147169,2273.7410022127,-5511.2122635897,-2678.0005614581,-5473.3707264704,-20402.3924987140,-7876.8072091188,-2242.8228845856,-4648.4130495717,1021.3929744082,-20878.0277675228,11117.0770407651,13345.6393846742,18644.8173634273
561471075620,45191,-2,0,7950.9328181642,10265.5694493988,14082.8679674794,2274.2642131761,-5507.9878239316,-2673.9852215066,-5469.0633617950,-20397.9147862831,-7871.9401303896,-2239.2334140228,-4642.3900396444,1025.7003390835,-20876.7136562659,11120.3988219977,13349.3018614179,18648.9787157408
561471075620,45191,-2,0,7952.6362957194,10271.6167947198,14095.4737013880,2283.5846689425,-5507.3794390905,-2661.5498353535,-5461.3733774029,-20397.6836000435,-7873.4610924925,-2237.4082594994,-4627.7644680632,1024.7755941250,-20882.0431074744,11116.0184511415,13345.3960307377,18646.5086732857
561471102190,45192,-2,0,7951.6750476704,10273.4541169400,14101.4967113153,2290.7027715839,-5510.2631832375,-2656.6705889275,-5459.0615150066,-20399.7764438971,-7876.9288860870,-2238.7467061499,-4622.8730539404,1021.7336699193,-20884.6834976849,11112.5749929406,13341.4293615735,18642.3473209723
561471102190,45192,-2,0,7949.4118560613,10269.1832553552,14096.5444587084,2286.5900900577,-5512.8305672672,-2662.5840895835,-5462.9308425963,-20400.7133565524,-7879.1799099993,-2240.2798359496,-4631.9258203766,1020.8940988385,-20884.9876901055,11112.4168128819,13340.7966413387,18641.2400605614
561471102190,45192,-2,0,7945.3235099288,10262.9898976723,14089.5358653384,2278.4255654895,-5508.8638981029,-2671.8923776530,-5466.9461825478,-20397.7687739213,-7874.4831790256,-2237.5786072549,-4640.8569098447,1025.0676188487,-20878.9646801782,11118.1721334791,13347.4523715008,18647.4577536379
561471102190,45192,-2,0,7947.5136953569,10264.1336611737,14086.7981335532,2278.0605345848,-5502.5245280581,-2669.8360368899,-5463.5878982247,-20393.0477075540,-7868.3384921300,-2233.4294226383,-4637.5837993993,1029.7156790351,-20871.4328758448,11125.1320560619,13354.4853002645,18652.6046893940
561471102190,45192,-2,0,7951.1518367070,10267.7596348269,14096.2159308942,2285.8235251579,-5502.7557142978,-2658.7999358715,-5458.1854408353,-20393.6439246983,-7869.6404356901,-2234.9260493475,-4624.9780654907,1027.3308104578,-20873.3797073364,11123.5745908685,13350.4334572224,18649.6966098533
561471102190,45192,-2,0,7947.1121613618,10267.4554424063,14101.4480405281,2288.2813999161,-5508.9734073743,-2656.6219181402,-5460.4973032317,-20399.6182638384,-7877.4277616568,-2240.0608174068,-4623.4571033879,1018.8864288627,-20881.2765425745,11114.8746876401,13343.4735346397,18644.9390403955
561471102190,45192,-2,0,7941.1864930090,10260.1669920094,14093.1375035980,2281.1389618811,-5516.1401808030,-2668.7896149632,-5468.0656106556,-20405.5804352816,-7885.0569075647,-2247.9941557354,-4636.0871726901,1014.8710889111,-20885.5960749467,11110.8471799917,13340.9426537005,18643.7952768942
561471102190,45192,-2,0,7938.1689041969,10255.1295655247,14080.3735896307,2271.0397735180,-5517.7828198741,-2681.2006657226,-5475.5244088080,-20405.1789012864,-7884.3511811490,-2250.6588813396,-4650.0313532492,1018.1685347501,-20883.1990386725,11113.5727440801,13345.4690369187,18649.8791253057
561471132250,45193,-2,0,7939.7142016934,10257.6117756766,14079.2663292198,2269.2632897819,-5512.7088902989,-2681.0911564512,-5473.0908694434,-20399.7156054129,-7879.4841024198,-2245.3415978280,-4648.6199004177,1023.0721165698,-20878.3562953370,11118.2451396601,13351.0296743668,18656.3645077123
561471132250,45193,-2,0,7942.6952874150,10261.1890785425,14086.4696057390,2275.6878337044,-5512.4290332720,-2670.8581234231,-5467.9195982937,-20400.2266486795,-7880.2384996229,-2245.0860761947,-4637.3769485533,1020.9914404131,-20880.3152945255,11118.2694750537,13348.9611659069,18653.8214590763
561471132250,45193,-2,0,7941.5028531264,10263.0750715501,14092.7116342092,2280.7739309764,-5516.0185038348,-2664.7864427084,-5467.1286980002,-20406.6633602988,-7886.0424910074,-2249.3569377795,-4632.0353296480,1016.1365293807,-20887.5307387415,11111.2122108964,13342.2080941701,18646.8858718872
561471132250,45193,-2,0,7935.4190047149,10258.3175020923,14089.5723684289,2277.3913112596,-5521.5426381924,-2671.5760175356,-5471.3022180105,-20410.0094769251,-7888.9992413354,-2252.3258558043,-4638.8735752625,1011.9143385831,-20890.7430107028,11107.7565849987,13341.4536969671,18645.9489592318
561471132250,45193,-2,0,7933.1436454090,10254.0466405074,14081.3713407702,2270.3097117086,-5517.5638013313,-2680.3124238545,-5473.0543663530,-20405.6291060689,-7884.7892182346,-2250.1356703762,-4648.0845217575,1018.1076962660,-20883.8317589073,11115.3492278162,13348.7664827577,18652.6411924845
561471132250,45193,-2,0,7937.6091901430,10257.7942911289,14079.0108075866,2271.5873198750,-5511.6137975849,-2681.2250011162,-5468.9173494332,-20397.2212275642,-7877.1965754171,-2244.2951759012,-4644.5558896788,1026.9901149468,-20877.5897304372,11124.6210127953,13356.7241564799,18660.5501954194
561471132250,45193,-2,0,7942.3180888135,10263.5496117262,14088.7571327417,2279.5814966877,-5506.2235078923,-2666.9522927429,-5459.7915768160,-20393.6195893046,-7874.6291913875,-2238.4911845166,-4629.3097655597,1028.9004433480,-20875.4117127059,11123.0392122083,13355.1058528024,18659.6132827640
561471132250,45193,-2,0,7944.9341436304,10270.2418449788,14099.5620475205,2288.2692322193,-5508.5110348950,-2658.0820417590,-5456.2021062532,-20395.6150915836,-7876.6125259696,-2239.5497741402,-4621.8266320136,1025.0554511519,-20879.0011832686,11121.1410515039,13352.9400027680,18657.0093956439
561471220688,45195,-2,0,7942.5979458404,10267.1390822889,14090.7648027175,2282.1853838078,-5505.3961045083,-2668.3880809680,-5463.7217428898,-20393.3032291873,-7873.8626264876,-2239.8174634703,-4633.8726518683,1028.2920585068,-20875.3752096154,11124.5480066144,13355.1301881961,18661.7669651017
561471220688,45195,-2,0,7941.3203376740,10266.3846850859,14094.2690994025,2285.5923389182,-5509.8494815455,-2659.9071962824,-5461.3855450998,-20397.6836000435,-7878.1699911630,-2244.4898590503,-4625.7446303906,1022.3907255477,-20883.0165232202,11118.8170214108,13346.9291605374,18654.5271854920
561471220688,45195,-2,0,7933.7641979470,10260.9822276965,14092.7359696028,2280.5305770399,-5516.1158454093,-2663.9955424149,-5466.3986361908,-20404.4366717802,-7885.0690752616,-2248.4078574273,-4629.6261256771,1016.3312125299,-20889.5870795046,11110.6159937521,13341.5510385417,18649.4289205232
561471220688,45195,-2,0,7932.9002914726,10256.9790554418,14086.5426119200,2275.6756660076,-5513.0495858100,-2670.8216203326,-5469.6717466362,-20401.1757290317,-7879.7639594468,-2245.7187964295,-4638.0948426659,1021.3443036209,-20885.4500625848,11115.6412525400,13346.4789557550,18655.3059180887
561471220688,45195,-2,0,7937.7430348081,10259.7654580142,14082.6124458461,2275.7608398853,-5503.6804592563,-2670.8946265135,-5465.1696988117,-20391.3685653924,-7869.7499449615,-2238.2599982770,-4638.0948426659,1031.6138397395,-20874.6938185933,11124.6088450985,13355.3370390421,18664.3586845250
561471220688,45195,-2,0,7945.0923236891,10270.0593295264,14092.9914912361,2284.4485754169,-5497.3167538179,-2662.1217171042,-5457.5648882974,-20386.8178467806,-7864.4569968435,-2232.4681745893,-4627.0100708602,1035.1059687277,-20869.8510752578,11124.5723420080,13355.5195544944,18664.7602185201
561471220688,45195,-2,0,7948.0855771076,10275.3522776444,14103.8572444990,2293.0998078580,-5500.4195165078,-2651.9008517729,-5452.5883002968,-20389.8354355927,-7867.5475918365,-2234.2324906286,-4616.9352178908,1030.3240638763,-20877.4315503785,11121.9806225847,13350.7863204303,18663.8233058647
561471220688,45195,-2,0,7942.7804612928,10269.5604539567,14102.7986548754,2289.4616665079,-5505.7124646257,-2653.4826523599,-5456.0804292850,-20396.9170351437,-7875.7972902825,-2241.4114317541,-4621.3764272311,1023.4493151713,-20886.2896336656,11112.5506575469,13342.2324295638,18655.3180857855
561471230065,45196,-2,0,7936.8669606368,10261.9069726551,14095.6927199308,2280.9077756414,-5510.2023447534,-2665.4313306400,-5463.1133580486,-20399.1315559654,-7878.2551650407,-2244.8183868646,-4634.0916704111,1022.8896011174,-20889.8547688347,11107.2942125194,13340.2490949816,18655.1720734236
561471230065,45196,-2,0,7935.6988617418,10259.6194456523,14088.1122448101,2274.5562378998,-5504.5808688212,-2671.2353220246,-5464.6951586356,-20393.7169308792,-7872.3781674752,-2240.6935376416,-4640.4188727590,1028.4989093528,-20885.8637642768,11111.5529064075,13345.9070740043,18660.6718723876
561471230065,45196,-2,0,7939.3248353951,10264.2553381419,14088.3069279593,2279.0461180275,-5498.5091881066,-2663.1073005468,-5457.4553790259,-20387.9251071915,-7866.2699836701,-2236.4348437536,-4630.9889077213,1032.4290754266,-20882.2134552299,11116.3956497430,13349.7398985035,18662.3753499428
561471230065,45196,-2,0,7944.0337340655,10270.3756896438,14100.0609230902,2288.0137105860,-5497.9981448400,-2651.5966593523,-5452.5396295095,-20389.0932060865,-7867.8396165603,-2235.6804465505,-4618.5291861746,1029.9468652747,-20884.7443361691,11114.4609859481,13347.8539054960,18659.9539782750
561471230065,45196,-2,0,7941.3568407645,10268.1490011252,14104.4291262497,2288.0137105860,-5504.0941609483,-2652.5700750982,-5455.3747028692,-20393.4370738523,-7873.4002540084,-2238.0896505215,-4618.7360370206,1024.0211969220,-20888.7110053333,11109.2167086175,13343.4248638524,18657.5082712136
561471230065,45196,-2,0,7939.3735061824,10265.2287538877,14097.0676696718,2282.0272037491,-5509.3871090663,-2664.9081196766,-5463.5635628311,-20396.9900413246,-7878.0726495884,-2244.8792253487,-4633.1304223621,1022.0378623398,-20890.5361598568,11109.2167086175,13344.9458259553,18657.6177804850
561471230065,45196,-2,0,7938.9719721872,10262.2476681661,14087.1631644579,2274.5684055967,-5509.5939599123,-2676.8933010472,-5470.9493548026,-20395.7246008550,-7876.3691720332,-2246.0108211532,-4643.7528216885,1024.8972710932,-20885.6812488244,11114.0229488625,13350.5551341907,18664.2126721631
561471230065,45196,-2,0,7938.9841398840,10263.0264007628,14084.4497680664,2272.9379342224,-5511.7841453404,-2677.7450398248,-5471.3995595850,-20396.3938241803,-7877.7076186837,-2247.0572430800,-4642.1101826174,1024.2037123743,-20885.9611058513,11116.0792896256,13351.1878544255,18664.4560260995
561471258759,45197,-2,0,7937.7673702017,10263.1359100342,14088.6841265608,2277.3183050786,-5516.4687086172,-2671.9653838339,-5470.0002744504,-20401.4555860586,-7884.3755165427,-2252.7030544058,-4635.6734709981,1018.7769195913,-20890.6578368250,11110.4334782997,13344.2400995396,18658.3235069008
561471258759,45197,-2,0,7932.0728880886,10260.2278304935,14090.0712439986,2277.8050129516,-5521.2992842559,-2670.5660986993,-5472.7015031451,-20407.3325836241,-7890.5445388319,-2256.4872081178,-4634.3350243476,1012.3158725783,-20895.4884124637,11104.5808161279,13339.2513438421,18653.8822975604
561471258759,45197,-2,0,7928.5807591004,10255.3120809770,14084.2915880077,2271.1979535767,-5521.8589983098,-2676.6499471108,-5477.4469049060,-20408.9630549984,-7891.0069113112,-2256.4142019368,-4642.8280767300,1011.6953200403,-20895.5857540383,11104.1549467391,13339.8232255928,18654.5150177952
561471258759,45197,-2,0,7927.8628649879,10253.4625910599,14078.0373918407,2267.0487689601,-5515.2276035413,-2683.4151865443,-5478.6271714979,-20403.2077344011,-7884.4606904204,-2253.3844454279,-4651.3819675965,1017.6818268772,-20887.8836019494,11111.0418631409,13345.9314093979,18659.2969226466
561471258759,45197,-2,0,7929.4324978780,10253.5112618472,14076.3947527696,2265.5399745540,-5511.0175804405,-2679.0713187785,-5474.3198068225,-20399.0220466940,-7878.5593574613,-2249.0527453590,-4646.9894290434,1021.4173098019,-20885.2918825261,11114.6800044910,13346.6493035105,18658.3721776881
561471258759,45197,-2,0,7930.9899630714,10258.7433714811,14085.4718545995,2271.9888538702,-5513.4511198051,-2669.2519874424,-5468.9660202204,-20399.8616177748,-7879.6909532658,-2246.9355661118,-4633.5197886604,1019.3974721293,-20888.6014960619,11109.9346027300,13344.5564596569,18658.6763701086
561471258759,45197,-2,0,7930.6736029540,10259.8871349825,14091.8477277348,2275.7973429758,-5516.7242302505,-2664.6647657402,-5470.4261438392,-20408.2208254922,-7885.9938202201,-2251.7661417505,-4633.7388072032,1011.2572829547,-20894.3446489624,11101.2833702889,13334.9318114700,18648.4068339901
561471258759,45197,-2,0,7925.4658287137,10253.9127958424,14083.1964952936,2269.0321035422,-5520.6543963243,-2674.6666125286,-5479.8439411802,-20414.0126491799,-7889.6928000543,-2257.6918101032,-4647.2084475862,1005.6601424162,-20897.7881071632,11100.9670101715,13333.6663710004,18648.3338278091
561471289076,45198,-2,0,7923.4338233443,10250.5545115193,14075.2144861778,2260.4173741916,-5518.9752541627,-2686.2745952977,-5486.8281991565,-20413.4651028229,-7885.1907522298,-2255.1609291641,-4657.2833005556,1010.5272211453,-20891.1080416075,11107.7930880892,13340.2369272848,18655.2937503919
561471289076,45198,-2,0,7929.5055040590,10256.6505276276,14077.6480255424,2264.2501986908,-5512.0274992768,-2684.6076208330,-5484.0904673714,-20408.0748131303,-7879.0947361215,-2252.0825018679,-4654.3387179245,1014.3843810382,-20884.9025162278,11113.6822533515,13345.4447015250,18660.4893569353
561471289076,45198,-2,0,7933.7641979470,10261.0795692711,14086.3114256803,2271.4778106036,-5512.0031638832,-2674.8977987683,-5478.7975192534,-20407.4299251987,-7880.2628350165,-2252.4597004694,-4642.3900396444,1012.6565680893,-20888.0296143113,11110.0927827887,13343.5952116079,18656.9850602502
561471289076,45198,-2,0,7933.7641979470,10261.5906125377,14094.8774842437,2276.1623738805,-5516.6633917664,-2668.8504534473,-5476.9845324268,-20411.9198053263,-7885.5071123472,-2254.7593951689,-4636.3670297170,1006.6335581620,-20892.9331961309,11103.4127172329,13336.2459227269,18649.7452806406
561471289076,45198,-2,0,7933.6546886756,10257.2589124687,14094.5854595199,2273.3394682175,-5519.3281173706,-2673.3768366654,-5480.2698105690,-20412.5646932580,-7887.1132483278,-2255.7814817020,-4643.2661138156,1005.5871362352,-20892.7506806785,11099.3365387972,13335.7348794603,18647.6281013934
561471289076,45198,-2,0,7933.4965086169,10253.6086034218,14084.9973144234,2267.7058245885,-5512.9157411449,-2680.3975977322,-5480.4036552340,-20408.4276763382,-7880.8712198577,-2252.7395574963,-4650.4085518507,1012.4375495465,-20886.1922920910,11103.2667048710,13339.6528778373,18650.9742180197
561471289076,45198,-2,0,7940.2130772631,10261.4811032663,14087.8080523895,2272.7432510732,-5504.8120550608,-2676.3579223870,-5473.9547759179,-20398.1338048260,-7870.9058761597,-2244.4655236567,-4644.1056848964,1022.2568808826,-20880.9480147603,11115.9819480510,13349.6060538385,18663.8841443489
561471289076,45198,-2,0,7942.8899705642,10269.4266092916,14096.0820862291,2280.5670801304,-5503.1694159897,-2667.3173236476,-5468.2481261079,-20398.2676494910,-7872.7797014704,-2243.2852570649,-4632.9722423034,1021.4051421050,-20883.6249080613,11115.6290848431,13347.3793653199,18660.2216676052
561471319000,45199,5,0,7940.4320958060,10268.4653612426,14099.3186935840,2283.1709672505,-5512.1491762451,-2664.9567904639,-5470.2436283869,-20406.7120310861,-7881.5891139702,-2250.6223782491,-4631.2687647482,1011.1477736833,-20890.9011907615,11107.3793863972,13339.0566606930,18650.7795348706
561471319000,45199,5,0,7936.4532589449,10264.4135182006,14097.6395514225,2277.9388576166,-5517.5516336345,-2673.9973892034,-5478.6515068915,-20413.9396429990,-7886.3710188216,-2256.3776988464,-4641.3192823239,1004.8084036386,-20893.6875933339,11101.1008548365,13333.1674954307,18645.1945620288
561471319000,45199,5,0,7935.7840356196,10261.4811032663,14091.3366844682,2270.2245378309,-5515.0937588762,-2682.7337955223,-5483.0075423541,-20412.5160224707,-7882.4165173542,-2254.7472274721,-4652.0025201345,1006.9255828857,-20887.4942356510,11105.9801012626,13337.7182140425,18647.8714553299
561471319000,45199,5,0,7942.9386413515,10265.9953187876,14088.6719588640,2274.4953994157,-5506.2113401955,-2679.9960637371,-5476.7776815808,-20402.8670388901,-7872.7188629863,-2246.7773860531,-4649.5446453762,1017.4506406376,-20878.1859475815,11117.9652826331,13348.5839673053,18656.3645077123
561471319000,45199,5,0,7947.6597077188,10274.9264082556,14100.4137862981,2284.1565506931,-5501.4659384345,-2667.0739697111,-5465.0236864498,-20396.5763396326,-7868.3141567364,-2239.4767679593,-4633.3251055113,1021.1374527749,-20876.5554762072,11122.1022995529,13350.7619850367,18658.0193144802
561471319000,45199,5,0,7948.0490740171,10277.3964507107,14107.5318889395,2289.4008280238,-5502.6097019359,-2654.9427759787,-5459.1101857939,-20396.4668303612,-7870.3218267122,-2239.3064202038,-4621.7536258326,1020.6872479925,-20878.4658046084,11116.9431961000,13348.0850917356,18656.9120540693
561471319000,45199,5,0,7943.1454921975,10273.9894956002,14105.1591880591,2287.4539965322,-5504.2523410070,-2657.4006507369,-5459.4752166986,-20399.1923944496,-7873.6557756417,-2240.9490592749,-4626.1704997794,1020.5290679338,-20879.6217358066,11120.2041388486,13349.1315136624,18657.4474327295
561471319000,45199,5,0,7940.4442635028,10268.6478766950,14096.2889370751,2281.1389618811,-5505.0675766941,-2667.7431930364,-5465.8875929242,-20397.8539477990,-7871.6481056659,-2239.2090786292,-4637.1092592232,1022.6219117873,-20876.0444329407,11123.2703984480,13354.3514555994,18662.7038777570
561471349807,45200,5,0,7943.7660447354,10267.9178148856,14091.2636782873,2278.8027640910,-5498.5821942875,-2670.2010677946,-5465.8267544401,-20391.3929007860,-7865.6494311322,-2235.4005895236,-4638.5328797515,1028.4380708687,-20869.9484168324,11130.9238797496,13362.1752846566,18669.2987694351
561471349807,45200,5,0,7949.4240237581,10276.2891902998,14098.5156255937,2284.8257740184,-5494.8467113628,-2660.8806120282,-5458.5869748305,-20388.7160074850,-7863.0942147993,-2231.4947588434,-4628.0078219996,1030.9202810206,-20869.6320567150,11131.7999539208,13361.7250798741,18667.8751489068
561471349807,45200,5,0,7947.6475400220,10275.2184329794,14107.3980442745,2290.3255729824,-5500.0179825126,-2653.2879692107,-5456.3724540087,-20393.6439246983,-7868.6183491570,-2233.2469071860,-4619.5999434950,1024.0577000124,-20877.6992397086,11123.0270445115,13353.7674061519,18662.1076606127
561471349807,45200,5,0,7942.9143059578,10270.5582050962,14108.7121555314,2288.4639153685,-5505.7368000194,-2654.7359251327,-5459.0006765225,-20398.5353388211,-7873.3880863115,-2236.6416945996,-4622.8608862435,1019.2149566769,-20882.1404490489,11117.8679410586,13349.2775260243,18658.7737116832
561471349807,45200,5,0,7941.2229960995,10268.3436842744,14100.2799416331,2282.2583899888,-5503.7047946499,-2664.4214118037,-5463.4662212565,-20395.9801224883,-7871.5507640913,-2238.6736999690,-4634.2985212571,1022.5002348191,-20878.3076245497,11120.5813374501,13351.8205746602,18661.0369032923
561471349807,45200,5,0,7941.3568407645,10267.1147468953,14090.8499765953,2277.4643174405,-5500.5290257792,-2669.6900245281,-5464.4153016087,-20389.5434108690,-7866.3794929415,-2235.1815709808,-4637.7176440643,1028.8882756512,-20875.0466818012,11125.0712175777,13358.4398017319,18668.1793413274
561471349807,45200,5,0,7941.3203376740,10271.2152607246,14092.7116342092,2280.6887570986,-5499.2514176128,-2663.8982008403,-5459.2561981557,-20390.6871743703,-7867.6205980175,-2234.7313661984,-4630.4656967579,1028.8517725607,-20876.4337992390,11120.0216233962,13354.9963435310,18667.9238196941
561471349807,45200,5,0,7942.0747348771,10273.6853031797,14102.1781023374,2287.6608473781,-5503.8386393150,-2657.6683400670,-5457.8447453243,-20395.5785884931,-7873.4124217052,-2240.4866867956,-4623.5179418720,1022.8652657238,-20885.1580378610,11113.9621103784,13348.7178119704,18661.4141018938
561471381078,45201,5,0,7939.6898662998,10272.7240551307,14104.1005984355,2288.0258782828,-5508.8760657997,-2659.4204884095,-5462.0669361218,-20401.6259338141,-7878.8757175787,-2244.7332129868,-4626.2435059603,1017.7304976645,-20889.8304334410,11109.3383855857,13344.0940871777,18658.5303577468
561471381078,45201,5,0,7939.3613384855,10268.4896966363,14099.9392461220,2280.4575708590,-5509.2167613107,-2669.2641551393,-5469.0146910077,-20402.4655048949,-7877.7319540773,-2245.4024363121,-4636.7077252280,1018.7282488040,-20885.5839072498,11113.6214148674,13348.3284456721,18663.1540825395
561471381078,45201,5,0,7943.4375169212,10267.8204733110,14093.5633729868,2277.9145222230,-5501.6606215837,-2672.5859363719,-5469.0390264014,-20395.9679547915,-7869.6526033869,-2241.6304502970,-4641.6356424413,1026.0045315041,-20875.8497497915,11122.5281689418,13356.1157716387,18669.1040862859
561471381078,45201,5,0,7948.7182973424,10273.6731354828,14097.8220668748,2282.5625824093,-5496.5501889181,-2665.3583244591,-5464.5734816674,-20392.4636581065,-7865.2844002275,-2237.7489550104,-4632.0840004353,1029.3141450400,-20872.8321609794,11124.2194788001,13358.3181247637,18671.8174826774
561471381078,45201,5,0,7946.9783166967,10274.5613773509,14106.3759577413,2287.5878411972,-5501.9039755202,-2657.3033091623,-5461.8722529727,-20397.3064014420,-7870.3826651963,-2239.5862772307,-4623.6882896275,1022.9991103888,-20879.4878911415,11117.4055685793,13348.1094271292,18663.7137965933
561471381078,45201,5,0,7943.3645107403,10272.9309059766,14108.2254476584,2288.5490892462,-5507.8053084793,-2658.8851097493,-5463.6974074961,-20401.8449523570,-7877.5372709282,-2246.0838273342,-4626.0974935984,1018.4727271707,-20885.4865656753,11112.6358314247,13346.8196512660,18663.8598089552
561471381078,45201,5,0,7939.1179845491,10266.9930699271,14100.9126618678,2281.6256697540,-5509.8251461519,-2669.7386953154,-5470.6816654725,-20402.8913742837,-7879.6544501754,-2249.8558133493,-4637.8393210326,1017.9860192978,-20885.4257271911,11110.4334782997,13348.6204703958,18666.9504039482
561471381078,45201,5,0,7934.1413965485,10262.2233327725,14090.2415917541,2271.6359906623,-5510.5430402644,-2682.6121185540,-5477.2157186664,-20402.7818650123,-7878.7905437009,-2251.0847507284,-4649.2891237430,1018.4240563834,-20882.1526167458,11112.5263221533,13350.5186311002,18670.2113466968
561471415239,45202,5,0,7932.1458942695,10261.3715939949,14086.0194009566,2268.4845571852,-5512.2343501228,-2683.4760250285,-5479.3450656104,-20404.6921934135,-7880.3480088943,-2253.3479423375,-4649.8366701000,1016.0878585934,-20884.2089575088,11111.8814342217,13348.9368305132,18668.2280121146
561471415239,45202,5,0,7932.5230928710,10262.2111650756,14088.4286049275,2273.9843561492,-5517.0040872774,-2675.2141588857,-5476.9236939427,-20408.6953656683,-7885.9208140392,-2256.3290280591,-4640.5405497273,1009.9310040010,-20890.9741969424,11108.1094482066,13342.4027773193,18662.1076606127
561471415239,45202,5,0,7931.4523355506,10264.1458288705,14095.4371982975,2277.4764851373,-5521.6886505543,-2672.3425824355,-5476.8871908522,-20413.7692952434,-7890.9825759175,-2257.3632822890,-4637.9123272135,1004.5407143084,-20895.5979217351,11104.1184436486,13338.4361081550,18657.0580664312
561471415239,45202,5,0,7932.0607203918,10263.3184254865,14092.7724726933,2276.0893676995,-5522.1266876399,-2679.2660019277,-5480.9025308038,-20412.9540595563,-7890.9947436143,-2257.8378224651,-4647.1597767989,1006.7917382207,-20895.0503753781,11106.1382813212,13340.9669890942,18658.9318917419
561471415239,45202,5,0,7936.0760603433,10265.3260954623,14088.5746172894,2274.5319025062,-5513.7066414384,-2683.0501556396,-5480.3549844467,-20405.0207212277,-7882.9153929239,-2252.6178805281,-4651.2602906283,1016.5015602854,-20886.6789999639,11113.4997378991,13345.7367262488,18663.9814859234
561471415239,45202,5,0,7945.3478453224,10274.6708866223,14095.8508999895,2280.3723969812,-5504.7390488799,-2676.0658976633,-5471.4603980692,-20396.2599795152,-7872.4633413530,-2242.7863814951,-4641.5383008667,1025.1649604233,-20877.6140658308,11119.9486172153,13355.2640328611,18675.6989779639
561471415239,45202,5,0,7948.1585832885,10278.4428726374,14106.5098024064,2288.7437723954,-5502.3906833931,-2662.8517789136,-5465.1575311149,-20398.1216371291,-7872.4268382625,-2240.3406744337,-4629.0664116232,1024.4227309171,-20878.9525124813,11118.5614997775,13353.5118845186,18674.0563388928
561471415239,45202,5,0,7945.1288267796,10274.8534020747,14108.3471246267,2288.0137105860,-5508.5840410759,-2662.1703878915,-5467.2138718779,-20403.9986346946,-7880.0803195642,-2247.1667523514,-4628.3485175107,1017.5114791217,-20886.6789999639,11113.1468746913,13347.5010422881,18666.4150252880
561471447739,45203,5,0,7941.1986607058,10271.1057514532,14102.9811703277,2281.5648312699,-5513.1834304750,-2671.8193714721,-5474.3563099130,-20407.5150990764,-7883.5967839460,-2251.5957939949,-4639.3359477418,1013.9950147399,-20888.4068129128,11113.4145640214,13346.5276265423,18663.5677842315
561471447739,45203,5,0,7939.7020339966,10265.8614741225,14091.9572370062,2275.6391629171,-5511.5407914039,-2680.8843056052,-5478.5906684074,-20404.2298209343,-7880.3723442879,-2251.6566324791,-4650.2747071856,1018.9837704373,-20882.8826785551,11118.4276551124,13351.9422516285,18667.8629812100
561471447739,45203,5,0,7943.6565354640,10269.1589199615,14091.4096906491,2276.3448893328,-5506.1018309241,-2679.7648774975,-5474.5996638495,-20399.6060961415,-7875.7364517984,-2248.5051990019,-4647.1597767989,1023.8873522569,-20878.3927984275,11121.3357346531,13355.6777345531,18672.1095074012
561471447739,45203,5,0,7945.5303607748,10273.9408248130,14101.2776927725,2282.8789425267,-5506.5033649192,-2668.6436026013,-5469.0025233109,-20401.3339090904,-7878.0483141947,-2248.1888388845,-4636.0750049932,1020.6264095084,-20882.8826785551,11116.2253019875,13352.0395932031,18670.3086882714
561471447739,45203,5,0,7943.1819952879,10270.9597390913,14105.9379206557,2285.3246495881,-5511.3096051643,-2665.9058708161,-5469.6352435457,-20407.6854468320,-7884.5823673887,-2252.1555080488,-4633.1790931494,1013.3136237178,-20890.9985323360,11107.9025973606,13340.1395857102,18659.4064319180
561471447739,45203,5,0,7940.6876174392,10271.3734407833,14105.9379206557,2285.6288420087,-5513.2077658687,-2670.3714155501,-5473.0787017466,-20407.8801299811,-7887.7338008658,-2255.0514198927,-4640.7352328764,1012.6444003925,-20890.9741969424,11104.2644560105,13341.2468461211,18660.6840400844
561471447739,45203,5,0,7944.0702371560,10273.1255891258,14104.2952815846,2284.7406001406,-5506.6007064938,-2675.6643636681,-5472.0931183039,-20399.1923944496,-7877.9023018329,-2246.3636843611,-4644.5072188915,1021.8431791907,-20884.8538454405,11114.2419674053,13351.4312083619,18674.7864007022
561471447739,45203,5,0,7950.6164580468,10277.8709908868,14105.0740141813,2285.8235251579,-5496.1364872261,-2669.9455461613,-5466.8853440637,-20392.3541488351,-7867.7057718952,-2237.3595887121,-4639.2386061672,1030.8107717492,-20878.6361523639,11119.1577169218,13356.5659764212,18682.2938696420
561471479033,45204,5,0,7956.9193250010,10287.0697696849,14116.7793385250,2295.8010365527,-5491.3424146778,-2657.2059675877,-5458.4287947718,-20389.6042493531,-7865.9171204623,-2233.8674597239,-4624.9902331875,1031.2123057443,-20878.2102829751,11119.1577169218,13355.7142376436,18682.6832359403
561471479033,45204,5,0,7955.9580769520,10286.4127140565,14123.3255594157,2298.1494020395,-5494.4451773677,-2650.7692559684,-5457.0173419403,-20394.0941294807,-7871.0640562184,-2233.7336150589,-4618.0668136953,1025.5664944185,-20884.9268516214,11113.4875702023,13350.1414324987,18676.5750521352
561471479033,45204,5,0,7948.9129804915,10278.2481894883,14122.2913051858,2293.0754724644,-5500.1274917840,-2656.6827566243,-5463.1011903518,-20398.0364632514,-7875.1524023509,-2236.5565207218,-4625.9758166302,1020.2613786037,-20888.5771606683,11111.1392047155,13347.9512470706,18674.4822082816
561471479033,45204,5,0,7947.6475400220,10276.5812150235,14113.3358803241,2286.4075746054,-5496.5501889181,-2665.0176289480,-5468.0656106556,-20395.8462778232,-7871.3560809421,-2235.5466018855,-4637.0727561327,1023.7535075919,-20881.9944366871,11116.1157927161,13352.8183257997,18678.6313928983
561471479033,45204,5,0,7950.6407934404,10279.0877605691,14111.4620550133,2286.5535869673,-5489.9918003305,-2664.1293870800,-5464.5369785769,-20390.0057833482,-7863.4714134009,-2228.5136731218,-4632.1570066163,1030.6160886000,-20873.9394213903,11123.6232616558,13359.8512545634,18683.2429499942
561471479033,45204,5,0,7956.1892631917,10285.7191553376,14119.5900764911,2294.2679067530,-5488.0814719293,-2653.7260062964,-5456.8591618816,-20387.9129394947,-7862.0234574789,-2224.9850410432,-4620.4395145758,1031.4921627713,-20871.9925898986,11120.1919711517,13357.4055475020,18679.9455041551
561471479033,45204,5,0,7955.3375244141,10286.6804033866,14127.1827193086,2298.1737374332,-5493.9463017979,-2649.1266168973,-5454.2917778520,-20391.1982176369,-7867.4502502620,-2229.2315672344,-4614.7206970690,1027.1239596118,-20877.4193826816,11119.8634433375,13353.9377539074,18675.4069532402
561471479033,45204,5,0,7946.4916088238,10278.2360217915,14122.4008144572,2290.6906038871,-5499.8476347571,-2655.9040240277,-5462.8335010217,-20399.5817607479,-7874.4588436320,-2236.1793221203,-4624.5765314956,1020.9427696258,-20882.2377906235,11115.6169171463,13349.1558490560,18668.8972354399
561471591211,45206,5,0,7949.6430423009,10269.9619879519,14119.5414057038,2282.4895762284,-5500.2856718427,-2665.9545416034,-5470.0732806313,-20405.1302304992,-7874.2154896955,-2250.3668566158,-4632.4733667337,1016.7935850091,-20877.4315503785,11117.5515809412,13350.2022709828,18668.6782168971
561471591211,45206,5,0,7940.9431390725,10264.1214934768,14119.6995857625,2277.7563421643,-5506.5155326160,-2668.6070995108,-5475.5487442017,-20412.7837118008,-7878.3768420090,-2253.6643024548,-4637.5351286120,1009.4929669154,-20881.4590580269,11114.8016814592,13346.2842726058,18664.2370075567
561471591211,45206,5,0,7936.7939544559,10255.7866211531,14112.1799491259,2271.0276058212,-5505.7611354130,-2678.3290892723,-5481.5230833417,-20413.1487427055,-7877.8901341360,-2255.3799477069,-4649.6906577381,1010.6002273263,-20877.5532273467,11119.1090461345,13351.1756867286,18668.5443722320
561471591211,45206,5,0,7938.4122581334,10255.4945964294,14106.4854670128,2268.5818987598,-5498.5578588938,-2679.7892128911,-5480.9998723783,-20406.6998633893,-7869.9446281107,-2248.3105158528,-4653.0002712740,1017.1707836107,-20869.9605845292,11127.7237754851,13359.0846896635,18677.5484678810
561471591211,45206,5,0,7942.7439582023,10260.0331473443,14113.3602157177,2273.5949898508,-5493.3379169568,-2670.9554649976,-5474.3198068225,-20402.7088588314,-7864.1528044229,-2241.3140901796,-4642.8645798204,1020.2005401196,-20869.0115041770,11129.0013836516,13361.5182290281,18680.1523550011
561471591211,45206,5,0,7943.4740200117,10260.3251720681,14121.5490756796,2277.4399820469,-5499.5556100333,-2662.1947232851,-5472.2878014531,-20407.4664282892,-7869.2389016949,-2243.6502879696,-4633.4954532668,1014.5182257033,-20874.0610983585,11121.9562871911,13355.6899022499,18674.1415127706
561471591211,45206,5,0,7939.4708477569,10255.6892795785,14122.0357835525,2276.6369140566,-5506.5763711002,-2666.4047463859,-5477.1792155759,-20414.5601955369,-7878.3038358280,-2250.0504964984,-4638.0461718786,1006.0981795018,-20878.3076245497,11114.1689612244,13348.2189364007,18665.5146157231
561471591211,45206,5,0,7932.8516206853,10247.0380471374,14112.9830171162,2266.8662535077,-5513.0495858100,-2680.0447345244,-5486.2319820122,-20418.4903616107,-7881.8568033003,-2252.5327066503,-4650.1530302174,1004.8570744258,-20880.5221453715,11116.1644635034,13350.0562586209,18669.3231048287
561471611259,45207,5,0,7930.6370998635,10244.4828308046,14104.5629709147,2259.5778031108,-5511.0054127437,-2686.6274585056,-5488.5316767117,-20412.8080471944,-7876.0041411285,-2248.1036650068,-4655.4946491227,1013.1919467496,-20873.9394213903,11124.1829757097,13358.1721124018,18677.6214740620
561471611259,45207,5,0,7936.1855696148,10249.4229157147,14109.1258572233,2265.8806700651,-5504.1184963419,-2677.2948350424,-5480.4523260213,-20407.0162235067,-7870.0541373821,-2242.6160337396,-4643.6676478108,1018.2780440215,-20870.0214230133,11128.3078249326,13361.6277382995,18681.5638078326
561471611259,45207,5,0,7937.5118485685,10250.8952070303,14119.8577658212,2271.5508167846,-5506.2478432859,-2665.2366474909,-5474.0521174924,-20407.6611114383,-7871.6237702722,-2239.5132710498,-4631.5242863815,1016.9639327647,-20875.3387065249,11122.8323613623,13355.7142376436,18678.4732128396
561471611259,45207,5,0,7935.8570418005,10248.5468415435,14124.2016335870,2271.1736181831,-5509.4357798536,-2662.3285679502,-5473.8087635560,-20411.8833022359,-7876.4178428205,-2242.8593876761,-4630.8672307530,1012.2672017910,-20880.5708161588,11114.8503522465,13350.1657678923,18672.0121658266
561471611259,45207,5,0,7932.1823973600,10244.3246507459,14118.4828160802,2268.8252526962,-5509.5939599123,-2670.0915585232,-5477.5077433902,-20411.4574328471,-7876.7220352410,-2244.9035607423,-4640.4310404559,1012.7660773608,-20878.3562953370,11115.6777556304,13352.7331519220,18672.7787307264
561471611259,45207,5,0,7931.8782049394,10243.2052226382,14111.2552041673,2264.0920186321,-5504.7755519704,-2677.0514811059,-5478.1404636249,-20406.0671431545,-7869.2875724822,-2240.1581589814,-4646.2228641436,1020.4803971465,-20869.5468828372,11126.9937136758,13360.4596394045,18681.9775095246
561471611259,45207,5,0,7936.3194142798,10248.7171892990,14115.2340410285,2269.5796498993,-5497.9616417495,-2671.9653838339,-5472.9205216879,-20400.0319655303,-7864.1163013325,-2236.4226760567,-4639.6158047687,1026.9171087658,-20864.1809285383,11135.9978093247,13367.1518726572,18689.6674939167
561471611259,45207,5,0,7941.9043871215,10255.2390747961,14125.4184032693,2279.4111489322,-5497.1950768497,-2661.0752951774,-5464.5004754864,-20398.4866680338,-7864.5300030244,-2234.8530431666,-4626.2191705667,1026.0166992009,-20864.0227484796,11134.6350272806,13366.1176184272,18688.0126871488
561471620163,45208,5,0,7941.0039775566,10253.5842680282,14131.9159533727,2281.0902910938,-5500.8088828061,-2656.9991167417,-5464.5734816674,-20403.6457714868,-7869.5309264187,-2237.8827996755,-4622.6905384880,1021.6119929510,-20869.5103797467,11132.8707112413,13361.8102537519,18682.8779190895
561471620163,45208,5,0,7939.4830154538,10249.7879466194,14128.7158491083,2276.0650323059,-5504.8728935450,-2667.0131312270,-5470.0002744504,-20406.5781864211,-7871.9766334801,-2242.5551952555,-4633.9456580492,1019.0811120119,-20870.1552676783,11130.6561904195,13359.8147514729,18682.9265898768
561471620163,45208,5,0,7937.6700286272,10246.4174945995,14118.0691143882,2268.4723894884,-5503.9481485864,-2678.5481078152,-5474.3198068225,-20405.0693920150,-7869.3605786632,-2244.2221697202,-4644.1421879869,1023.0721165698,-20867.5148774678,11134.5376857060,13364.2681285101,18686.1997003221
561471620163,45208,5,0,7937.7186994144,10246.3079853281,14114.3214637667,2267.6449861044,-5503.8386393150,-2677.5990274630,-5472.9205216879,-20401.9666293252,-7867.7544426825,-2241.5817795097,-4641.5261331699,1025.0311157583,-20866.3832816632,11136.0708155057,13366.6408293906,18690.0325248214
561471620163,45208,5,0,7937.0616437860,10249.3985803211,14121.5004048923,2273.9235176650,-5505.7976385035,-2668.1447270315,-5466.8975117605,-20402.8427034964,-7870.3461621058,-2244.0761573584,-4632.2543481908,1022.0743654303,-20871.0191741528,11130.7170289036,13361.3965520599,18686.6134020141
561471620163,45208,5,0,7935.4433401086,10248.8510339640,14124.6031675821,2276.8681002962,-5510.5795433549,-2663.8616977499,-5466.3864684940,-20406.0428077609,-7876.0649796126,-2248.9310683907,-4628.9812377455,1018.1441993565,-20874.1219368426,11122.2361442180,13354.2906171153,18678.1203496317
561471620163,45208,5,0,7930.7587768317,10248.2426491229,14121.6342495573,2274.7874241395,-5512.0761700641,-2670.3227447629,-5470.4261438392,-20406.7363664798,-7878.8270467914,-2250.4398627968,-4637.2066007978,1017.7791684518,-20876.8840040214,11123.2338953575,13356.4321317561,18682.0626834023
561471620163,45208,5,0,7931.2576524015,10245.9307867265,14113.4818926859,2269.7256622611,-5510.4335309930,-2680.7017901528,-5475.1472102065,-20404.8138703818,-7876.5638551823,-2249.6854655937,-4648.3887141781,1021.0401112004,-20874.6573155028,11124.3654911620,13358.5493110033,18686.4065511681
561471644014,45209,5,0,7932.9611299567,10250.3354929764,14111.8514213117,2269.0686066327,-5506.8440604303,-2678.2804184851,-5472.5068199959,-20399.4479160828,-7871.7332795436,-2246.6070382975,-4645.2616160946,1027.6958413625,-20871.2503603924,11128.5390111723,13363.2217065833,18691.4439776528
561471644014,45209,5,0,7940.1400710822,10257.0155585322,14121.5125725891,2277.6224974992,-5505.1405828751,-2666.4047463859,-5464.8046679070,-20396.2478118184,-7869.9324604138,-2242.9688969475,-4630.6238768166,1028.5597478369,-20873.2093595809,11126.3853288346,13362.0414399915,18691.1884560195
561471644014,45209,5,0,7942.6587843246,10258.9623900239,14133.6802694120,2284.1322152995,-5506.7223834620,-2657.5588307956,-5461.1300234665,-20399.0220466940,-7872.4268382625,-2240.5110221892,-4622.5810292166,1024.5322401885,-20878.2224506720,11121.7737717387,13357.1500258687,18686.8080851633
561471644014,45209,5,0,7942.8412997769,10255.6527764881,14134.3494927373,2283.6941782139,-5507.3307683032,-2658.8121035683,-5462.7239917503,-20398.4866680338,-7872.2808259007,-2241.5696118128,-4626.6207045618,1024.2037123743,-20879.3053756892,11121.0193745357,13356.1766101229,18686.8080851633
561471644014,45209,5,0,7944.1797464274,10255.7136149722,14130.6626805999,2279.4111489322,-5500.6993735347,-2665.4191629432,-5465.1818665085,-20394.9093651679,-7867.0730516604,-2236.7633715678,-4634.5297074967,1030.2997284826,-20874.3652907791,11126.1784779886,13357.4542182893,18687.4651407917
561471644014,45209,5,0,7946.0414040413,10256.1881551483,14128.6915137146,2279.8248506242,-5495.2360776612,-2663.9833747181,-5461.3612097061,-20389.5555785658,-7860.1252967745,-2230.2901568580,-4632.8870684256,1036.1645583513,-20868.6464732723,11133.1627359650,13365.6917490384,18699.0487881672
561471644014,45209,5,0,7950.7016319245,10263.9268103277,14135.5419270259,2288.0137105860,-5492.3645012110,-2653.2879692107,-5454.1214300965,-20388.1927965216,-7859.2127195128,-2228.2459837917,-4620.1109867615,1036.8216139797,-20868.6221378787,11134.3064994664,13365.3388858305,18699.9370300352
561471644014,45209,5,0,7948.7426327360,10264.7785491053,14143.8281285624,2292.9051247088,-5497.0368967910,-2645.8900095424,-5451.5905491573,-20392.4879935001,-7864.1284690293,-2231.1418956356,-4612.7130270932,1030.4457408445,-20874.0732660553,11128.2226510549,13358.0261000399,18695.1064543965
561471660170,45210,5,0,7943.9120570973,10257.9281357940,14142.6843650610,2286.0060406102,-5505.6516261416,-2653.5556585408,-5458.2462793194,-20397.8052770117,-7870.4556713772,-2235.6317757632,-4621.5467749867,1023.9360230442,-20879.5608973225,11120.7760205992,13352.3072825332,18689.7283324008
561471660170,45210,5,0,7941.9773933025,10252.7812000379,14131.0763822919,2277.5008205310,-5507.2820975159,-2668.3880809680,-5464.9020094816,-20395.1648868012,-7868.8738707902,-2237.1405701693,-4632.6315467924,1026.9171087658,-20876.2147806962,11123.1122183893,13355.6899022499,18690.1055310023
561471660170,45210,5,0,7945.2870068383,10256.2611613292,14131.6239286490,2277.3548081691,-5499.4339330651,-2668.3394101807,-5463.1498611391,-20390.1517957101,-7860.8553585839,-2231.6772742958,-4630.8550630562,1033.6945158962,-20870.1674353752,11128.1739802676,13359.3523789936,18693.7680077460
561471660170,45210,5,0,7949.6917130882,10262.1868296820,14138.8515405618,2283.0127871918,-5495.1022329961,-2656.7679305021,-5456.6644787325,-20390.5411620084,-7857.8986082559,-2228.2338160949,-4619.1132356221,1033.5606712312,-20870.0214230133,11128.2226510549,13358.0382677368,18693.0136105430
561471660170,45210,5,0,7952.7458049908,10265.8371387289,14148.5005241424,2290.6541007966,-5498.5335235002,-2648.7737536894,-5452.6734741745,-20392.8895274953,-7861.8652774202,-2231.0323863642,-4611.5814312887,1029.5331635828,-20873.9880921776,11125.3632423015,13352.4897979855,18687.7328301218
561471660170,45210,5,0,7948.8643097043,10262.4788544057,14147.6609530616,2289.1209709969,-5503.6439561658,-2654.9549436755,-5457.0903481213,-20399.2167298432,-7868.9347092744,-2237.5177687708,-4618.7482047174,1023.9116876506,-20880.2787914350,11117.5150778507,13347.0021667184,18682.2695342483
561471660170,45210,5,0,7942.8534674737,10255.0687270406,14137.8902925128,2280.6035832208,-5506.7102157652,-2667.3538267381,-5465.7294128655,-20399.8859531685,-7871.9766334801,-2240.8638853971,-4633.5197886604,1023.4979859586,-20882.0552751712,11114.0594519530,13345.5055400091,18682.9022544831
561471660170,45210,5,0,7943.9242247941,10256.1273166642,14132.2931519742,2277.4643174405,-5502.2081679407,-2670.5904340930,-5464.9750156625,-20395.4569115249,-7866.0631328241,-2238.2113274897,-4636.5130420789,1030.0320391525,-20877.5288919531,11116.0427865351,13351.4920468460,18686.6985758919
561471713705,45211,5,0,7949.8498931469,10264.4743566847,14137.3670815494,2286.6509285418,-5498.2780018669,-2661.4038229916,-5457.9542545957,-20391.2833915146,-7864.2258106039,-2234.7070308047,-4624.8077177352,1032.3073984584,-20876.7379916596,11117.1257115524,13353.3172013695,18687.5503146695
561471713705,45211,5,0,7951.6263768831,10268.0759949443,14149.5347783723,2292.2115659899,-5500.2491687522,-2652.0833672253,-5453.2331882284,-20393.2180553095,-7866.9027039049,-2234.5610184428,-4613.9906352596,1028.5719155338,-20881.0575240317,11114.2784704958,13349.5087122639,18684.4962227669
561471713705,45211,5,0,7947.7327138997,10265.4842755210,14149.6929584310,2291.3233241219,-5504.5443657307,-2654.2978880470,-5458.2097762290,-20398.7421896671,-7871.8306211182,-2239.9148050449,-4619.7946266441,1023.1329550539,-20885.7664227022,11109.8980996395,13345.5663784933,18678.9112499252
561471713705,45211,5,0,7940.9309713757,10257.3805894369,14138.4621742634,2282.0028683555,-5506.6007064938,-2667.0252989238,-5466.5446485527,-20402.7088588314,-7874.7995391430,-2245.0374054074,-4635.6978063917,1022.6340794842,-20886.1192859100,11110.3239690283,13345.8462355202,18679.6169763409
561471713705,45211,5,0,7940.4320958060,10255.1660686152,14132.6216797884,2277.0262803549,-5501.5997830996,-2672.5372655846,-5469.1363679760,-20398.5840096084,-7868.8617030934,-2242.0806550794,-4639.7739848274,1028.1217107513,-20880.4978099778,11116.7363452540,13349.5573830512,18682.4763850943
561471713705,45211,5,0,7945.4938576843,10261.1769108457,14135.9799641116,2281.9663652650,-5499.3730945810,-2666.2465663272,-5462.8091656280,-20394.2888126299,-7866.7688592399,-2239.8539665608,-4630.6847153007,1028.9734495289,-20876.4459669358,11117.3203947015,13352.5263010760,18685.4574708159
561471713705,45211,5,0,7945.7858824081,10261.2377493298,14139.6667762489,2286.4927484831,-5503.3032606548,-2658.3010603018,-5462.1277746060,-20401.0175489730,-7872.6458568053,-2245.3781009184,-4624.7103761606,1022.7922595429,-20884.5131499294,11110.8350122949,13347.6957254373,18680.9675906883
561471713705,45211,5,0,7941.5880270041,10256.6018568403,14139.1313975887,2283.5603335488,-5511.3582759516,-2662.0608786201,-5466.8975117605,-20407.9166330716,-7879.9099718086,-2249.8558133493,-4627.8253065473,1015.6741569014,-20891.5582463899,11106.3816352577,13340.9183183069,18676.2586920178
561471755280,45212,5,0,7937.5361839621,10253.8397896615,14131.1615561697,2275.8581814599,-5515.2519389349,-2674.1677369589,-5473.4315649545,-20408.0504777367,-7881.2970892465,-2251.5957939949,-4639.6401401624,1016.4893925886,-20889.0273654507,11109.1923732238,13343.0233298573,18678.0595111476
561471755280,45212,5,0,7938.4365935270,10252.3066598618,14122.2426343985,2270.6504072197,-5512.7088902989,-2680.0082314339,-5475.1593779033,-20403.0252189488,-7876.0771473094,-2248.5295343956,-4645.3954607596,1022.3785578509,-20881.6659088729,11115.9089418701,13350.4699603129,18685.4818062096
561471755280,45212,5,0,7942.4519334786,10258.0741481558,14127.2678931863,2276.0406969122,-5509.0099104648,-2673.2064889099,-5470.8763486217,-20399.6182638384,-7871.4655902135,-2242.4335182873,-4637.0970915264,1024.4105632203,-20879.3662141733,11119.3524000710,13353.1346859171,18688.7305812613
561471755280,45212,5,0,7942.1964118453,10261.5784448408,14136.0164672020,2282.3070607761,-5511.1149220151,-2664.2875671387,-5467.8709275064,-20403.5971006995,-7874.9820545954,-2243.0175677348,-4628.0564927869,1018.1685347501,-20883.8439266042,11114.3758120704,13348.3649487625,18684.8125828843
561471755280,45212,5,0,7937.2198238447,10257.7212849480,14134.7510267324,2280.9077756414,-5516.5052117077,-2664.6891011338,-5471.7645904897,-20409.5106013554,-7881.9419771781,-2249.6976332906,-4630.2710136087,1010.4420472676,-20890.7673460964,11108.0729451161,13342.3906096225,18679.9820072456
561471755280,45212,5,0,7932.8637883821,10251.7469458079,14130.2854819984,2274.3372193570,-5519.3524527643,-2675.8103760300,-5481.0120400752,-20414.4750216592,-7884.4606904204,-2251.6566324791,-4642.4143750380,1008.8845820742,-20891.4244017248,11106.8318400402,13343.3518576715,18682.0383480087
561471755280,45212,5,0,7932.3770805092,10247.4760842231,14122.6806714841,2266.6228995713,-5515.7751498983,-2684.7049624076,-5484.9787092394,-20412.4065131993,-7878.7905437009,-2247.4952801656,-4650.0800240365,1013.8003315907,-20885.6934165212,11113.3415578404,13351.6623946015,18689.6796616135
561471755280,45212,5,0,7935.7962033164,10251.5887657492,14123.5445779585,2267.9856816155,-5512.1126731546,-2678.6332816929,-5480.8660277133,-20407.6367760447,-7873.4489247957,-2244.4290205662,-4643.0714306664,1018.4727271707,-20881.3738841491,11118.6953444425,13354.8868342596,18692.0401947971
561471777822,45213,5,0,7937.2319915415,10255.5797703071,14133.5220893533,2276.9654418708,-5513.3416105337,-2668.5219256331,-5475.4270672334,-20408.9508873016,-7877.0262276616,-2244.9400638328,-4632.0109942544,1013.9706793462,-20884.0994482374,11114.8016814592,13347.8174024055,18686.7350789823
561471777822,45213,5,0,7934.0562226707,10253.6572742091,14136.9412121606,2277.5129882278,-5517.9166645391,-2666.3195725081,-5477.1913832728,-20413.0270657372,-7881.8446356035,-2248.9554037844,-4630.4413613642,1009.8945009105,-20888.1877943699,11109.9711058205,13343.2423484001,18682.4763850943
561471777822,45213,5,0,7931.2333170078,10251.4062502969,14133.1935615391,2275.1767904378,-5519.6931482753,-2673.4985136336,-5480.2941459626,-20412.4065131993,-7882.7937159557,-2251.4132785426,-4640.6622266955,1010.4542149644,-20886.1071182132,11113.6944210483,13345.2135152854,18682.6710682435
561471777822,45213,5,0,7937.8282086858,10255.0808947374,14130.2003081207,2272.9379342224,-5509.7034691837,-2677.0149780155,-5478.5906684074,-20405.5682675848,-7872.6336891085,-2244.1978343266,-4645.9308394198,1018.8377580754,-20876.7501593564,11123.2460630543,13353.8890831201,18691.1276175354
561471777822,45213,5,0,7945.4695222907,10260.9700599997,14134.7510267324,2276.3935601201,-5501.2469198917,-2671.7950360784,-5472.0687829103,-20399.3505745083,-7865.5277541639,-2237.3595887121,-4639.1047615022,1024.6539171568,-20870.1552676783,11129.6341038863,13358.6709879716,18695.4714853012
561471777822,45213,5,0,7949.2171729121,10265.8736418193,14143.7307869878,2283.5116627615,-5500.1518271776,-2659.1527990794,-5466.7758347923,-20401.9179585379,-7865.9657912496,-2238.3451721548,-4629.0907470169,1022.1717070049,-20873.0390118254,11123.1608891765,13353.7795738487,18691.0424436577
561471777822,45213,5,0,7944.4717711512,10263.1359100342,14146.1521586555,2282.1002099301,-5507.5741222396,-2659.4083207127,-5470.9371871058,-20411.3235881820,-7875.0428930795,-2247.1302492609,-4629.6504610707,1012.8025804512,-20882.9556847361,11116.8336868286,13344.2522672364,18681.8558325563
561471777822,45213,5,0,7937.4145069939,10253.9858020233,14138.7055281999,2274.0938654206,-5514.5705479128,-2670.7486141517,-5480.2454751753,-20417.0059025983,-7880.5670274371,-2252.2406819266,-4642.7672382459,1008.0936817807,-20884.6956653818,11113.8647688038,13341.8308955686,18679.9333364583
561471816860,45214,5,0,7935.2608246562,10250.9925486049,14129.3729047367,2267.9005077377,-5510.7863942009,-2679.7648774975,-5483.1900578065,-20413.2217488864,-7876.2718304586,-2250.8413967919,-4651.1507813569,1013.7151577129,-20877.1030225642,11120.2528096359,13348.8273212418,18685.9441786889
561471816860,45214,5,0,7940.9066359821,10256.7843722926,14130.5775067222,2271.1249473958,-5503.9359808896,-2676.4065931743,-5478.2864759868,-20406.0549754577,-7869.1537278172,-2243.7841326346,-4645.2859514882,1020.2370432100,-20871.1530188178,11127.1153906440,13354.1324370566,18692.6364119415
561471816860,45214,5,0,7943.5348584958,10260.7875445474,14138.8758759554,2277.7441744675,-5504.6295396085,-2664.7621073148,-5472.3486399372,-20406.9310496289,-7871.2344039739,-2242.8107168888,-4633.3859439954,1018.1563670533,-20877.3342088039,11122.6620136068,13349.9102462590,18690.5192326943
561471816860,45214,5,0,7943.1941629848,10261.1160723616,14144.5581903717,2281.4188189080,-5509.3019351885,-2660.4060718522,-5472.0931183039,-20410.3380047394,-7876.4543459109,-2246.8625599308,-4630.0641627627,1013.1067728718,-20884.9390193182,11114.5826629164,13343.8385655444,18683.8513348353
561471816860,45214,5,0,7941.5150208232,10256.4315090847,14139.5085961902,2277.6955036802,-5512.3438593942,-2667.0618020143,-5476.3153091015,-20412.7837118008,-7881.3700954274,-2250.6467136428,-4639.4697924068,1009.9188363042,-20887.4333971669,11110.2874659379,13340.5046166149,18678.8260760474
561471816860,45214,5,0,7940.8214621043,10253.3530817885,14130.5288359349,2271.8306738115,-5510.9932450469,-2676.0780653601,-5480.5009968086,-20409.5227690522,-7876.5395197887,-2248.0914973099,-4647.1719444958,1015.3456290872,-20883.7465850296,11114.9476938211,13344.6903043220,18683.6079808988
561471816860,45214,5,0,7943.2793368625,10255.8352919404,14129.3850724335,2272.2078724130,-5505.7489677162,-2675.0924819174,-5477.6294203584,-20403.6944422740,-7872.6336891085,-2244.9400638328,-4646.2715349309,1020.7967572639,-20880.0962759827,11119.7661017629,13348.1459302197,18685.9563463857
561471816860,45214,5,0,7944.1067402465,10261.1890785425,14134.0939711040,2277.7563421643,-5506.6493772811,-2666.6967711096,-5473.6019127100,-20403.6822745772,-7873.9964711527,-2246.2176719992,-4636.1723465678,1017.8278392391,-20883.7830881200,11116.0792896256,13346.8439866597,18682.5737266689
561471830167,45215,5,0,7944.3500941829,10262.5396928899,14144.7650412177,2283.0614579791,-5510.1536739661,-2660.2722271871,-5472.3973107245,-20407.9896392525,-7877.9996434074,-2247.2032554419,-4630.1615043373,1012.4740526370,-20888.1999620668,11109.8250934586,13341.5632062385,18678.8990822284
561471830167,45215,5,0,7941.1256545249,10258.9988931144,14143.9498055306,2280.9442787319,-5516.7607333410,-2669.6170183471,-5477.3252279378,-20409.9121353506,-7882.6842066843,-2252.2771850170,-4637.5594640056,1008.7507374092,-20888.1999620668,11105.8584242943,13337.3045123505,18670.8684023252
561471830167,45215,5,0,7939.6533632093,10253.4382556663,14133.2909031137,2273.4489774890,-5516.0063361379,-2678.3534246660,-5483.3239024715,-20409.8877999569,-7879.8004625372,-2252.0581664742,-4649.3742976207,1011.8169970086,-20884.6834976849,11113.7187564419,13342.7799759208,18676.3803689860
561471830167,45215,5,0,7942.2207472389,10255.3485840675,14134.0818034072,2272.6702448923,-5509.1437551298,-2680.0569022212,-5481.0728785593,-20403.4997591249,-7873.5462663702,-2245.9986534564,-4647.2814537672,1018.8985965595,-20875.9349236692,11121.0680453230,13349.0098366941,18681.6368140135
561471830167,45215,5,0,7948.2802602568,10262.6005313740,14142.5140173055,2281.3701481207,-5505.7246323226,-2668.8626211441,-5473.9182728274,-20401.1148905476,-7870.1149758662,-2243.3460955490,-4635.3692785775,1019.9815215768,-20876.2756191803,11120.4231573914,13347.7687316182,18680.1523550011
561471830167,45215,5,0,7947.3920183887,10265.7519648511,14149.3157598295,2287.5270027131,-5506.9900727921,-2659.8828608888,-5469.3675542156,-20404.4488394771,-7874.5196821161,-2245.5727840676,-4628.6283745376,1014.8467535175,-20881.3860518459,11113.2685516595,13342.4879511971,18673.5452956263
561471830167,45215,5,0,7942.4154303881,10263.4766055452,14150.0093185484,2286.8091086005,-5512.9765796290,-2665.5651753051,-5475.4757380207,-20410.1919923775,-7879.6909532658,-2250.0261611048,-4636.3305266265,1008.7507374092,-20887.2752171082,11107.6592434241,13337.6938786488,18670.0775020317
561471830167,45215,5,0,7937.9742210477,10254.9227146787,14137.1723984002,2276.5517401788,-5515.5196282650,-2679.0591510817,-5484.4676659729,-20412.6376994389,-7881.9176417844,-2254.1266749341,-4651.7469985012,1009.6998177614,-20886.0706151228,11111.0296954441,13340.1639211039,18673.3871155676
561471885229,45217,5,0,7936.8669606368,10257.7942911289,14145.3247552716,2280.6035832208,-5514.2055170081,-2664.7499396179,-5473.6749188909,-20408.1113162208,-7879.1799099993,-2247.4587770751,-4630.9037338435,1011.4641338007,-20884.9268516214,11108.2311251748,13344.1670933586,18677.5241324874
561471885229,45217,5,0,7936.1125634338,10256.1516520578,14139.8614593981,2276.2840508487,-5512.2951886069,-2671.5030113547,-5476.1449613460,-20407.4907636828,-7877.2695815981,-2245.8161380041,-4639.5914693751,1014.8832566079,-20885.3892241007,11112.3559743978,13347.0630052025,18679.1667715585
561471885229,45217,5,0,7937.0251406955,10254.4116714121,14134.4468343119,2271.5386490877,-5505.3230983274,-2674.4475939858,-5476.5829984316,-20402.5628464695,-7870.6625222232,-2240.5231898861,-4643.2782815124,1021.7823407066,-20882.1282813521,11118.2816427505,13352.0517608999,18684.2163657400
561471885229,45217,5,0,7942.9629767451,10259.7411226206,14139.4964284934,2275.2011258315,-5501.3199260727,-2667.3903298285,-5471.0710317708,-20399.5209222638,-7866.4159960320,-2235.2789125554,-4633.7753102937,1024.8607680028,-20878.8916739972,11121.6520947705,13353.0981828267,18686.8202528601
561471885229,45217,5,0,7945.5181930779,10263.9268103277,14148.5005241424,2282.6477562871,-5501.8431370360,-2656.1352102673,-5465.2305372958,-20400.8106981270,-7868.3019890396,-2236.0454774552,-4623.6396188402,1021.7580053129,-20881.7024119633,11119.9486172153,13346.2721049090,18678.1690204190
561471885229,45217,5,0,7943.5348584958,10261.8461341709,14151.4329390767,2284.1443829963,-5505.6029553543,-2654.6264158613,-5466.0822760734,-20404.4488394771,-7872.4268382625,-2238.2356628834,-4623.7612958084,1016.3312125299,-20884.3184667803,11116.0062834447,13345.4568692218,18681.7463232849
561471885229,45217,5,0,7940.8823005884,10257.6482787670,14145.6167799953,2278.0361991912,-5507.3672713937,-2664.0807162927,-5472.5676584800,-20405.3370813451,-7873.0230554069,-2240.0486497100,-4634.8460676141,1016.3312125299,-20883.6370757582,11115.3005570289,13347.5497130754,18684.0216825908
561471885229,45217,5,0,7940.4685988964,10258.4026759701,14136.7951997987,2273.9235176650,-5504.4348564593,-2675.1046496143,-5475.7677627445,-20401.8449523570,-7869.5065910250,-2240.9612269717,-4642.7063997617,1020.6750802957,-20879.1471956305,11118.7318475330,13351.4190406651,18689.4971461611
561471958743,45218,5,0,7941.9895609993,10261.0187307870,14136.9412121606,2274.8482626236,-5505.0554089973,-2673.9487184161,-5473.4680680449,-20400.7863627334,-7868.8373676998,-2241.9346427175,-4637.7176440643,1022.7800918460,-20880.9723501539,11117.8436056649,13351.5163822397,18690.3975557260
561471958743,45218,5,0,7941.3690084613,10260.4103459458,14144.3756749194,2278.3768947022,-5511.7719776436,-2669.5318444694,-5473.3828941672,-20404.8503734722,-7875.2375762286,-2245.1955854661,-4631.4999509878,1016.7692496155,-20887.2508817146,11111.5650741043,13344.5929627474,18686.6620728014
561471958743,45218,5,0,7938.1324011064,10257.9159680971,14146.0061462937,2278.6445840323,-5514.6070510033,-2667.1956466794,-5475.1472102065,-20411.3844266661,-7880.4210150752,-2249.0527453590,-4632.1691743131,1011.4884691943,-20888.8083469079,11110.1657889696,13340.8574798228,18683.2429499942
561471958743,45218,5,0,7936.1612342211,10253.4625910599,14142.1976571881,2272.1592016257,-5512.8914057513,-2672.6711102497,-5479.2477240358,-20412.5646932580,-7878.7297052168,-2247.8724787671,-4640.6622266955,1013.3622945051,-20882.9191816456,11116.1401281097,13345.3595276473,18685.8955079016
561471958743,45218,5,0,7938.7772890380,10253.7789511773,14138.3770003857,2268.1681970678,-5507.1360851540,-2680.9329763925,-5480.9633692879,-20406.8945465385,-7869.9202927170,-2241.2654193923,-4646.0890194785,1020.0180246672,-20874.1949430236,11124.4871681302,13353.3172013695,18693.9383555015
561471958743,45218,5,0,7943.0603183197,10257.8794650067,14138.0606402683,2271.7698353274,-5501.3929322536,-2673.9730538097,-5474.6605023336,-20402.1613124744,-7864.9558724132,-2237.6394457390,-4641.5748039572,1024.0820354061,-20868.1110946121,11125.8012793871,13355.3735421325,18692.2713810368
561471958743,45218,5,0,7943.3036722562,10260.5685260045,14144.1688240734,2278.2065469467,-5504.6295396085,-2666.5142556573,-5471.8497643675,-20401.4312506650,-7868.0342997095,-2237.8341288882,-4631.0254108117,1020.8210926575,-20874.2192784172,11122.0049579784,13352.7088165283,18690.7869220244
561471958743,45218,5,0,7943.5713615863,10263.2697546992,14152.8322242113,2284.0348737249,-5506.9657373985,-2660.6737611823,-5470.7303362598,-20408.4520117318,-7872.5363475339,-2240.4380160083,-4627.1074124347,1015.6133184173,-20880.6438223397,11116.6876744667,13346.3207756963,18687.4773084885
561471982709,45220,5,0,7942.0138963929,10263.0750715501,14144.7285381273,2276.7342556311,-5503.5466145912,-2664.4822502878,-5470.2557960837,-20404.7408642008,-7868.0221320126,-2236.7147007805,-4630.5508706356,1022.2447131858,-20875.0466818012,11121.7616040419,13348.8273212418,18693.8531816238
561471982709,45220,5,0,7938.1689041969,10261.4324324790,14150.0214862452,2278.9609441497,-5509.5452891250,-2660.6859288791,-5471.1440379518,-20409.3524212967,-7875.3714208937,-2241.8738042334,-4627.0100708602,1015.7958338697,-20881.3252133618,11116.5538298017,13341.2103430306,18688.1221964202
561471982709,45220,5,0,7937.5118485685,10258.8163776620,14149.4374367977,2278.1822115531,-5510.5673756581,-2666.1370570558,-5474.4049807003,-20409.9243030474,-7877.4886001409,-2245.3294301311,-4633.6658010223,1014.5547287937,-20881.1426979095,11116.6025005890,13340.9791567910,18687.0636067966
561471982709,45220,5,0,7939.1544876396,10257.9281357940,14144.4243457067,2273.5463190635,-5507.5376191492,-2674.3380847144,-5475.8164335318,-20405.1789012864,-7872.5728506244,-2240.7787115194,-4640.4188727590,1021.5511544669,-20875.0953525885,11122.8323613623,13349.7642338972,18696.2988886852
561471982709,45220,5,0,7942.7317905055,10261.4080970853,14142.4775142150,2274.7387533522,-5498.8863867081,-2674.5084324699,-5469.7690882108,-20395.7246008550,-7863.4957487945,-2234.1959875381,-4635.8073156631,1032.2952307616,-20870.1917707688,11126.7868628298,13358.9630126953,18706.9821264957
561471982709,45220,5,0,7949.7038807850,10270.8137267295,14151.7614668909,2284.6310908692,-5495.1265683898,-2661.4403260821,-5459.8767506937,-20390.9305283068,-7861.4029049410,-2229.1098902662,-4620.9262224487,1035.3614903610,-20873.1606887936,11123.1000506924,13359.1090250572,18707.3958281877
561471982709,45220,5,0,7948.4506080123,10273.0404152481,14160.0111653369,2289.6928527476,-5499.0689021604,-2653.8720186582,-5456.4454601896,-20393.1207137349,-7866.3186544574,-2230.7768647309,-4612.1898161298,1031.3096473189,-20882.4568091663,11118.0139534204,13353.9012508170,18701.9203646174
561471982709,45220,5,0,7943.4618523149,10269.1102491742,14156.8718995566,2287.0767979306,-5503.0842421120,-2656.2447195387,-5460.3877939603,-20397.3794076229,-7869.7377772647,-2234.5245153524,-4619.7094527664,1026.9779472500,-20885.7299196117,11114.4609859481,13350.0805940146,18698.8054342307
561472013582,45221,5,0,7938.0958980160,10265.0097353449,14146.1643263524,2280.3115584971,-5502.7313789041,-2667.4755037063,-5467.8100890223,-20395.6272592804,-7870.6503545264,-2237.1892409566,-4633.4346147827,1028.1582138418,-20881.6050703887,11114.2176320117,13349.6182215353,18696.7734288613
561472013582,45221,5,0,7939.3735061824,10263.1845808215,14139.4964284934,2275.5174859489,-5498.8012128303,-2671.1379804500,-5467.6397412667,-20394.6416758378,-7866.3064867606,-2234.5731861397,-4635.9654957218,1031.6381751331,-20876.8596686278,11122.2726473085,13355.2396974675,18704.3782393756
561472013582,45221,5,0,7947.0756582713,10269.9133171646,14148.5856980201,2283.1344641600,-5496.9273875196,-2661.7810215931,-5461.8114144886,-20392.9503659794,-7864.0067920611,-2231.4217526625,-4625.7081273001,1032.1005476124,-20875.5698927646,11124.1708080128,13354.8624988660,18704.2322270137
561472013582,45221,5,0,7951.0058243451,10274.6343835319,14160.7412271463,2292.2115659899,-5498.9958959795,-2652.0955349221,-5457.6500621751,-20394.4956634759,-7865.7711081004,-2232.6750254353,-4616.7040316511,1029.6913436415,-20878.7456616353,11117.9774503300,13350.9079973985,18700.8374396001
561472013582,45221,5,0,7948.9129804915,10271.4464469642,14159.7434760068,2287.9407044051,-5502.5610311486,-2655.5511608198,-5463.3080411978,-20400.9932135793,-7870.0784727757,-2234.6583600174,-4622.8852216372,1022.3785578509,-20883.8074235137,11113.2563839627,13347.8539054960,18698.4160679324
