timestamp,sequence,battery,flags,EEG-ch1,EEG-ch2,EEG-ch3,EEG-ch4,EEG-ch5,EEG-ch6,EEG-ch7,EEG-ch8,EEG-ch9,EEG-ch10,EEG-ch11,EEG-ch12,EEG-ch13,EEG-ch14,EEG-ch15,EEG-ch16
561169761976,37823,-2,0,4705.7837400919,7858.0811237083,12541.6588170983,11.7539951310,-6505.3009263272,-3814.3539354495,-6715.8750875451,-20646.3913231044,-9094.0270961954,-3062.7674703932,-5278.7605834842,-170.7857926068,-22143.6629202579,9460.4572860183,12103.0741851154,15869.4387242952
561169761976,37823,-2,0,4704.0680948398,7856.6696708768,12547.8035039939,13.1046094783,-6506.8827269142,-3809.0974904220,-6720.1094460395,-20652.2318175795,-9094.3799594033,-3063.0351597233,-5282.9706065850,-177.1616657420,-22144.1617958277,9457.4762002967,12097.9394170561,15863.6712360011
561169761976,37823,-2,0,4702.1577664386,7853.7615913361,12544.7980828786,9.6246481869,-6507.4667763617,-3815.0353264716,-6723.8449289641,-20652.9862147825,-9096.7526602838,-3064.7264695817,-5290.2833923755,-177.5631997372,-22144.7458452752,9457.9020696855,12097.8299077847,15864.6568194438
561169761976,37823,-2,0,4699.1280099297,7848.9188480006,12533.4212863492,0.5718817507,-6507.9169811442,-3825.5360488298,-6727.6047472824,-20654.2638229489,-9095.6210644792,-3066.1744255036,-5292.8751117988,-174.4726047442,-22143.2248831723,9459.7150565121,12100.7988258095,15871.7627543884
561169761976,37823,-2,0,4700.3569473088,7846.9355134185,12531.1094239528,-0.7543972030,-6507.5762856331,-3827.4828803215,-6725.6700834875,-20651.2097310463,-9094.8423318826,-3065.2375128483,-5287.4848221063,-171.9052207145,-22142.9450261454,9461.7957326689,12103.0498497217,15880.3044775581
561169761976,37823,-2,0,4704.8833305270,7854.3456407836,12540.8070783207,5.2199419370,-6505.4469386891,-3818.6856355185,-6723.0053578833,-20650.4918369338,-9095.0126796381,-3063.4975322026,-5282.5690725898,-172.2824193160,-22144.8918576370,9462.1485958767,12103.8042469247,15879.7447635042
561169761976,37823,-2,0,4707.3168698916,7856.0977891261,12548.5700688937,10.4155484804,-6506.5298637064,-3813.0033211022,-6721.5939050519,-20652.0614698239,-9097.5557282741,-3064.3614386770,-5284.1873762673,-176.3099269644,-22147.0455399747,9458.7173053727,12101.3098690760,15873.4783996404
561169761976,37823,-2,0,4707.1221867424,7854.4429823582,12548.5822365906,9.8680021234,-6509.6326263962,-3818.2719338265,-6726.3028037223,-20654.5193445822,-9100.9505156877,-3066.7949780416,-5290.9161126103,-178.0499076101,-22149.4547439456,9454.4707791815,12097.0876782785,15871.2030403345
561169786845,37824,-2,0,4704.2506102922,7850.8656794923,12540.7462398366,3.6381413501,-6512.5407059369,-3830.4396306494,-6729.9287773756,-20655.1398971201,-9100.7314971449,-3068.0482508144,-5294.2622292366,-177.3806842848,-22148.0311234174,9454.4342760910,12096.6131381024,15872.8943501929
561169786845,37824,-2,0,4704.4696288350,7852.3623062015,12533.8593234348,1.7643160393,-6512.6258798147,-3833.1165239505,-6728.7728461774,-20652.4143330318,-9099.8797583673,-3068.2794370540,-5289.2004673583,-175.2270019472,-22144.7336775783,9459.2648517297,12097.6960631196,15877.7370935284
561169786845,37824,-2,0,4709.2758690801,7859.0788748478,12542.0968541839,9.1379403140,-6511.3361039514,-3825.3048625902,-6726.6921700207,-20653.6797735014,-9099.6850752181,-3064.7751403690,-5283.7128360912,-177.3685165880,-22147.2402231239,9458.7781438568,12096.0047532612,15875.4617342225
561169786845,37824,-2,0,4712.1839486207,7862.6318423201,12551.2469621948,13.2992926275,-6512.4920351496,-3817.4932012298,-6725.4997357320,-20654.9817170614,-9101.0478572623,-3063.1325012979,-5284.2968855387,-179.7777205590,-22151.5719231928,9457.6587157491,12094.3621141901,15872.0304437185
561169786845,37824,-2,0,4710.0911047672,7861.3542341537,12550.3830557203,12.6544046959,-6513.6357986510,-3819.4887035088,-6727.7872627347,-20655.9794682009,-9101.9604345240,-3066.0162454449,-5291.2568081214,-179.1206649305,-22151.5475877992,9455.0304932353,12095.3720330264,15871.8357605693
561169786845,37824,-2,0,4707.2195283170,7857.3632295957,12543.3379592599,7.3492888811,-6512.1270042449,-3828.6874823069,-6729.4055664122,-20653.9961336188,-9102.0699437954,-3066.4786179242,-5292.8142733147,-175.8962252724,-22150.2943150264,9455.1034994162,12096.9294982198,15877.7249258316
561169786845,37824,-2,0,4707.0126774710,7855.5380750723,12537.5704709658,4.2586938880,-6511.3726070419,-3832.0944374174,-6726.1324559668,-20650.9420417162,-9099.8067521863,-3067.1965120368,-5286.9981142334,-172.6717856144,-22146.9360307033,9457.2328463603,12099.1196836479,15880.8155208246
561169786845,37824,-2,0,4710.3709617941,7862.0112897821,12543.4718039249,11.6323181627,-6508.0629935060,-3823.2850249175,-6721.5574019614,-20649.7982782149,-9097.8599206947,-3066.0405808386,-5282.5204018025,-172.5136055557,-22146.1086273193,9456.9408216365,12097.3431999117,15872.5171515914
561169820846,37825,-2,0,4713.9604323569,7866.6593499685,12554.5200726401,17.5336511219,-6506.7732176428,-3813.2223396450,-6720.4501415505,-20649.3845765229,-9095.7670768411,-3063.5340352930,-5281.5104829662,-174.5212755315,-22146.7778506446,9460.8953231040,12100.2269440588,15870.7893386425
561169820846,37825,-2,0,4712.1717809239,7863.3984072199,12555.3718114178,17.5458188187,-6506.0674912271,-3813.3561843100,-6723.1392025484,-20652.7306931492,-9095.7549091443,-3062.4754456694,-5286.1098723653,-174.1684123236,-22146.2546396812,9462.1242604831,12101.9912600981,15871.8235928725
561169820846,37825,-2,0,4708.9595089627,7858.8720240018,12544.4330519739,11.0361010184,-6505.5807833542,-3823.2120187366,-6724.9643570718,-20652.9253762984,-9094.0635992859,-3064.4222771611,-5291.5001620578,-171.5158544162,-22145.4759070845,9463.8277380383,12102.3319556092,15875.3765603448
561169820846,37825,-2,0,4705.8567462728,7856.0126152484,12533.9931680998,4.7575694578,-6505.0454046940,-3827.9939235880,-6722.9566870960,-20651.4652526796,-9092.3966248212,-3063.9234015914,-5288.2148839156,-168.5712717850,-22143.4682371088,9465.2878616571,12102.4414648806,15877.7370935284
561169820846,37825,-2,0,4707.0370128646,7857.8377697718,12537.4974647849,7.4222950620,-6503.1472439896,-3820.7906470688,-6722.1049483184,-20651.6964389192,-9091.8369107673,-3061.8062223442,-5283.0314450691,-170.4207617021,-22140.9008530791,9465.2391908698,12101.6627322839,15877.0557025063
561169820846,37825,-2,0,4709.6774030752,7861.7922712393,12546.9761006099,12.3502122753,-6503.8286350117,-3812.4436070483,-6720.5353154283,-20652.2683206699,-9092.5548048799,-3061.5385330141,-5282.3013832597,-174.2414185045,-22138.5281521986,9465.8475757109,12102.1737755505,15873.0403625548
561169820846,37825,-2,0,4710.2979556132,7860.0401228968,12546.9882683067,10.8900886565,-6505.3252617209,-3813.3196812196,-6723.6745812086,-20655.3345802693,-9095.1830273936,-3062.8404765741,-5287.8255176173,-174.7402940743,-22139.8665988492,9468.5488044056,12105.3008736340,15876.4473176652
561169820846,37825,-2,0,4705.7472370014,7853.6885851552,12537.8259925991,2.9932534184,-6510.8128929880,-3826.7041477248,-6729.0770385980,-20656.3688344993,-9097.4583866995,-3066.5394564083,-5294.6150924445,-174.0710707490,-22139.5989095191,9467.8309102930,12105.4833890863,15885.6339287665
561169852016,37826,-2,0,4700.4177857930,7845.7309114330,12524.9160662699,-4.8670787292,-6514.8160652428,-3837.8010872273,-6732.6908445544,-20657.8654612085,-9100.2447892720,-3071.6620567708,-5295.8318621268,-173.4261828174,-22141.0103623505,9467.0156746059,12104.8263334579,15886.4613321505
561169852016,37826,-2,0,4700.1987672502,7846.1446131250,12524.7213831208,-4.1613523134,-6515.5704624458,-3833.4693871583,-6732.5691675862,-20657.7072811498,-9103.2015395999,-3072.5259632452,-5292.2180561704,-176.6749578691,-22142.7746783899,9463.9372473097,12102.1129370663,15879.5865834455
561169852016,37826,-2,0,4701.8414063212,7850.4033070130,12536.7065644914,0.9247449585,-6516.5560458885,-3824.2584406634,-6732.4961614052,-20662.3918444266,-9104.0411106807,-3071.0901750201,-5292.1328822926,-182.9169863393,-22147.4470739699,9459.8732365708,12098.4139572322,15872.0304437185
561169852016,37826,-2,0,4704.5304673191,7851.1942073065,12540.4907182033,2.2388562154,-6516.1910149838,-3821.4963734846,-6734.2604774445,-20663.0854031455,-9105.1727064853,-3070.7008087218,-5296.3915761807,-183.5983773614,-22147.8364402682,9459.3378579106,12098.1827709925,15869.8524259872
561169852016,37826,-2,0,4704.6399765905,7851.1090334287,12537.6556448436,0.9977511395,-6513.8183141033,-3827.0935140231,-6733.9562850240,-20659.2039078590,-9102.7391671207,-3068.5957971714,-5298.2775691882,-179.1815034146,-22144.2591374022,9464.5212967572,12103.0620174185,15878.3576460664
561169852016,37826,-2,0,4705.0415105857,7850.8291764018,12533.6646402856,-2.1050115504,-6511.3969424355,-3832.9340084981,-6731.3523979039,-20655.7726173549,-9098.5291440199,-3064.9576558213,-5292.6925963465,-174.8619710425,-22140.4263129030,9467.2103577551,12105.3982152085,15885.2202270745
561169852016,37826,-2,0,4707.4385468598,7853.3600573410,12536.4997136454,1.4601236188,-6509.8759803327,-3829.6122272655,-6727.0937040158,-20654.7140277313,-9097.5070574868,-3064.5439541293,-5287.6430021650,-175.1418280694,-22139.2460463112,9465.3730355348,12105.2156997562,15881.8011042673
561169852016,37826,-2,0,4710.5169741560,7857.1563787497,12546.6354050989,7.4709658493,-6513.3437739272,-3823.4310372794,-6727.7994304316,-20656.2836606215,-9100.9140125972,-3067.8779030588,-5288.4339024585,-180.0940806764,-22141.0955362283,9462.6596391433,12102.1859432473,15872.9186855865
561169880723,37827,-2,0,4707.3898760725,7854.1631253313,12550.9792728647,7.7508228762,-6515.5096239617,-3821.9100751766,-6732.6786768576,-20662.2823351552,-9103.8707629252,-3069.7395606727,-5294.1405522684,-183.9512405692,-22143.0545354168,9461.2603540087,12098.3044479608,15867.5770666813
561169880723,37827,-2,0,4703.0825113972,7847.7142460151,12544.0315179788,2.7012286947,-6518.3812004119,-3831.7050711190,-6737.2050600757,-20662.8663846027,-9106.7423393754,-3074.8013225511,-5301.5750150272,-183.8904020851,-22142.8963553581,9461.2238509182,12096.5036288310,15869.3170473269
561169880723,37827,-2,0,4701.1721829960,7844.8913403522,12532.9832492635,-3.5651351691,-6517.8458217517,-3840.7700052521,-6737.4605817090,-20661.2602486221,-9105.7567559328,-3077.6242282140,-5302.2320706557,-181.7245520506,-22143.5899140770,9460.6032983802,12096.7104796770,15874.8655170782
561169880723,37827,-2,0,4700.5394627612,7844.8548372617,12531.1337593465,-4.7454017609,-6517.1035922455,-3840.6969990712,-6735.5867563982,-20660.1773236048,-9104.4548123727,-3076.1276015048,-5296.6714332076,-182.1625891363,-22144.5876652165,9455.0426609321,12093.9119094077,15872.2737976549
561169880723,37827,-2,0,4703.9464178716,7849.1622019371,12541.4763016460,3.6624767437,-6514.8160652428,-3825.7428996758,-6731.0725408769,-20660.5788576000,-9102.8730117857,-3073.8035714116,-5291.6826775102,-181.4933658110,-22143.5534109865,9460.2017643851,12099.4360437653,15871.9817729312
561169880723,37827,-2,0,4710.7116573052,7857.8499374687,12554.4227310656,12.4597215467,-6511.2874331641,-3819.5495419929,-6729.9287773756,-20657.5247656974,-9099.1618642547,-3071.3700320470,-5291.5001620578,-180.2400930382,-22141.9229396122,9464.1806012462,12102.0520985822,15872.7361701342
561169880723,37827,-2,0,4712.1352778335,7858.7016762463,12554.3132217942,11.7539951310,-6508.8295584059,-3823.1876833430,-6731.1212116642,-20657.8532935117,-9097.8599206947,-3068.2551016603,-5294.8827817746,-177.3076781039,-22141.6187471917,9465.8354080141,12101.7479061617,15877.3963980174
561169880723,37827,-2,0,4708.4241303025,7852.8003432871,12542.7904129028,1.8373222203,-6511.4334455260,-3834.4549706010,-6733.8102726621,-20658.5590199274,-9098.3709639612,-3071.1145104137,-5297.5840104693,-177.5875351308,-22141.7769272504,9464.8619922682,12099.4603791589,15878.1872983109
561169909161,37828,-2,0,4706.0392617252,7850.6709963431,12535.6479748678,0.7665648998,-6513.6236309541,-3836.3531313054,-6732.9098630972,-20659.3134171304,-9098.9185103183,-3072.3312800960,-5295.5520050999,-178.9503171750,-22139.3920586731,9464.5943029381,12097.9637524497,15877.0557025063
561169909161,37828,-2,0,4707.0856836519,7850.0017730179,12540.4298797192,6.0108422305,-6513.4046124113,-3826.6676446343,-6731.7782672927,-20662.2336643679,-9099.6607398245,-3070.9806657487,-5291.0864603659,-181.7367197475,-22142.1662935487,9462.0634219990,12094.8731574567,15873.7095858800
561169909161,37828,-2,0,4706.4407957203,7851.8025921476,12546.8544236417,9.8436667298,-6514.6457174873,-3821.0705040958,-6732.8976954004,-20665.8109672339,-9102.5566516683,-3071.4430382280,-5295.5763404935,-184.7299731659,-22147.5079124540,9460.0314166295,12091.2593515003,15869.3657181142
561169909161,37828,-2,0,4706.1731063902,7851.6809151794,12544.3357103993,7.4831335461,-6515.1080899665,-3826.1200982773,-6735.3555701586,-20664.1683281628,-9103.7734213506,-3073.1221803895,-5301.3316610908,-183.0508310043,-22147.7269309968,9460.2504351724,12092.4517857889,15867.8690914050
561169909161,37828,-2,0,4706.3799572362,7850.5371516781,12536.3537012835,3.1392657803,-6513.5749601668,-3834.7469953248,-6734.6498437429,-20659.7757896097,-9102.9095148762,-3073.8765775925,-5301.5263442399,-178.8529756004,-22145.5854163559,9461.4063663705,12094.3377787965,15870.7650032489
561169909161,37828,-2,0,4707.8644162486,7852.1311199619,12534.2608574300,2.1293469440,-6513.7088048319,-3834.6861568406,-6732.2528074688,-20659.8609634874,-9102.5444839715,-3073.4628759006,-5296.7079362981,-179.7290497717,-22143.2127154755,9460.6398014707,12092.9749967523,15868.4774762462
561169909161,37828,-2,0,4711.2835390559,7857.7039251068,12542.4132143013,8.6634001379,-6512.7475567829,-3824.1489313920,-6731.3402302070,-20661.9051365537,-9102.9460179667,-3072.9274972404,-5294.3352354176,-184.6326315913,-22142.9450261454,9457.7560573236,12088.7284705611,15858.6703126069
561169909161,37828,-2,0,4713.2790413348,7860.9161970680,12551.2226268011,13.1046094783,-6512.5042028464,-3817.0064933569,-6732.7638507353,-20664.7767130039,-9100.9748510813,-3069.1311758316,-5294.2378938430,-187.2121833178,-22144.4538205514,9457.4031941158,12087.5482039693,15858.7554864846
561169941010,37829,-2,0,4711.5633960828,7858.7746824272,12550.8697635933,12.3380445785,-6512.0053272767,-3820.9366594307,-6733.8589434494,-20665.9083088084,-9099.1496965579,-3067.7318906970,-5299.4335003864,-185.7763950927,-22143.5655786833,9458.0237466538,12088.7771413484,15862.1502738982
561169941010,37829,-2,0,4708.7404904199,7855.5015719818,12541.3059538904,7.0450964605,-6510.4600297802,-3830.6708168891,-6734.3821544128,-20661.7956272823,-9098.3587962644,-3069.2041820125,-5300.6137669782,-182.2112599236,-22143.3952309278,9459.4230317884,12091.4175315590,15866.8226694782
561169941010,37829,-2,0,4709.2758690801,7855.6475843437,12539.8214948780,7.6778166953,-6508.7200491345,-3833.1165239505,-6733.0802108527,-20660.5788576000,-9096.5823125283,-3068.8269834110,-5294.9557879556,-182.4059430727,-22142.4704859693,9460.0800874168,12092.7438105127,15870.2539599823
561169941010,37829,-2,0,4709.9572601022,7859.0788748478,12545.7106601403,10.3303746027,-6509.8638126358,-3826.8866631771,-6733.2262232146,-20663.7667941676,-9097.6043990614,-3068.6809710491,-5293.0576272512,-186.7133077480,-22144.5146590355,9456.6853000032,12090.8943205956,15867.6865759527
561169941010,37829,-2,0,4712.7801657651,7860.9040293712,12550.2978818426,11.2429518644,-6512.7475567829,-3821.6423858464,-6735.0027069507,-20666.1029919576,-9100.4638078148,-3071.6863921644,-5296.1603899410,-190.2662752203,-22146.5466644050,9453.5460342229,12089.2273461308,15862.9655095854
561169941010,37829,-2,0,4712.5854826159,7861.0500417331,12548.8377582238,10.4155484804,-6515.8381517759,-3828.5536376419,-6739.4195808975,-20668.1593327207,-9103.3718873555,-3073.6940621402,-5302.6214369540,-191.2275232694,-22147.2888939112,9449.7132097237,12085.9785710791,15862.5274724997
561169941010,37829,-2,0,4707.7427392804,7854.0171129694,12537.1202661833,1.5087944060,-6519.3059453704,-3841.0133591886,-6742.3641635286,-20669.3030962220,-9105.4160604217,-3075.5922228446,-5307.0018078103,-190.8016538806,-22149.3452346742,9454.0570774895,12088.3147688691,15864.6933225342
561169941010,37829,-2,0,4706.0270940283,7852.8368463776,12530.0386666324,-0.2676893301,-6517.9918341136,-3843.7145878833,-6740.4660028242,-20668.4878605349,-9105.0145264266,-3078.3907931139,-5304.5317653552,-189.0981763253,-22151.0243768358,9455.8092258320,12087.5603716661,15866.3116262117
561169967029,37830,-2,0,4707.4263791630,7853.9441067885,12535.1612669948,4.5142155213,-6517.8944925390,-3834.9295107771,-6738.5556744230,-20670.7267167503,-9105.7324205391,-3078.2812838425,-5299.3118234182,-190.9963370297,-22153.0928852957,9455.0548286290,12085.3215154507,15863.0871865536
561169967029,37830,-2,0,4708.4728010898,7855.5502427691,12544.9562629373,7.8724998444,-6518.5515481674,-3827.8357435293,-6738.2879850929,-20672.8925667848,-9106.6571654977,-3078.2082776615,-5299.7498605038,-193.8800811768,-22153.8837855892,9453.1201648341,12083.7153794701,15861.5662244507
561169967029,37830,-2,0,4706.5624726885,7853.7007528520,12546.2460388005,5.6336436290,-6520.9729198352,-3831.6198972413,-6741.6706048097,-20674.0728333766,-9108.9933632877,-3080.9946802340,-5305.6511934629,-194.5493045020,-22152.8982021465,9453.1566679246,12085.2241738761,15862.3571247442
561169967029,37830,-2,0,4702.7539835830,7849.1743696339,12534.2730251268,-3.7233152278,-6522.3843726667,-3842.5099858978,-6744.1893180521,-20673.1602561149,-9110.1127913954,-3082.5886485178,-5310.0437320160,-191.4222064185,-22149.8806133344,9454.3734376069,12089.2273461308,15866.4819739672
561169967029,37830,-2,0,4699.5538793185,7845.5118928902,12527.0332455171,-9.8193313361,-6523.3577884125,-3849.3725669059,-6745.3087461598,-20674.1336718608,-9109.2975557082,-3083.9514305619,-5307.7927081038,-191.8359081105,-22148.0311234174,9457.8777342919,12090.6022958718,15868.4044700652
561169967029,37830,-2,0,4703.0216729131,7849.4663943576,12529.8074803928,-4.1491846166,-6524.9760920899,-3845.0895376243,-6744.3474981108,-20673.4766162323,-9108.8351832290,-3083.6107350509,-5302.8647908905,-194.2451120814,-22146.9725337938,9458.1089205315,12089.4341969768,15863.7077390916
561169967029,37830,-2,0,4703.1311821845,7850.9751887637,12538.1788558069,0.6692233253,-6523.3821238061,-3834.1872812709,-6742.1694803795,-20674.4378642813,-9107.5210719721,-3081.4935558037,-5302.5727661667,-195.1090185559,-22146.0721242289,9455.5902072892,12086.5991236171,15856.9546673548
561169967029,37830,-2,0,4701.2938599642,7850.5858224654,12542.6444005410,2.3118623964,-6521.2649445589,-3831.6077295444,-6743.7269455728,-20676.7010558904,-9106.0974514438,-3078.3786254170,-5305.2739948614,-195.0603477686,-22146.2059688939,9457.9142373823,12088.3634396564,15860.6779825827
561170042122,37831,-2,0,4695.9765764526,7845.1711973791,12532.5087090874,-4.8062402451,-6520.2428580258,-3840.9646884013,-6745.6007708835,-20676.1048387461,-9105.9271036883,-3078.0014268155,-5308.4740991258,-192.7484853722,-22145.0987084830,9458.7416407663,12088.7528059548,15863.9145899376
561170042122,37831,-2,0,4695.1613407655,7842.6281487432,12521.8984774578,-8.9919279522,-6518.2351880500,-3844.9921960497,-6742.7048590397,-20673.5374547164,-9103.3597196586,-3077.4538804585,-5304.9089639567,-189.3171948682,-22145.7435964146,9460.0679197200,12091.0281652606,15867.8325883145
561170042122,37831,-2,0,4699.6268854995,7849.6854129005,12528.9435739183,-3.0905949930,-6515.6434686267,-3835.9515973102,-6738.4461651516,-20671.4202754692,-9101.9117637367,-3073.3533666292,-5296.6592655108,-187.9300774303,-22147.3132293048,9461.2725217055,12091.0768360479,15868.1246130383
561170042122,37831,-2,0,4705.0050074952,7855.1487087740,12541.3181215873,5.6093082354,-6513.6844694382,-3825.6090550107,-6733.9076142367,-20670.1670026965,-9099.8919260641,-3069.9829146092,-5293.9093660288,-189.2076855967,-22147.1550492461,9461.2238509182,12091.6243824050,15863.8294160598
561170042122,37831,-2,0,4708.0225963073,7855.7814290088,12546.8787590353,8.0063445095,-6514.2928542794,-3823.2120187366,-6733.2748940019,-20668.2080035080,-9101.2303727146,-3070.8954918709,-5297.6691843471,-187.5528788288,-22147.4957447572,9460.9683292849,12094.0335863759,15863.6469006075
561170042122,37831,-2,0,4706.9640066837,7852.1067845682,12541.9751772157,4.1613523134,-6516.0936734092,-3832.6784868649,-6734.5281667746,-20666.3828489845,-9101.8387575558,-3071.8202368295,-5301.3438287876,-185.4722026721,-22145.0743730894,9460.5181245025,12093.0723383269,15871.4707296646
561170042122,37831,-2,0,4703.6787285415,7849.1865373307,12533.4334540460,-1.2167696823,-6514.2685188858,-3838.5189813399,-6732.8733600067,-20662.7690430281,-9099.8797583673,-3070.4452870885,-5296.7566070854,-180.2644284319,-22141.3023870743,9464.8376568746,12095.2746914518,15879.2580556313
561170042122,37831,-2,0,4708.9716766595,7855.3068888327,12539.0427622814,6.4853824066,-6507.8804780537,-3830.2814505907,-6726.2419652382,-20659.0943985876,-9094.2826178287,-3068.1942631762,-5288.6650886981,-178.0499076101,-22138.2969659590,9467.7335687185,12097.4283737895,15879.4527387805
561170048308,37832,-2,0,4713.0478550952,7862.6805131074,12552.0378624883,13.5548142608,-6505.2644232368,-3819.5738773865,-6723.5894073308,-20660.1894913017,-9094.5624748557,-3066.1744255036,-5286.7790956905,-181.2256764809,-22140.4993190840,9466.1152650410,12095.7370639311,15875.6564173717
561170048308,37832,-2,0,4715.7125806994,7862.6926808042,12558.7787665282,16.7427508284,-6507.1747516380,-3817.9799091027,-6725.8525989399,-20661.8199626759,-9096.1686108363,-3067.9630769366,-5291.3176466055,-182.8439801583,-22141.8621011281,9463.4262040431,12094.7271450948,15871.7019159042
561170048308,37832,-2,0,4715.0190219805,7861.8044389361,12552.8652658722,13.4574726862,-6508.8782291932,-3826.6554769375,-6728.9796970234,-20662.3188382457,-9097.9937653597,-3072.0514230691,-5298.8859540294,-183.3793588186,-22142.0811196709,9461.0778385563,12095.1286790900,15874.3301384180
561170048308,37832,-2,0,4710.8576696670,7856.9008571165,12542.1820280617,7.4831335461,-6509.7664710613,-3835.8177526452,-6729.6367526518,-20660.8465469301,-9097.9572622693,-3073.7062298370,-5296.9512902345,-180.7389686080,-22142.3853120915,9458.5469576171,12093.8510709236,15878.6131676997
561170048308,37832,-2,0,4713.4128859999,7860.3321476205,12543.5326424090,9.8071636393,-6510.9710730467,-3835.5135602246,-6727.9211073998,-20659.5324356732,-9098.4439701422,-3073.5358820815,-5293.6538443955,-182.7223031901,-22145.1108761799,9459.0823362773,12092.9019905714,15876.4838207557
561170048308,37832,-2,0,4721.2245473602,7867.5597595334,12554.3740602783,19.7238365500,-6507.9169811442,-3822.9199940129,-6724.3559722307,-20660.8830500206,-9099.0523549833,-3072.1000938564,-5290.4537401311,-183.7687251169,-22148.1771357792,9460.1774289914,12091.5270408304,15873.7582566673
561170048308,37832,-2,0,4724.4246516246,7871.0640562184,12564.5949256095,23.0334500858,-6507.2477578189,-3818.6491324280,-6726.7530085048,-20663.1949124169,-9098.8820072278,-3069.0825050443,-5293.0576272512,-185.3505257039,-22149.4182408552,9461.6497203070,12091.7460593732,15871.5194004519
561170048308,37832,-2,0,4722.9158572186,7868.6426845506,12560.7012626262,17.9716882075,-6507.8561426601,-3824.8546578077,-6730.4276529453,-20664.3265082215,-9098.0546038438,-3069.6178837045,-5298.6060970024,-184.5474577136,-22147.3984031826,9462.3432790259,12091.4905377399,15872.1277852930
561170066603,37833,-2,0,4720.4579824603,7865.2600648338,12551.5389869185,13.2992926275,-6506.1161620144,-3834.4306352074,-6731.1090439674,-20663.9858127104,-9096.3024555013,-3071.2726904724,-5300.2609037704,-183.0751663980,-22144.1009573436,9463.6208871923,12091.7338916764,15875.4008957384
561170066603,37833,-2,0,4720.7256717905,7865.1870586529,12547.0004360036,12.6544046959,-6506.7367145523,-3833.9439273344,-6730.2086344025,-20665.3120916641,-9094.6841518239,-3070.3601132107,-5296.5132531489,-183.4401973027,-22142.3366413042,9462.6109683560,12092.2449349429,15874.2692999339
561170066603,37833,-2,0,4724.6801732579,7872.7918691672,12558.4624064108,20.0280289706,-6504.8993923321,-3822.0925906289,-6729.2960571408,-20666.3341781972,-9093.7107360780,-3068.0239154207,-5292.2667269577,-186.4821215084,-22142.1906289423,9463.9494150065,12091.2836868939,15872.6144931660
561170066603,37833,-2,0,4725.9942845148,7875.2010731382,12564.4610809445,23.8973565603,-6505.3739325082,-3816.5076177872,-6728.9918647202,-20666.7235444956,-9094.5381394620,-3069.0216665602,-5293.9580368161,-186.1414259974,-22141.7404241599,9465.9327495887,12092.4152826985,15872.9308532834
561170066603,37833,-2,0,4725.0087010721,7871.8549565119,12559.7886853645,20.7337553863,-6506.3351805572,-3823.5648819445,-6732.0094535323,-20668.7920529555,-9096.0347661712,-3069.6665544918,-5301.1369779416,-184.5109546231,-22140.1951266634,9466.0665942537,12093.2061829919,15876.6298331175
561170066603,37833,-2,0,4720.7135040936,7869.1658955140,12549.9815217252,15.2826272096,-6507.7222979950,-3832.8731700140,-6731.6687580213,-20666.7965506765,-9095.2316981809,-3069.0216665602,-5300.9301270956,-181.1648379968,-22139.7935926682,9466.6384760044,12094.0822571632,15882.0444582037
561170066603,37833,-2,0,4720.4458147635,7872.3903351721,12547.2559576369,16.6940800411,-6504.5343614274,-3831.4252140921,-6727.4830703142,-20662.7447076345,-9094.4894686747,-3068.1820954794,-5294.4690800826,-179.1206649305,-22138.8323446192,9468.1229350168,12095.5788838724,15881.9957874165
561170066603,37833,-2,0,4725.0938749499,7878.0483141947,12557.2456367285,25.1749647267,-6500.3730091140,-3819.3791942374,-6722.3969730422,-20659.6906157319,-9091.4475444690,-3063.6557122613,-5286.1342077589,-178.4757769989,-22138.8931831033,9467.3076993297,12095.8587408993,15880.5113284041
561170096907,37834,-2,0,4727.3570665590,7881.7716294226,12566.8459495218,29.8230249130,-6501.0057293487,-3814.2200907845,-6722.3969730422,-20660.8587146269,-9092.3357863371,-3063.1568366915,-5288.6407533044,-180.4591115811,-22139.4163940667,9464.6429737254,12093.2913568697,15876.3134730001
561170096907,37834,-2,0,4725.5562474292,7877.8657987424,12561.3826536483,24.4327352205,-6506.4568575254,-3822.8226524383,-6728.4199829695,-20662.5865275758,-9096.2416170172,-3070.2384362425,-5298.7521093643,-183.3671911217,-22141.1563747124,9464.1806012462,12092.5734627572,15872.6509962564
561170096907,37834,-2,0,4719.4845667145,7872.2078197197,12549.5313169427,16.2560429555,-6506.5907021905,-3834.5036413883,-6730.8535223341,-20661.8929688569,-9096.8013310711,-3072.9518326340,-5302.5849338635,-181.9922413807,-22143.6507525611,9463.6452225860,12092.7316428159,15875.5590757971
561170096907,37834,-2,0,4719.3993928368,7870.7355284041,12545.4794739007,13.8955097718,-6506.8827269142,-3836.1219450657,-6729.2838894440,-20662.6108629694,-9095.6575675697,-3071.8445722231,-5297.9368736772,-180.6659624270,-22143.7967649230,9464.3509490017,12093.4738723221,15878.4306522473
561170096907,37834,-2,0,4725.6535890037,7877.1844077203,12555.2501344495,23.0456177827,-6503.1837470801,-3824.3436145411,-6724.6114938639,-20660.7370376587,-9093.5890591098,-3068.9121572888,-5291.6705098134,-180.0210744954,-22142.1176227614,9464.7524829968,12093.7902324395,15875.0115294401
561170096907,37834,-2,0,4731.4697480851,7883.1465791635,12566.2740677711,30.5530867224,-6500.7502077155,-3814.0254076353,-6721.7642528074,-20659.6176095510,-9091.0825135643,-3064.6656310976,-5288.4582378521,-178.8773109941,-22140.6453314458,9465.9449172855,12095.2746914518,15875.0115294401
561170096907,37834,-2,0,4728.1479668524,7881.4552693052,12567.8558683581,29.1903046782,-6502.2590021215,-3817.9434060123,-6724.0152767196,-20658.6928645924,-9092.7859911195,-3065.3956929070,-5292.4370747132,-178.1472491847,-22141.2050454997,9466.5289667330,12096.5157965278,15874.7438401100
561170096907,37834,-2,0,4725.7752659720,7878.5228543708,12558.2190524743,24.1650458904,-6502.8430515690,-3828.4197929768,-6725.0982017369,-20655.7726173549,-9094.6841518239,-3068.9243249856,-5295.7831913395,-174.2170831109,-22139.8422634555,9467.0765130900,12096.9416659166,15883.4437433384
561170128562,37835,-2,0,4727.4422404367,7878.9973945469,12552.8165950849,22.3642267606,-6502.8430515690,-3831.9849281459,-6723.5285688467,-20652.7063577555,-9094.5624748557,-3069.3988651617,-5290.4294047374,-172.1607423478,-22138.0414443257,9465.9084141950,12095.3598653296,15884.2954821160
561170128562,37835,-2,0,4730.2286430092,7881.5404431829,12559.4723252471,28.3020628102,-6505.7876342002,-3825.7672350694,-6721.7764205042,-20655.1885679074,-9097.0081819171,-3069.1190081348,-5289.2126350551,-177.0643241675,-22141.9351073091,9464.2779428207,12093.1210091142,15874.3544738116
561170128562,37835,-2,0,4732.8933686134,7884.3268457554,12569.9000414243,32.3417381554,-6509.8394772422,-3821.3990319100,-6725.3780587638,-20659.9218019716,-9101.5223974384,-3073.5358820815,-5292.6560932560,-182.6249616155,-22147.4227385762,9464.0224211875,12092.0745871874,15865.4477197373
561170128562,37835,-2,0,4733.3800764863,7883.0857406794,12568.1478930818,29.8230249130,-6510.7155514135,-3824.5139622967,-6729.3203925344,-20661.3210871062,-9102.2646269446,-3075.2758627272,-5299.2996557213,-183.2090110630,-22149.1992223124,9465.1296815984,12094.0822571632,15866.3237939085
561170128562,37835,-2,0,4729.3282334443,7877.8171279551,12560.7255980198,23.6905057143,-6509.6447940930,-3833.6519026107,-6730.9143608182,-20660.5910252968,-9099.9284291546,-3073.7062298370,-5301.1126425480,-179.5952051066,-22147.7512663904,9465.6285571681,12095.3233622391,15872.7361701342
561170128562,37835,-2,0,4725.6779243974,7875.5539363460,12552.4515641802,19.6264949754,-6507.6979626014,-3837.6429071686,-6728.4564860600,-20658.2791629005,-9096.7161571933,-3073.4750435974,-5298.2045630073,-177.1008272579,-22145.2568885417,9465.9692526791,12095.1043436963,15876.9583609318
561170128562,37835,-2,0,4727.4544081335,7878.8270467914,12557.6350030268,24.9559461839,-6504.7412122734,-3827.2881971723,-6724.4289784116,-20658.1209828418,-9095.2682012714,-3071.4308705311,-5292.8021056179,-178.7556340258,-22143.1883800818,9465.1905200825,12094.2161018283,15872.6144931660
561170128562,37835,-2,0,4731.6887666279,7882.4895235351,12571.4088358304,30.8207760525,-6503.4514364102,-3817.1160026283,-6724.4654815021,-20660.9438885047,-9093.9419223177,-3067.6953876065,-5291.8895283562,-182.6006262219,-22142.1541258519,9465.3121970507,12092.5734627572,15872.5293192882
561170158194,37836,-2,0,4733.8789520561,7883.1344114667,12574.9374679090,30.8451114462,-6501.7114557645,-3815.8627298555,-6725.9986113018,-20661.0899008666,-9093.1145189337,-3067.1965120368,-5298.0828860391,-182.4789492537,-22140.0856173920,9466.0544265569,12093.4617046252,15872.1399529899
561170158194,37836,-2,0,4734.5360076845,7881.8203002098,12566.8094464313,28.3142305070,-6499.7037857887,-3823.7717327905,-6725.5362388225,-20657.9141319958,-9090.4984641168,-3068.0969216016,-5300.7232762496,-179.3883542606,-22136.8246746434,9468.9260030071,12095.6640577502,15874.6830016259
561170158194,37836,-2,0,4733.3314056990,7878.8027113978,12562.1127154577,24.6517537633,-6498.9737239793,-3828.3102837054,-6723.6502458149,-20655.6631080835,-9089.6710607328,-3067.9509092398,-5296.7079362981,-179.1571680210,-22137.7615872988,9467.2468608455,12093.8632386204,15876.0701190637
561170158194,37836,-2,0,4733.4287472736,7878.9973945469,12561.9910384894,25.6860079932,-6501.4194310407,-3825.3657010743,-6723.0540286706,-20658.2669952036,-9092.6278110608,-3070.9319949614,-5293.7755213637,-180.9214840603,-22142.5678275439,9463.6817256764,12089.4585323705,15869.7307490189
561170158194,37836,-2,0,4734.0492998116,7882.3800142637,12570.5205939623,31.9037010698,-6503.1837470801,-3817.2376795965,-6723.2122087293,-20660.7857084460,-9095.0126796381,-3071.7472306485,-5292.2302238672,-182.9048186425,-22145.0743730894,9461.5523787324,12087.3291854265,15868.9763518159
561170158194,37836,-2,0,4734.1344736893,7881.3944308210,12573.6841951363,31.3439870159,-6503.9503119799,-3816.7266363300,-6725.2320464019,-20661.5522733458,-9094.0270961954,-3070.0315853965,-5295.9048683077,-181.5177012046,-22144.5876652165,9463.0125023512,12089.6288801260,15869.8037551999
561170158194,37836,-2,0,4730.2286430092,7877.2452462044,12566.8946203091,25.3574801790,-6502.7700453881,-3827.6167249865,-6728.1036228521,-20661.3210871062,-9092.0680970069,-3069.5935483109,-5301.2343195162,-180.4347761874,-22141.4362317393,9464.5456321509,12092.2084318525,15869.1466995714
561170158194,37836,-2,0,4730.8126924567,7875.8702964634,12556.9779473984,21.6585003448,-6502.0521512755,-3832.9583438918,-6726.2784683287,-20658.5103491401,-9090.5714702977,-3068.9121572888,-5298.2288984009,-176.6506224755,-22138.3578044431,9466.3099481902,12095.6032192661,15878.7713477584
561170194673,37837,-2,0,4733.4652503641,7878.1213203757,12561.1027966214,25.3331447854,-6499.9714751188,-3826.1931044582,-6721.7642528074,-20655.9673005041,-9089.8170730947,-3066.2109285941,-5290.9404480040,-176.3220946613,-22139.0635308589,9467.3076993297,12095.5667161756,15878.6496707901
561170194673,37837,-2,0,4735.6067650049,7881.0902384005,12570.5936001433,31.6116763460,-6502.7335422976,-3817.4688658362,-6720.8638432425,-20660.2016589985,-9091.4232090753,-3067.5128721541,-5290.9039449135,-181.7610551411,-22142.7868460867,9463.9007442192,12091.6852208891,15871.0935310631
561170194673,37837,-2,0,4736.7261931126,7880.6156982244,12574.3169153711,32.2322288840,-6504.4978583369,-3817.3836919584,-6725.1955433114,-20662.5500244853,-9093.9419223177,-3069.7395606727,-5297.8151967089,-184.3406068676,-22143.3222247469,9462.0877573926,12089.4707000673,15866.4211354831
561170194673,37837,-2,0,4734.9740447701,7879.2285807866,12567.6733529057,26.0510388979,-6503.5731133784,-3827.9817558912,-6730.0139512533,-20664.1683281628,-9093.1145189337,-3070.8954918709,-5303.1081448269,-184.4987869263,-22140.7670084141,9462.1607635736,12090.6874697496,15868.5018116398
561170194673,37837,-2,0,4732.7838593420,7877.5251032313,12559.7643499708,21.1109539878,-6504.8020507575,-3836.2071189435,-6731.4862425689,-20663.4747694439,-9092.9685065718,-3072.1487646437,-5302.6579400445,-181.9435705935,-22138.1752889908,9465.0201723269,12092.3301088207,15873.2837164912
561170194673,37837,-2,0,4732.9177040070,7880.5548597403,12557.4646552713,21.2691340465,-6506.5907021905,-3834.9416784739,-6730.4398206421,-20663.5964464121,-9094.3921271001,-3074.5823040083,-5298.9832956039,-183.6713835423,-22136.2162898023,9466.9061653345,12093.2670214761,15871.6775805106
561170194673,37837,-2,0,4732.8203624325,7883.1587468604,12562.9401188416,25.6616725996,-6509.7421356676,-3827.1908555977,-6731.9121119577,-20667.2832585494,-9097.7869145137,-3074.6553101892,-5297.6326812566,-187.5042080415,-22139.4407294604,9465.6042217744,12090.9673267765,15868.0029360701
561170194673,37837,-2,0,4730.3259845838,7881.7594617257,12568.4277501088,27.0122869469,-6512.0053272767,-3825.9375828249,-6734.7350176206,-20670.9944060804,-9099.3200443134,-3076.2006076857,-5302.4997599858,-190.0594243744,-22144.3321435832,9464.5577998477,12088.6919674706,15866.6766571164
561170224888,37838,-2,0,4729.0727118110,7876.9775568743,12560.2145547533,21.2204632592,-6512.0418303672,-3834.0534366058,-6737.6796002518,-20671.2377600169,-9099.4173858880,-3076.6264770745,-5307.0991493849,-188.9034931762,-22143.8576034071,9465.7137310459,12090.6387989623,15871.7262512979
561170224888,37838,-2,0,4724.1326269009,7870.3096590153,12549.8233416665,14.6255715812,-6509.3162662788,-3840.1737881078,-6737.0590477138,-20668.3661835667,-9097.0081819171,-3075.9572537493,-5304.9211316535,-185.3018549166,-22141.4483994362,9467.9890903517,12093.8024001363,15877.4572365015
561170224888,37838,-2,0,4716.8685118976,7868.4236660078,12547.3898023019,13.6764912290,-6507.9413165378,-3834.6739891438,-6730.8170192436,-20664.4968559770,-9094.5259717652,-3072.1122615532,-5297.4258304106,-184.1459237184,-22139.4528971572,9470.0697665085,12097.4283737895,15880.1097944089
561170224888,37838,-2,0,4713.4493890903,7867.9734612253,12550.3708880235,18.2515452344,-6505.6416218383,-3824.8911608982,-6726.5218222652,-20664.3386759183,-9094.3921271001,-3070.1167592743,-5291.8286898721,-183.2820172440,-22139.1243693430,9469.9724249339,12096.7713181611,15877.3963980174
561170224888,37838,-2,0,4720.7378394873,7872.0739750547,12563.5241682891,24.5665798855,-6505.7024603224,-3817.7608905599,-6725.0860340400,-20665.5311102069,-9095.7549091443,-3069.5692129172,-5295.3573219507,-185.5452088530,-22142.0811196709,9466.1030973442,12093.7415616522,15875.1575418020
561170224888,37838,-2,0,4730.6910154884,7875.5296009524,12566.1888938933,24.3718967364,-6510.1558373596,-3827.8357435293,-6732.5569998893,-20669.1449161633,-9101.0965280496,-3075.2880304240,-5305.5173487979,-190.0594243744,-22145.7679318083,9461.5767141261,12089.8965694561,15873.9042690292
561170224888,37838,-2,0,4737.1520625014,7878.6323636422,12560.7012626262,20.6850845990,-6513.4532831986,-3841.6825825138,-6735.5259179141,-20670.9457352931,-9103.3110488713,-3081.1406925958,-5308.9973100892,-190.1080951616,-22145.2933916322,9460.7979815294,12088.8744829230,15875.8389328240
561170224888,37838,-2,0,4741.3985886926,7883.8036347920,12561.5286660102,22.7292576653,-6510.5452036579,-3839.5167324793,-6734.8931976793,-20669.5707855521,-9100.7680002354,-3079.5467243120,-5302.5727661667,-188.7209777238,-22142.4583182725,9459.8245657835,12086.4531112552,15873.9529398165
561170275033,37839,-2,0,4740.7658684578,7885.5192800440,12570.1920661481,28.9834538322,-6507.5276148458,-3826.5094645756,-6729.2473863535,-20670.0939965155,-9097.7260760296,-3074.5823040083,-5296.6714332076,-188.9521639635,-22140.9738592601,9465.2148554761,12090.0547495148,15877.0070317190
561170275033,37839,-2,0,4740.7658684578,7884.6797089632,12576.8234609166,32.9379552997,-6504.3761813687,-3817.3715242616,-6726.1081205732,-20669.0840776792,-9096.1321077458,-3071.3091935629,-5295.7831913395,-187.8570712494,-22142.3366413042,9465.7989049236,12093.5347108062,15877.7005904380
561170275033,37839,-2,0,4741.0213900911,7883.3047592222,12574.7062816694,30.4192420574,-6502.6970392071,-3819.1845110882,-6727.0206978349,-20666.5166936496,-9095.6210644792,-3071.3335289566,-5300.6989408560,-185.5208734594,-22141.6552502821,9465.5677186840,12096.1507656231,15880.3409806485
561170275033,37839,-2,0,4735.2417341002,7876.5273520919,12562.7089326020,21.5124879830,-6503.5244425911,-3830.8168292509,-6729.7705973169,-20665.0444023340,-9093.9175869240,-3072.1609323405,-5302.7309462254,-183.7200543296,-22142.7990137835,9466.0300911632,12097.6108892419,15886.1693074267
561170275033,37839,-2,0,4730.9708725154,7872.9257138323,12553.7413400435,17.3633033663,-6508.4401921076,-3836.4991436673,-6730.7926838500,-20667.1494138844,-9098.7238271691,-3077.0766818570,-5301.5628473304,-185.5817119435,-22144.4416528546,9464.1075950652,12096.0169209580,15885.7191026443
561170275033,37839,-2,0,4729.5229165934,7874.1059804241,12557.5863322395,20.8554323545,-6511.8836503085,-3830.4883014367,-6732.0337889259,-20670.9335675963,-9102.9703533603,-3078.6706501408,-5301.1004748511,-190.6556415187,-22147.1185461556,9459.8489011772,12092.5856304540,15882.3364829275
561170275033,37839,-2,0,4726.7973525051,7873.7044464289,12565.2641489348,21.6585003448,-6512.9665753257,-3826.0105890059,-6732.6908445544,-20674.1580072544,-9103.3232165682,-3077.9770914219,-5301.7210273891,-193.5758887562,-22147.9459495396,9458.5469576171,12090.4562835100,15879.0025339980
561170275033,37839,-2,0,4727.2110541971,7873.0838938910,12564.7774410619,20.2105444229,-6510.8493960785,-3829.2350286640,-6734.7350176206,-20672.6492128484,-9101.0721926559,-3077.1375203411,-5307.0383109007,-190.8624923647,-22142.2149643360,9461.9660804244,12089.1178368594,15884.6605130207
561170289619,37840,-2,0,4726.4079862068,7868.7156907315,12555.5421591733,15.5259811461,-6508.2211735647,-3838.4703105526,-6735.4042409459,-20670.9092322027,-9096.8865049488,-3076.4196262285,-5306.0770628517,-186.4334507211,-22137.6885811179,9470.4956358973,12096.2116041072,15889.6005979308
561170289619,37840,-2,0,4726.8825263829,7866.6350145748,12552.6949181167,13.8833420750,-6505.4956094764,-3839.2368754524,-6733.7616018748,-20669.9358164568,-9093.3457051734,-3073.2803604482,-5302.4875922890,-186.1292583005,-22135.7052465357,9473.1360261078,12098.6329757750,15890.8417030067
561170289619,37840,-2,0,4725.7996013656,7865.7711081004,12557.7080092078,15.9031797476,-6505.6416218383,-3831.0601831874,-6733.0680431559,-20673.6712993815,-9095.1343566063,-3074.2416084972,-5299.7133574133,-189.3415302618,-22135.3888864183,9471.6759024891,12098.7303173496,15885.8529473093
561170289619,37840,-2,0,4725.5562474292,7863.4957487945,12563.1834727781,17.3389679727,-6505.3982679018,-3823.7717327905,-6734.0657942954,-20675.0462491225,-9095.7670768411,-3074.3754531623,-5300.7354439465,-191.3370325408,-22134.2937937043,9472.0531010906,12099.4603791589,15884.3441529033
561170289619,37840,-2,0,4725.6414213069,7865.6737665258,12564.5705902159,16.8035893125,-6504.5708645179,-3824.3557822380,-6733.3600678796,-20674.0484979830,-9095.1221889095,-3072.1244292500,-5303.8990451204,-190.4609583695,-22134.1842844329,9472.8805044746,12101.1151859269,15887.5685925614
561170289619,37840,-2,0,4724.8383533166,7863.3862395231,12559.8130207581,13.2749572338,-6501.8939712168,-3831.0236800969,-6731.4862425689,-20670.2521765742,-9092.3966248212,-3069.8003991569,-5303.4123372475,-184.8029793468,-22131.3492110731,9473.3915477411,12102.3076202155,15895.5262662836
561170289619,37840,-2,0,4725.4467381578,7863.3010656453,12551.9283532169,14.1145283146,-6500.2148290553,-3834.5158090851,-6727.8359335220,-20667.8916433906,-9090.5958056914,-3068.3037724476,-5298.4235815501,-182.3572722854,-22132.8336700855,9473.1725291983,12102.3076202155,15898.6898674575
561170289619,37840,-2,0,4728.4886623635,7868.7765292157,12562.8549449639,19.5169857040,-6499.7767919696,-3824.5139622967,-6725.4632326416,-20667.0764077034,-9089.0626758917,-3064.4344448579,-5290.5267463120,-182.1990922267,-22135.4740602961,9474.7786651789,12102.3562910028,15899.7606247779
561170315758,37841,-2,0,4730.4598292488,7872.1226458420,12572.0902268525,25.4304863599,-6497.0755632749,-3813.1249980704,-6722.0197744407,-20667.1372461876,-9088.0162539649,-3059.2145029209,-5286.6817541160,-179.6803789844,-22136.6056561006,9474.9976837218,12104.8506688515,15897.5339362593
561170315758,37841,-2,0,4732.2971514691,7872.2808259007,12573.8545428918,25.5886664186,-6493.7416143454,-3811.7257129357,-6721.2288741472,-20664.1318250723,-9085.0960067274,-3056.1360756247,-5289.0422872996,-177.0886595611,-22132.4686391808,9478.2586264703,12109.1336981332,15898.0328118291
561170315758,37841,-2,0,4730.7396862757,7870.2123174408,12568.9509610722,21.7680096162,-6491.1985657095,-3817.5053689266,-6719.6592412570,-20660.2624974826,-9080.4966173283,-3052.8386297857,-5288.8597718473,-170.9074695750,-22126.8958340359,9483.2108790772,12114.8890187304,15905.7958024021
561170315758,37841,-2,0,4729.1457179919,7868.0586351031,12563.9987084652,17.8500112393,-6488.8136971322,-3821.3503611227,-6716.8363355941,-20656.6365238294,-9076.5786189513,-3050.5511027830,-5282.8732650104,-166.5757695061,-22121.7002274925,9487.5790822367,12119.0868741343,15914.0089977576
561170315758,37841,-2,0,4734.5360076845,7876.3813397300,12570.7517802020,23.5566610492,-6486.5140024326,-3812.3827685642,-6711.7867414126,-20654.1299782838,-9074.7047936406,-3047.3631662154,-5276.0471870927,-165.6875276380,-22120.0940915119,9489.5989199093,12120.7295132054,15916.0775062175
561170315758,37841,-2,0,4736.9087085650,7877.6224448059,12579.2448325844,28.2047212356,-6487.5725920562,-3805.9338892480,-6712.9426726107,-20658.6441938051,-9076.7489667069,-3048.7502836532,-5278.3955525795,-171.0291465433,-22122.7344817225,9487.2262190288,12119.2815572835,15910.5412041631
561170315758,37841,-2,0,4734.0492998116,7873.0230554069,12579.0014786479,24.4935737046,-6492.7560309028,-3812.0055699627,-6721.2897126313,-20666.6018675274,-9084.0252494070,-3055.1626598789,-5290.3320631628,-178.9138140845,-22129.8890874544,9481.4222276443,12114.7065032781,15902.5470273504
561170315758,37841,-2,0,4727.0407064416,7866.2699836701,12566.3714093457,14.6742423685,-6499.9106366347,-3827.7992404389,-6731.1090439674,-20672.1503372786,-9090.4254579359,-3063.6678799581,-5301.8305366605,-182.6858000997,-22132.7119931173,9476.7741674579,12110.4234739964,15900.3203388318
561170344406,37842,-2,0,4724.9843656785,7859.7967689603,12555.0797866940,9.0892695267,-6501.9061389136,-3837.8740934083,-6734.4794959874,-20672.0408280072,-9092.7008172417,-3067.9144061493,-5302.3537476239,-183.1360048821,-22134.4154706725,9474.6204851202,12107.5884006367,15903.7394616390
561170344406,37842,-2,0,4727.1988865003,7865.7832757972,12561.7111814625,13.9076774686,-6501.5532757058,-3831.9484250555,-6731.8512734736,-20670.6050397821,-9091.1190166548,-3068.2794370540,-5297.8030290121,-184.5961285009,-22135.0603586041,9475.8007517121,12106.1161093211,15903.2162506757
561170344406,37842,-2,0,4733.7572750878,7874.3128312701,12570.9829664416,22.7414253621,-6500.3000029330,-3821.2043487608,-6728.3834798791,-20670.3495181488,-9091.8734138578,-3067.9144061493,-5295.9170360046,-185.0341655865,-22134.5736507312,9472.4911381762,12105.8727553846,15895.1368999852
561170344406,37842,-2,0,4732.8081947356,7874.0086388495,12576.3002499532,24.9194430934,-6503.9016411926,-3821.8979074797,-6731.5470810530,-20671.9678218263,-9094.7571580048,-3069.9707469124,-5300.4312515259,-186.3239414497,-22138.2117920812,9467.7214010216,12102.9768435408,15884.2468113287
561170344406,37842,-2,0,4731.2142264518,7870.8085345851,12568.9387933753,19.7116688532,-6506.1283297112,-3834.3941321169,-6734.9053653762,-20671.7123001930,-9096.1686108363,-3071.8324045263,-5306.9166339325,-187.1878479241,-22137.1532024577,9467.3563701169,12102.3684586996,15878.1629629172
561170344406,37842,-2,0,4727.5274143145,7867.4745856556,12556.8684381270,13.4939757766,-6505.9701496525,-3842.2179611740,-6734.4429928969,-20670.4833628139,-9096.4606355600,-3073.3655343260,-5304.2519083283,-184.0485821438,-22137.0193577926,9472.1991134525,12103.5608929883,15875.8389328240
561170344406,37842,-2,0,4729.6080904712,7870.7355284041,12558.8882757996,16.4993968919,-6503.0742378086,-3834.6009829629,-6728.5173245441,-20670.2400088774,-9091.2771967135,-3068.6201325650,-5297.9490413740,-183.7322220264,-22132.6389869363,9476.5916520056,12103.5122222010,15867.0903588083
561170344406,37842,-2,0,4735.0470509511,7875.5782717397,12572.9054625396,25.4183186631,-6498.1219852017,-3821.0583363989,-6725.0616986464,-20670.6172074789,-9087.6998938475,-3062.5241164567,-5292.0963792022,-186.2144321783,-22129.7430750925,9478.2464587735,12102.9281727535,15860.5076348271
561170417118,37843,-2,0,4737.8091181299,7875.5539363460,12577.9550567211,26.4890759835,-6498.7425377397,-3817.0186610537,-6726.0716174827,-20671.2134246232,-9087.2983598524,-3062.3781040949,-5295.6858497649,-185.4478672785,-22128.6358146816,9477.0783598785,12101.7479061617,15855.2633574964
561170417118,37843,-2,0,4736.4585037825,7874.4831790256,12572.1023945493,23.0212823890,-6497.8542958716,-3825.1345148346,-6728.2374675172,-20669.8506425791,-9087.3470306396,-3062.9621535424,-5300.2000652862,-183.5862096645,-22126.6159770090,9476.3239626755,12102.2467817314,15854.9226619854
561170417118,37843,-2,0,4733.3922441831,7872.0983104483,12565.7265214141,18.0203589948,-6496.0534767418,-3831.2426986397,-6726.4244806906,-20666.9303953416,-9083.6237154118,-3060.9301481729,-5297.2676503519,-179.8993975272,-22125.0220087252,9475.0828575995,12103.0376820249,15857.1371828072
561170417118,37843,-2,0,4735.0713863447,7874.6535267811,12566.9676264900,22.4372329415,-6492.5735154504,-3825.9375828249,-6722.1292837121,-20664.2656697373,-9081.8228962820,-3059.3483475860,-5290.8187710358,-179.2666772924,-22125.4722135076,9475.0828575995,12101.4437137411,15852.9028243128
561170417118,37843,-2,0,4738.9893847217,7879.2650838770,12576.0568960168,28.5089136562,-6490.4563362033,-3814.1714199972,-6719.1116949000,-20666.2246689258,-9081.9810763407,-3058.6547888670,-5287.7525114364,-181.8097259284,-22129.1833610386,9473.9269264013,12098.8398266210,15845.2493430112
561170417118,37843,-2,0,4740.5711853087,7880.4088473784,12582.0920736409,30.6139252065,-6493.5347634995,-3811.4093528184,-6720.4501415505,-20668.4391897476,-9085.2298513925,-3057.9855655418,-5291.9747022339,-184.7421408627,-22132.4199683935,9472.5763120540,12095.8222378089,15841.2340030596
561170417118,37843,-2,0,4742.7126999495,7877.5129355345,12578.7702924083,28.2898951133,-6494.9827194214,-3819.1115049073,-6724.1369536879,-20667.6239540605,-9088.8801604393,-3061.1491667157,-5299.3726619023,-184.1945945057,-22131.6655711905,9472.0774364843,12094.6663066107,15839.6643701694
561170417118,37843,-2,0,4740.2183221008,7874.8968807176,12569.0726380404,23.6783380174,-6494.7758685754,-3829.0890163021,-6723.8935997514,-20664.1074896786,-9088.8314896520,-3062.2199240362,-5298.2045630073,-180.4956146715,-22129.9499259385,9472.7466598095,12097.0268397944,15841.8910586880
561170425701,37844,-2,0,4741.5446010545,7876.0893150062,12569.6566874879,25.9171942329,-6492.6221862377,-3825.2561918029,-6718.1139437605,-20661.1264039570,-9085.3393606639,-3058.3140933560,-5290.6970940675,-178.7069632385,-22129.3537087941,9474.0364356727,12099.3752052812,15844.9329828938
561170425701,37844,-2,0,4747.6892879501,7885.6896277995,12583.8198865898,33.5341724440,-6489.9331252399,-3812.9789857085,-6714.8895041024,-20658.9605539225,-9082.9544920866,-3054.7732935805,-5285.5866614019,-178.2689261529,-22129.8769197575,9473.3063738634,12101.2733659856,15839.8955564091
561170425701,37844,-2,0,4751.1692492415,7887.5634531103,12591.1083369867,37.6833570607,-6490.2981561446,-3807.9415592238,-6717.2378695892,-20660.9438885047,-9083.2708522040,-3055.4911876931,-5288.7502625759,-180.6781301239,-22131.3005402858,9472.1869457557,12102.1616078536,15835.2596639195
561170425701,37844,-2,0,4747.4459340136,7880.6887044053,12587.9569035096,31.3926578032,-6492.2693230299,-3816.2885992444,-6721.1193648758,-20662.1606581870,-9085.6313853876,-3056.9513113118,-5295.0774649238,-181.6393781729,-22131.7264096746,9472.5763120540,12101.2977013792,15835.6611979147
561170425701,37844,-2,0,4742.9195507955,7877.0383953584,12574.9009648186,23.9216919539,-6496.0169736513,-3830.1111028352,-6723.9544382355,-20659.9826404557,-9085.2055159988,-3060.0175709112,-5296.7322716917,-178.4271062116,-22130.7894970193,9474.1824480346,12102.0277631886,15839.3115069616
561170425701,37844,-2,0,4741.6297749323,7875.1158992604,12566.7486079472,21.0379478069,-6496.0656444386,-3830.3544567717,-6722.7011654627,-20660.7978761428,-9086.5439626493,-3063.7043830486,-5294.2135584494,-179.4856958352,-22131.0328509557,9473.6105662839,12100.4094595111,15835.5638563401
561170425701,37844,-2,0,4743.2845817002,7879.0095622437,12574.4264246425,26.2578897439,-6496.6740292798,-3823.0295032843,-6722.7255008564,-20664.4725205833,-9087.5782168793,-3064.2884324961,-5291.9503668403,-184.4014453517,-22133.7949181345,9472.2842873302,12098.2192740830,15830.2830759189
561170425701,37844,-2,0,4744.2214943556,7882.1244926304,12583.5521972597,31.1979746540,-6496.4793461306,-3815.8748975524,-6723.0296932770,-20665.5067748133,-9090.1699363026,-3064.3736063738,-5293.8850306351,-186.3726122370,-22135.0846939978,9472.1382749684,12098.5112988068,15825.6350157326
561170454677,37845,-2,0,4745.4747671283,7881.2727538528,12581.4715211030,30.8329437493,-6494.9462163309,-3819.5252065993,-6723.0296932770,-20663.7181233803,-9088.7219803806,-3065.4930344815,-5298.2288984009,-183.1968433662,-22133.5515641981,9469.7655740879,12101.1516890173,15827.3263255910
561170454677,37845,-2,0,4744.6473637444,7878.3525066153,12573.6111889553,26.4039021058,-6492.7803662964,-3827.7262342579,-6723.4798980594,-20660.7370376587,-9087.1280120968,-3064.8846496404,-5299.4700034769,-180.2035899478,-22132.4808068776,9467.8917487772,12102.4049617901,15831.4025040267
561170454677,37845,-2,0,4741.7514519005,7876.4665136078,12565.0451303920,22.5102391224,-6497.8664635684,-3833.1408593441,-6724.4168107148,-20661.4305963776,-9091.2285259262,-3067.5737106383,-5297.0973025964,-181.4568627205,-22136.2284574991,9467.8917487772,12100.8231612031,15830.1492312539
561170454677,37845,-2,0,4740.6320237928,7879.4962701167,12569.6931905784,26.2822251376,-6500.8353815932,-3826.1079305805,-6723.0661963674,-20663.7302910771,-9094.8910026699,-3069.6787221886,-5294.0553783907,-185.3018549166,-22138.6498291669,9467.7335687185,12099.1926898288,15825.5741772485
561170454677,37845,-2,0,4742.2381597734,7882.3556788701,12582.3475952742,31.5021670746,-6500.3608414171,-3818.4422815820,-6724.2099598688,-20665.9569795957,-9095.0370150317,-3067.2816859145,-5293.9945399065,-187.2973571955,-22139.2703817048,9469.1815246404,12099.8375777605,15822.9581224315
561170454677,37845,-2,0,4741.4715948736,7877.5616063218,12579.5855280954,29.7256833384,-6501.8331327327,-3823.5648819445,-6728.7120076933,-20666.6262029210,-9095.8157476284,-3067.1600089463,-5300.4799223132,-187.4312018606,-22138.7958415288,9469.4248785769,12100.2512794524,15826.6571022657
561170454677,37845,-2,0,4737.9672981886,7873.7896203067,12567.3813281820,23.2889717191,-6502.7700453881,-3834.6861568406,-6731.2915594197,-20664.6672037325,-9096.5093063473,-3068.5836294746,-5302.7674493159,-183.2820172440,-22136.4353083451,9468.4271274374,12103.2810359613,15833.5926894548
561170454677,37845,-2,0,4735.4850880367,7870.1879820471,12559.8251884550,19.7116688532,-6502.0399835787,-3836.3409636086,-6728.6024984219,-20663.2679185979,-9094.1974439510,-3065.0428296991,-5297.2919857456,-182.2842661045,-22136.8246746434,9468.6583136770,12102.1737755505,15835.0041422862
561170470750,37846,-2,0,4734.8645354987,7872.9987200132,12566.2984031648,24.1772135872,-6498.7303700429,-3826.4972968788,-6725.1712079178,-20663.6329495026,-9093.2361959020,-3061.4046883490,-5290.6240878866,-182.8074770679,-22137.9806058416,9465.7258987427,12095.7979024152,15829.5043433223
561170470750,37846,-2,0,4738.8312046630,7878.5350220677,12576.5557715865,29.1659692846,-6498.7912085270,-3817.2863503838,-6724.0639475069,-20665.1052408181,-9094.0027608018,-3061.1248313221,-5291.2081373341,-185.8980720609,-22138.3213013527,9467.2833639360,12093.5103754125,15824.8562831359
561170470750,37846,-2,0,4736.2881560270,7877.4034262631,12577.1763241245,27.4624917294,-6502.0764866692,-3820.9001563402,-6727.0085301381,-20665.0444023340,-9096.6918217997,-3062.4024394885,-5296.7931101758,-185.1436748579,-22140.1342881793,9470.0332634180,12096.0047532612,15830.1005604666
561170470750,37846,-2,0,4733.0028778848,7874.5805206002,12567.9897130231,22.1573759146,-6503.6096164689,-3831.0115124001,-6729.1865478694,-20664.1439927691,-9097.1055234916,-3064.1789232247,-5299.4091649928,-182.7466385838,-22139.2825494017,9472.1382749684,12099.0345097701,15836.2087442717
561170470750,37846,-2,0,4730.1921399187,7873.7531172162,12559.2533067043,19.7846750341,-6502.8673869627,-3836.9980192370,-6729.0405355075,-20661.0777331697,-9095.9860953839,-3065.8824007799,-5298.0707183422,-180.5929562461,-22137.6642457242,9474.5596466361,12102.1372724600,15835.5030178560
561170470750,37846,-2,0,4729.4864135030,7875.6877810111,12562.9401188416,20.9649416259,-6505.0454046940,-3831.8267480872,-6728.8458523583,-20664.8740545785,-9097.8720883915,-3068.1334246921,-5296.9634579313,-184.6204638945,-22138.5524875923,9473.4158831348,12100.6649811444,15830.7576160950
561170470750,37846,-2,0,4730.7275185789,7874.3493343606,12569.8513706371,22.8996054208,-6507.0895777602,-3825.1953533187,-6731.6322549308,-20668.8528914396,-9099.0280195897,-3067.5007044573,-5299.9202082593,-190.6678092155,-22139.4528971572,9469.8750833593,12097.5378830609,15820.3055645241
561170470750,37846,-2,0,4729.6080904712,7870.2853236217,12569.1699796150,20.6607492054,-6507.4546086649,-3828.3589544927,-6735.0878808285,-20670.8970645059,-9100.8045033258,-3071.3091935629,-5307.6588634387,-192.1401005311,-22139.8057603651,9469.2666985182,12100.2512794524,15823.5786749695
561170512111,37847,-2,0,4728.8901963586,7866.9270392986,12560.8594426849,14.9540993954,-6508.9512353741,-3839.4437262984,-6737.4484140122,-20670.1426673028,-9099.8675906705,-3074.2294408004,-5310.9198061873,-189.9377474061,-22138.5889906828,9469.8507479657,12101.5897261030,15828.8959584811
561170512111,37847,-2,0,4727.4909112240,7863.7147673373,12553.6926692562,10.2938715122,-6508.3793536234,-3846.8660213604,-6736.3654889949,-20669.4126054934,-9098.4561378390,-3075.8599121747,-5308.9364716051,-188.9521639635,-22136.1189482277,9469.8142448752,12100.5919749635,15830.3925851904
561170512111,37847,-2,0,4727.2110541971,7865.5034187703,12556.2113824985,14.5647330971,-6508.3671859266,-3841.0011914917,-6734.5403344715,-20670.3373504520,-9099.0766903770,-3080.3862953928,-5305.7485350375,-190.8989954551,-22135.8025881103,9469.9480895402,12098.6208080782,15827.4114994687
561170512111,37847,-2,0,4730.8126924567,7872.1834843261,12567.3326573947,23.5201579587,-6507.9291488410,-3831.5955618476,-6733.2992293955,-20672.4058589119,-9099.7945844895,-3082.4061330654,-5304.6291069298,-193.4177086975,-22136.6056561006,9467.8552456867,12097.1363490658,15823.7733581187
561170512111,37847,-2,0,4730.1313014346,7869.8837896265,12570.5327616591,22.4372329415,-6511.2996008610,-3833.8709211535,-6736.4019920854,-20674.4500319781,-9101.9604345240,-3083.4647226890,-5310.5912783730,-194.3789567465,-22140.0369466047,9466.2491097061,12096.1629333199,15823.6030103632
561170512111,37847,-2,0,4727.6977620700,7864.8341954450,12562.1005477608,17.0591109458,-6510.7763898976,-3843.6902524896,-6738.6651836944,-20671.8218094644,-9101.4128881670,-3083.6107350509,-5314.8864753515,-189.7430642570,-22138.0171089321,9471.2135300098,12100.5798072667,15826.8639531117
561170512111,37847,-2,0,4727.9046129160,7864.1284690293,12553.6318307721,12.9220940260,-6508.8538937995,-3847.5595800793,-6736.7183522028,-20669.9358164568,-9099.3565474039,-3080.2889538182,-5311.1509924269,-188.3072760319,-22136.3501344673,9471.4203808558,12102.5874772424,15832.5949383153
561170512111,37847,-2,0,4727.8437744319,7862.7048485010,12554.7755942734,13.0559386910,-6509.0120738582,-3843.7875940642,-6736.3898243886,-20672.4788650928,-9099.0888580738,-3078.4759669916,-5307.3790064118,-191.1788524821,-22136.6543268879,9469.0841830658,12100.1661055747,15828.4700890923
561170537133,37848,-2,0,4730.4598292488,7863.5687549754,12563.9135345875,18.0446943884,-6509.2189247042,-3833.9195919408,-6738.0567988533,-20677.5162915775,-9099.6364044308,-3077.3322034903,-5307.8413788911,-196.0215958176,-22138.6498291669,9464.1806012462,12096.9294982198,15823.6395134536
561170537133,37848,-2,0,4732.9298717039,7866.0144620368,12569.8878737275,22.7900961494,-6509.1945893106,-3832.3134559602,-6741.0378845749,-20679.4387876756,-9099.4295535848,-3076.9306694951,-5312.9883146472,-199.0148492360,-22140.3411390253,9460.7006399548,12094.1795987378,15821.1208002113
561170537133,37848,-2,0,4731.3359034201,7862.1451344471,12565.6413475363,18.2758806281,-6511.4334455260,-3840.8916822203,-6745.4182554312,-20679.0129182868,-9101.2547081083,-3077.0888495538,-5318.0135734350,-197.4573840427,-22141.0590331378,9462.8664899893,12094.3134434028,15826.7666115371
561170537133,37848,-2,0,4728.8780286618,7857.8012666814,12555.3231406305,12.5935662117,-6511.8714826116,-3846.9755306318,-6743.5565978173,-20676.1170064429,-9100.9505156877,-3075.4948812700,-5314.9716492293,-194.3059505656,-22138.7106676510,9468.2567796818,12097.0633428848,15833.7630372103
561170537133,37848,-2,0,4730.4476615520,7857.7769312877,12557.8175184792,14.8324224272,-6509.8516449390,-3840.4901482252,-6738.6165129072,-20672.7830575134,-9098.5899825040,-3072.6354725166,-5307.0261432039,-192.1644359247,-22136.8125069466,9470.5929774719,12097.3310322149,15833.7873726040
561170537133,37848,-2,0,4732.8081947356,7860.5146630729,12570.8004509892,21.2447986529,-6506.9313977015,-3826.1809367614,-6734.7471853175,-20672.9777406626,-9096.9351757361,-3067.4276982764,-5301.4168349685,-193.3325348197,-22137.9319350543,9471.4082131590,12096.3454487723,15830.1127281634
561170537133,37848,-2,0,4734.9862124669,7863.1915563739,12580.3155899048,26.0023681106,-6504.9845662098,-3819.5860450834,-6735.0027069507,-20673.6226285942,-9095.7792445379,-3065.6633822371,-5303.7652004554,-193.9530873577,-22137.0193577926,9470.8850021956,12096.3697841659,15826.5110899038
561170537133,37848,-2,0,4736.5558453571,7863.0820471025,12576.7261193420,23.4106486873,-6504.4491875496,-3825.1466825315,-6736.4141597822,-20670.8118906281,-9094.6354810366,-3064.3979417675,-5307.9143850720,-192.3469513771,-22134.1477813424,9472.8683367777,12099.8132423668,15830.2465728285
561170565820,37849,-2,0,4735.8014481541,7858.3731484320,12569.4498366419,17.6674957869,-6505.4591063859,-3835.2580385913,-6736.4871659631,-20669.9114810632,-9092.6643141513,-3064.3614386770,-5307.7197019228,-189.6335549856,-22129.4997211560,9472.6736536286,12099.6185592176,15834.2619127800
561170565820,37849,-2,0,4735.6797711858,7859.1153779382,12568.6102655611,17.9595205107,-6507.1017454570,-3836.4261374863,-6736.2559797235,-20671.3229338947,-9093.9905931050,-3066.1500901100,-5303.8260389395,-189.0008347508,-22131.8967574301,9474.0607710664,12102.0277631886,15837.1213215334
561170565820,37849,-2,0,4738.8190369662,7859.0302040605,12576.0690637136,22.5710776066,-6507.8196395696,-3827.7870727420,-6734.8080238016,-20673.2332622959,-9095.2560335746,-3066.7584749511,-5301.6601889050,-190.6678092155,-22133.6489057726,9474.5596466361,12100.1417701810,15833.6048571516
561170565820,37849,-2,0,4739.8289558025,7859.7237627794,12583.8807250739,24.7004245506,-6508.6105398631,-3824.1489313920,-6735.4650794300,-20674.0484979830,-9095.7792445379,-3066.5759594988,-5302.8404554968,-192.1401005311,-22133.2595394743,9474.3771311838,12100.1296024842,15834.0428942372
561170565820,37849,-2,0,4737.7117765553,7854.3091376932,12581.8730550981,19.0546132247,-6509.3771047629,-3830.6099784050,-6735.9031165156,-20672.7708898166,-9095.0126796381,-3069.1311758316,-5307.1356524753,-188.8061516016,-22130.1689444813,9476.3848011596,12102.4414648806,15840.2727550106
561170565820,37849,-2,0,4732.3093191659,7847.0206872962,12568.8292841039,11.7661628278,-6508.6957137408,-3840.6726636775,-6735.8909488188,-20670.9457352931,-9093.2726989924,-3071.5038767121,-5308.4862668227,-184.9976624960,-22124.5231331554,9479.5849054240,12105.2887059371,15847.7680562535
561170565820,37849,-2,0,4731.7496051120,7846.8625072375,12565.7630245045,11.1212748962,-6509.5961233057,-3840.2589619855,-6735.4772471268,-20671.6392940120,-9093.0901835401,-3073.7062298370,-5306.0405597613,-186.3969476306,-22125.4235427203,9478.2221233798,12101.7114030712,15845.0911629525
561170565820,37849,-2,0,4731.8469466866,7849.0283572720,12569.8878737275,15.2096210287,-6511.1414208023,-3834.2724551487,-6736.3168182076,-20676.6037143158,-9096.3024555013,-3077.3808742776,-5307.1234847785,-191.1423493916,-22128.4046284420,9475.6182362597,12097.8542431783,15842.0370710499
561170598182,37850,-2,0,4730.5328354297,7849.6975805973,12573.5868535617,14.2118698892,-6514.8404006364,-3831.4617171826,-6739.2979039292,-20679.4144522819,-9099.0036841960,-3080.6418170261,-5311.5038556348,-194.0747643259,-22131.7020742810,9473.6592370712,12095.2868591487,15841.7207109325
561170598182,37850,-2,0,4729.1092149015,7849.4055558735,12571.5305127986,13.5304788671,-6515.5582947490,-3838.2634597066,-6743.9581318124,-20679.7794831866,-9101.6440744066,-3081.9072574957,-5318.3786043397,-194.1234351132,-22132.2131175475,9473.2090322888,12095.8952439898,15846.9041497791
561170598182,37850,-2,0,4727.2597249844,7843.7110737604,12559.7521822740,7.1546057319,-6518.2230203532,-3849.5794177519,-6746.0874787564,-20679.9498309421,-9101.9847699176,-3083.4282195986,-5320.1915911663,-192.4564606485,-22131.6290681000,9474.0972741569,12098.6938142591,15852.1605948066
561170598182,37850,-2,0,4728.5373331508,7845.6700729489,12554.9459420290,6.7409040399,-6516.9210767932,-3850.2243056835,-6744.4691750790,-20676.9322421300,-9101.2912111987,-3083.9027597746,-5316.3465989703,-190.9111631520,-22130.1811121781,9473.9877648855,12099.5090499462,15852.5986318922
561170598182,37850,-2,0,4731.5914250533,7852.0216106905,12564.2420624017,16.9861047648,-6513.8426494969,-3838.6649937017,-6739.2735685356,-20677.2851053379,-9098.8820072278,-3078.9383394709,-5310.0193966224,-191.8115727169,-22130.4122984177,9473.6470693744,12097.8907462688,15851.0046636084
561170598182,37850,-2,0,4731.8347789898,7853.0436972236,12571.9198790970,21.0136124132,-6516.9332444900,-3832.9826792854,-6740.9892137876,-20677.1390929760,-9100.9383479909,-3077.4052096712,-5312.5381098647,-194.6344783798,-22133.1256948093,9471.0796853448,12095.4085361169,15847.8288947376
561170598182,37850,-2,0,4729.8514444077,7852.2162938396,12570.4110846909,19.7481719436,-6518.5637158642,-3835.6474048897,-6743.6417716950,-20678.5627135043,-9104.1749553458,-3080.5323077547,-5318.7436352444,-192.9310008246,-22133.2473717775,9470.5443066846,12094.3742818870,15847.0136590505
561170598182,37850,-2,0,4727.4787435272,7849.7705867782,12560.3849025088,15.0636086668,-6520.2915288131,-3845.6492516781,-6744.6273551377,-20676.5063727412,-9104.1749553458,-3079.6075627962,-5320.2645973473,-189.9499151029,-22131.1180248335,9469.2301954277,12096.3697841659,15856.8573257803
561170628218,37851,-2,0,4727.8559421287,7849.5759036291,12556.6007487969,12.4840569403,-6520.8755782606,-3847.6569216539,-6743.9581318124,-20675.9709940810,-9104.3209677077,-3078.5003023853,-5315.0933261975,-189.4997103205,-22132.7971669950,9470.9823437702,12095.9439147771,15858.0740954625
561170628218,37851,-2,0,4730.3746553710,7854.9905287153,12562.7089326020,18.7990915914,-6518.7462313166,-3837.7645841368,-6740.3564935528,-20676.7497266777,-9103.7004151697,-3077.7459051822,-5311.7350418744,-192.4199575580,-22134.7805015772,9468.5974751929,12094.3742818870,15853.6207184254
561170628218,37851,-2,0,4734.7793616210,7856.4993231213,12574.3412507647,25.1384616362,-6517.1035922455,-3826.9109985708,-6739.0910530832,-20679.0250859836,-9101.6197390130,-3073.9009129862,-5309.6908688081,-194.2329443846,-22136.0459420468,9469.4248785769,12095.1408467868,15850.8829866402
561170628218,37851,-2,0,4735.1443925256,7855.3555596199,12578.9893109511,24.2137166777,-6516.0936734092,-3827.2151909914,-6740.6850213671,-20677.6744716362,-9099.4538889785,-3070.3236101202,-5313.2195008868,-192.9310008246,-22133.2108686870,9471.8827533351,12096.7469827674,15855.4215375551
561170628218,37851,-2,0,4733.9397905402,7853.1653741918,12571.4331712240,20.8554323545,-6513.1369230812,-3836.2314543372,-6739.5655932593,-20674.0363302862,-9096.5944802251,-3069.2528527998,-5311.9540604172,-187.8205681589,-22130.4609692050,9474.9490129345,12100.2634471493,15863.2210312187
561170628218,37851,-2,0,4734.1223059925,7855.1487087740,12564.7044348810,19.3344702517,-6512.1878427290,-3838.9570184255,-6736.4263274790,-20671.1039153518,-9094.1001023764,-3068.1699277826,-5306.5637707246,-185.9832459387,-22130.4244661146,9476.3117949786,12101.2490305919,15866.2751231212
561170628218,37851,-2,0,4738.0889751568,7861.1838863981,12574.9739709995,26.1118773820,-6511.3361039514,-3832.8123315299,-6733.6520926034,-20670.8240583249,-9094.7449903080,-3066.4299471369,-5300.6867731592,-188.6114684524,-22133.8070858313,9472.1991134525,12098.3896218385,15864.0606022994
561170628218,37851,-2,0,4740.3521667659,7864.2136429071,12582.4814399393,30.4192420574,-6512.0174949735,-3825.4995457393,-6734.0536265986,-20674.9367398511,-9096.4363001664,-3069.0338342570,-5302.6457723477,-192.1522682279,-22136.9220162180,9467.2225254519,12091.7947301605,15856.9546673548
561170659348,37852,-2,0,4737.5535964966,7863.0698794057,12581.7392104331,27.4989948198,-6514.5605436095,-3830.0624320479,-6738.4339974548,-20677.8569870886,-9098.1154423280,-3071.7350629517,-5307.8048758006,-193.3933733038,-22136.0581097436,9465.8597434077,12089.8722340625,15859.2665297512
561170659348,37852,-2,0,4734.5725107750,7857.5822481385,12572.1267299429,21.1596247751,-6516.6412197662,-3841.5122347583,-6739.7237733180,-20676.7618943745,-9098.5656471104,-3071.9784168882,-5310.0072289255,-190.5461322473,-22135.5348987802,9470.3009527481,12093.9119094077,15865.0461857421
561170659348,37852,-2,0,4732.3214868627,7853.0680326172,12561.8328584307,16.3533845300,-6517.5416293311,-3847.6812570475,-6738.7260221786,-20675.8979879001,-9098.5048086263,-3073.8887452894,-5306.6976153897,-188.5384622715,-22134.7439984867,9473.9025910077,12097.8055723910,15867.8082529209
561170659348,37852,-2,0,4733.1975610340,7856.0856214293,12565.6656829300,19.4561472199,-6516.4952074043,-3842.3883089296,-6736.3046505108,-20676.8957390396,-9098.4926409295,-3074.4484593432,-5303.2784925824,-192.5659699199,-22135.1333647850,9472.6736536286,12096.4062872564,15861.8217460840
561170659348,37852,-2,0,4737.7726150394,7860.4903276792,12577.4440134546,26.8662745851,-6516.3248596488,-3831.8997542682,-6735.7571041538,-20679.5361292501,-9097.9450945724,-3072.8666587562,-5303.0838094333,-194.9265031035,-22135.9486004722,9471.8462502446,12094.9704990313,15859.6802314432
561170659348,37852,-2,0,4739.6342726533,7861.5367496060,12583.2480048391,30.4435774510,-6515.4852885680,-3831.5955618476,-6736.9008676551,-20678.8547382281,-9098.1154423280,-3073.8765775925,-5307.3181679277,-194.5249691084,-22134.8413400613,9471.0188468607,12095.8222378089,15859.9722561669
561170659348,37852,-2,0,4737.8821243108,7860.9040293712,12575.6553620216,26.5134113772,-6516.7628967345,-3840.6969990712,-6737.0712154106,-20675.8858202033,-9098.7846656532,-3075.0203410939,-5311.8810542363,-190.6799769123,-22136.3866375578,9472.1017718779,12097.0268397944,15863.4522174583
561170659348,37852,-2,0,4735.2904048875,7857.9594467401,12566.2984031648,21.2447986529,-6517.8944925390,-3847.7055924412,-6737.2658985598,-20674.0728333766,-9099.4052181912,-3074.2537761941,-5309.1798255416,-188.2951083350,-22134.6223215185,9473.8660879172,12098.8154912273,15873.1863749166
561170690767,37853,-2,0,4736.6653546285,7861.3907372441,12570.3137431163,25.0654554553,-6517.4321200597,-3840.9768560981,-6732.4109875275,-20673.2210945990,-9099.5025597658,-3073.9982545608,-5304.2032375410,-187.0661709559,-22134.6831600026,9475.0341868122,12098.1097648116,15873.1255364325
561170690767,37853,-2,0,4743.5887741208,7866.5863437875,12581.3011733474,34.8726190946,-6515.0715868761,-3828.5049668546,-6730.5858330040,-20673.3427715673,-9098.7116594723,-3071.9054107072,-5300.5042577068,-187.8814066430,-22132.7728316014,9477.2487076340,12097.7934046942,15871.9939406280
561170690767,37853,-2,0,4745.0854008300,7864.3718229657,12589.2831824633,35.4079977548,-6511.8349795212,-3824.0880929079,-6729.6245849550,-20672.5883743642,-9095.1708596968,-3067.1721766431,-5299.9323759561,-185.2896872198,-22127.5163865739,9481.4708984316,12102.4171294869,15876.2282991224
561170690767,37853,-2,0,4738.7460307852,7861.2203894886,12582.2502536996,28.0587088737,-6511.1049177118,-3831.7172388158,-6732.5569998893,-20672.4301943055,-9095.4142136333,-3067.8900707557,-5304.1545667537,-183.7687251169,-22127.2730326374,9481.0085259523,12105.0453520007,15880.8885270056
561170690767,37853,-2,0,4730.3381522806,7855.7327582215,12565.5440059617,19.9428550928,-6515.6313009299,-3843.1548738294,-6735.4529117332,-20673.3306038704,-9098.2979577803,-3072.6354725166,-5306.6489446024,-185.4843703689,-22130.8990062907,9476.3848011596,12100.3729564207,15881.6064211181
561170690767,37853,-2,0,4730.8856986376,7859.0423717573,12565.8847014728,20.6120784181,-6520.6443920210,-3843.8240971547,-6737.1198861979,-20676.8349005554,-9102.8730117857,-3074.2781115877,-5304.6656100203,-190.5826353377,-22136.6664945847,9469.6804002101,12093.7537293490,15877.6762550443
561170690767,37853,-2,0,4738.2349875187,7867.3042379001,12578.7702924083,31.3561547127,-6520.8147397765,-3834.8200015057,-6737.9594572787,-20680.4487065119,-9105.5377373899,-3075.5678874509,-5305.6390257661,-195.3767078860,-22139.4650648540,9466.7236498822,12086.5747882234,15867.6135697717
561170690767,37853,-2,0,4741.9096319592,7869.9567958075,12583.2845079296,34.7387744295,-6520.3888703877,-3831.3035371239,-6739.1032207801,-20681.2031037149,-9105.6594143582,-3076.4074585317,-5310.2870859525,-195.1455216463,-22137.5547364528,9466.1517681315,12088.1200857200,15870.6311585838
561170732145,37854,5,0,4743.2480786097,7868.2898213427,12580.6076146285,32.0618811285,-6518.7583990134,-3837.0345223275,-6737.3632401344,-20676.5672112253,-9103.7855890474,-3074.1320992258,-5311.8202157522,-189.6457226824,-22133.9896012837,9469.5830586355,12092.4031150016,15879.9029435629
561170732145,37854,5,0,4741.6297749323,7865.7954434940,12572.1145622461,28.4724105657,-6515.9354933505,-3843.4712339468,-6734.4308252001,-20672.1260018850,-9100.0501061228,-3072.6354725166,-5307.7440373165,-185.0463332833,-22131.1180248335,9472.4302996921,12096.0412563517,15888.7245237595
561170732145,37854,5,0,4742.8222092209,7865.9779589464,12570.8491217765,29.9812049717,-6511.8471472180,-3837.0101869338,-6729.1865478694,-20669.4126054934,-9096.7648279806,-3069.7638960664,-5301.3924995749,-183.6348804518,-22129.5483919433,9475.5452300788,12098.8884974083,15890.2941566497
561170732145,37854,5,0,4749.4536039894,7875.0793961699,12583.3575141105,39.3868346159,-6508.3915213203,-3824.0029190301,-6725.3658910670,-20668.4026866571,-9093.1145189337,-3064.5804572198,-5295.1383034079,-184.5231223199,-22130.5461430828,9475.7399132280,12098.4382926258,15888.0309650406
561170732145,37854,5,0,4750.5121936130,7876.4056751236,12591.5707094660,42.6964481517,-6509.0729123424,-3820.2431007118,-6727.7994304316,-20671.7123001930,-9094.1366054669,-3065.8337299926,-5298.6791031834,-187.9057420367,-22131.5438942223,9474.3162926997,12095.5667161756,15883.6262587907
561170732145,37854,5,0,4746.1074873631,7870.6503545264,12584.4039360373,36.7099413148,-6513.5749601668,-3831.4008786984,-6731.4862425689,-20670.5685366916,-9099.0766903770,-3070.3722809075,-5305.8458766121,-187.2243510146,-22134.2329552201,9471.2378654035,12094.0944248600,15883.3220663702
561170732145,37854,5,0,4740.6806945801,7865.8319465845,12573.4773442903,29.5431678861,-6515.2662700252,-3842.1327872963,-6732.3744844370,-20670.4590274202,-9099.9040937609,-3071.9297461009,-5306.9044662357,-186.5186245989,-22137.0436931862,9468.0377611390,12091.9772456128,15881.5090795435
561170732145,37854,5,0,4740.8997131229,7864.9315370196,12572.6377732095,29.9690372749,-6516.2396857711,-3840.8065083426,-6730.2573051898,-20670.0088226378,-9100.1717830910,-3070.3722809075,-5302.4024184112,-187.2973571955,-22138.3578044431,9466.2977804934,12091.8068978573,15883.2368924924
561170779466,37855,5,0,4747.6527848596,7872.2321551134,12584.5012776119,37.6468539702,-6513.1369230812,-3828.3467867959,-6726.6800023238,-20670.6050397821,-9099.3808827975,-3067.5493752446,-5297.8882028899,-188.3924499096,-22138.8323446192,9466.9548361218,12090.9794944734,15882.4094891084
561170779466,37855,5,0,4752.5563666793,7876.0893150062,12596.7054775253,42.7207835453,-6511.1049177118,-3821.4233673036,-6727.0693686222,-20671.6514617089,-9099.2835412230,-3066.1014193227,-5300.1513944990,-190.4122875822,-22140.2559651475,9465.4825448062,12091.6608854954,15883.0300416464
561170779466,37855,5,0,4750.9502306986,7873.8626264876,12591.7167218279,38.4985927478,-6513.4411155018,-3828.5049668546,-6731.4010686911,-20672.1990080659,-9099.8919260641,-3069.4840390395,-5307.9022173752,-190.8259892742,-22139.7570895778,9463.3897009527,12089.9695756370,15885.9624565807
561170779466,37855,5,0,4748.1029896421,7871.2465716707,12579.5368573081,33.9600418328,-6515.4487854776,-3841.1228684600,-6734.3456513223,-20672.4910327897,-9102.9825210571,-3076.0302599302,-5312.1365758695,-189.6943934697,-22138.9175184970,9465.6772279554,12091.4905377399,15890.1481442878
561170779466,37855,5,0,4748.4436851531,7871.5385963945,12575.8500451708,33.4003277790,-6516.7263936440,-3842.7411721374,-6731.6200872340,-20669.4856116744,-9103.0068564508,-3076.9550048887,-5306.6732799960,-187.2973571955,-22136.5326499197,9466.0057557696,12093.6685554712,15891.2432370019
561170779466,37855,5,0,4752.0818265032,7878.6201959454,12588.4436113825,42.9032989977,-6512.2121781227,-3830.3909598621,-6727.5195734046,-20668.5243636254,-9099.8675906705,-3073.7427329275,-5299.5186742642,-186.8836555036,-22138.1874566876,9465.6650602586,12094.5324619456,15890.0994735005
561170779466,37855,5,0,4755.8416448215,7883.0127344985,12598.3116135059,50.0822401232,-6509.2919308852,-3819.1236726041,-6725.0130278591,-20668.2688419921,-9098.9063426214,-3071.5890505898,-5300.5407607973,-185.9710782418,-22139.5624064286,9466.9061653345,12095.4572069042,15889.0895546642
561170779466,37855,5,0,4757.0584145038,7882.2096665082,12598.3724519900,49.1088243774,-6508.5740367726,-3823.3093603112,-6725.0738663432,-20667.0034015225,-9097.7625791201,-3069.6300514013,-5302.9986355555,-182.1747568331,-22136.3623021642,9469.3153693054,12099.3143667971,15894.2851612076
561170784526,37856,5,0,4756.0849987579,7876.4421782141,12589.0276608300,41.1754860488,-6509.2067570074,-3834.0291012122,-6725.9134374240,-20665.8839734148,-9097.7625791201,-3070.5912994504,-5305.4930134042,-181.1039995127,-22135.4497249024,9467.4415439947,12099.0588451638,15900.2473326509
561170784526,37856,5,0,4752.4103543174,7871.6116025754,12579.5246896113,36.0163825959,-6510.5330359611,-3838.5311490367,-6727.1667101968,-20666.9060599479,-9098.5291440199,-3074.1320992258,-5304.3979206902,-182.5397877378,-22137.2383763354,9465.4338740189,12095.5667161756,15899.5781093256
561170784526,37856,5,0,4752.5441989824,7874.5440175097,12583.2480048391,38.3404126891,-6510.7155514135,-3829.7095688401,-6726.9111885635,-20669.0962453761,-9099.5877336435,-3072.3312800960,-5301.0274686702,-185.8494012736,-22138.5159845018,9465.5555509872,12091.1376745320,15897.7407871053
561170784526,37856,5,0,4755.0629122248,7878.2551650407,12593.4932055640,42.8059574231,-6510.2775143278,-3822.2020999003,-6726.3393068128,-20670.9944060804,-9099.5877336435,-3069.4110328585,-5300.4190838291,-188.1247605795,-22137.9684381448,9468.5488044056,12092.1719287620,15897.8381286799
561170784526,37856,5,0,4753.3959377601,7878.1091526789,12593.5175409577,42.5139326994,-6509.5231171248,-3825.2683594997,-6728.8945231456,-20669.2544254348,-9098.3466285676,-3070.4574547853,-5306.0040566708,-185.1923456452,-22133.4177195330,9472.8318336873,12095.3720330264,15903.4596046121
561170784526,37856,5,0,4750.5365290067,7874.7021975684,12583.5278618660,35.9920472023,-6510.0828311787,-3835.5987341024,-6730.2086344025,-20667.5387801827,-9098.5169763231,-3072.0270876755,-5307.1113170817,-181.0918318158,-22132.6024838459,9472.7101567190,12098.7911558337,15912.9017373467
561170784526,37856,5,0,4747.4946048009,7872.2929935975,12577.0668148531,33.9357064392,-6512.0783334576,-3840.6848313744,-6729.8192681042,-20666.6870414051,-9098.6751563818,-3072.3191123992,-5302.2564060493,-179.7898882558,-22134.8900108486,9470.8119960147,12099.6063915208,15914.5078733274
561170784526,37856,5,0,4749.9403118623,7872.1956520229,12578.8067954987,37.0263014322,-6514.3171896730,-3834.1629458773,-6729.0040324170,-20669.9966549410,-9100.3908016338,-3073.3533666292,-5300.0053821371,-184.4987869263,-22136.9706870053,9469.5587232419,12099.2413606161,15907.2680937177
561170818431,37857,5,0,4752.1304972905,7875.0672284731,12588.6869653190,40.7131135696,-6515.5339593553,-3826.6798123311,-6730.4519883390,-20672.2233434596,-9101.0600249591,-3072.3191123992,-5300.2730714672,-186.1779290878,-22138.9783569811,9465.1175139015,12098.2192740830,15903.8246355168
561170818431,37857,5,0,4755.5496200977,7876.9897245711,12594.8559876082,42.3800880343,-6512.9422399320,-3825.8767443408,-6728.4443183632,-20668.8893945301,-9097.5070574868,-3066.8436488289,-5299.8593697752,-181.0188256349,-22134.7196630931,9469.0233445817,12103.5365575946,15912.9747435277
561170818431,37857,5,0,4757.2530976529,7876.3326689427,12590.4391136615,39.8248717015,-6508.1116642933,-3831.8267480872,-6725.5119034288,-20661.3575901967,-9093.3943759607,-3064.5196187357,-5299.1901464499,-174.6429524997,-22129.7917458798,9477.6989124165,12108.1846177810,15922.5628886241
561170818431,37857,5,0,4758.3846934575,7877.8171279551,12583.1749986582,40.2994118776,-6506.4811929191,-3836.3531313054,-6723.5042334531,-20659.4107587050,-9091.1676874421,-3065.9919100513,-5296.4280792711,-173.0003134286,-22127.8935851754,9481.7629231553,12107.3450467002,15922.7332363797
561170818431,37857,5,0,4758.4698673352,7879.7517917499,12587.3971894557,43.8402116531,-6507.4302732713,-3831.9727604491,-6724.5263199862,-20662.8298815122,-9094.1366054669,-3067.4520336700,-5295.1018003174,-179.0719941432,-22132.4443037872,9477.7962539910,12101.3950429538,15913.5101221879
561170818431,37857,5,0,4756.8393959609,7881.5282754861,12595.5860494176,47.1133220984,-6511.1779238927,-3826.5216322724,-6727.6899211602,-20669.3274316157,-9099.2835412230,-3071.6012182867,-5298.7034385770,-185.2166810388,-22138.9783569811,9470.5929774719,12094.2404372219,15905.7349639180
561170818431,37857,5,0,4757.2044268656,7881.8811386940,12597.3016946696,46.6752850128,-6512.8814014479,-3827.6532280770,-6729.5150756836,-20668.6582082904,-9099.5633982499,-3072.1122615532,-5303.4245049443,-184.2919360803,-22137.3843886973,9468.0985996232,12091.5635439209,15907.1829198399
561170818431,37857,5,0,4756.0119925770,7877.8657987424,12589.1615054951,42.5869388803,-6509.1094154328,-3833.0435177695,-6728.8215169647,-20666.0056503830,-9096.1929462299,-3067.9022384525,-5304.7021131107,-180.0697452827,-22133.1013594156,9470.1427726894,12095.0313375154,15915.9314938556
561170851127,37858,5,0,4756.8758990514,7879.0947361215,12582.4084337583,40.8347905378,-6506.0066527430,-3837.1927023862,-6726.3271391160,-20662.0876520060,-9092.2992832466,-3067.0018288876,-5300.7597793401,-175.1904988567,-22130.4366338114,9476.5794843087,12099.1926898288,15924.9964279887
561170851127,37858,5,0,4759.3216061128,7883.8279701856,12585.7910534751,45.1299875163,-6504.9723985130,-3829.9772581702,-6723.3825564848,-20662.9637261773,-9091.2406936230,-3066.4907856210,-5296.4524146648,-177.2590073166,-22129.8769197575,9474.3284603965,12097.3066968213,15923.5971428541
561170851127,37858,5,0,4760.3680280396,7886.3466834280,12594.4057828258,48.5004395362,-6508.8052230122,-3822.6644723796,-6723.8205935705,-20666.8087183733,-9094.8058287921,-3067.1356735526,-5297.9247059804,-182.7709739774,-22135.5470664770,9468.8043260389,12093.9119094077,15915.4326182859
561170851127,37858,5,0,4758.7497243621,7883.4021007968,12597.8614087235,48.4152656585,-6510.4478620833,-3822.0317521448,-6727.1423748031,-20669.2544254348,-9096.0712692617,-3068.3037724476,-5303.0473063428,-185.2045133420,-22137.4452271814,9473.2942061665,12093.6077169871,15911.9161539041
561170851127,37858,5,0,4758.8227305431,7882.1123249336,12591.7167218279,46.0790678685,-6507.5519502395,-3829.8677488988,-6727.9089397030,-20664.0831542850,-9092.1654385815,-3066.2230962909,-5304.8602931694,-178.7678017227,-22130.7286585351,9493.2005581689,12099.5212176431,15917.2456051125
561170851127,37858,5,0,4763.5194615167,7883.3534300095,12589.5022010061,46.2250802304,-6499.7524565760,-3828.7726561847,-6721.0098556044,-20658.1818213259,-9082.7354735438,-3057.7787146958,-5295.8561975205,-170.7371218195,-22122.2112707591,9510.2596691146,12108.1481146905,15928.4277184928
561170851127,37858,5,0,4768.3378694586,7889.1330860004,12595.8902418382,51.7492145880,-6495.3842534165,-3821.6667212401,-6715.5830628213,-20657.0380578245,-9079.3650215238,-3055.9657278692,-5290.2468892851,-171.1264881179,-22122.9291648716,9490.6453418361,12103.1228559026,15928.2695384341
561170851127,37858,5,0,4768.4595464269,7892.6130472918,12602.4851335162,54.7059649159,-6497.4405941796,-3814.6216247796,-6718.0287698827,-20662.6473660599,-9085.4975407226,-3060.1149124858,-5293.0211241607,-177.6605413118,-22130.0107644226,9464.2049366398,12095.0556729090,15921.0662619149
561170908575,37859,5,0,4765.8799947004,7890.2525141081,12605.7460762647,55.1440020016,-6502.8552192658,-3816.2277607602,-6721.3992219027,-20666.0178180799,-9092.3114509434,-3064.0329108628,-5297.3771596233,-182.0409121680,-22137.5547364528,9453.4730280420,12089.0813337690,15916.8927419046
561170908575,37859,5,0,4760.1003387095,7883.0857406794,12597.9830856917,47.4296822158,-6506.4690252222,-3826.3026137296,-6725.5362388225,-20666.0908242608,-9094.7084872175,-3066.0040777481,-5303.7043619713,-181.7610551411,-22138.9783569811,9455.7118842574,12091.1741776225,15919.0342565455
561170908575,37859,5,0,4755.8659802151,7880.7738782831,12585.3286809958,43.7063669880,-6505.8849757747,-3833.5545610361,-6723.4798980594,-20662.3431736393,-9093.4308790511,-3066.2109285941,-5301.8913751446,-176.8696410183,-22136.2527928928,9465.3487001412,12094.5202942488,15924.1446892111
561170908575,37859,5,0,4760.5992142792,7883.9131440634,12589.2101762824,49.1331597710,-6502.2468344247,-3826.3756199106,-6718.6614901175,-20658.9362185289,-9089.9265823661,-3060.7598004174,-5292.6682609528,-175.5190266709,-22134.5614830344,9469.1693569436,12096.8078212515,15922.9522549225
561170908575,37859,5,0,4765.4176222211,7890.5445388319,12604.3224557365,56.7379702854,-6498.2679975636,-3811.4945266961,-6714.9625102834,-20658.6806968956,-9086.9089935540,-3055.7102062359,-5286.4870709668,-176.4437716295,-22133.4663903203,9469.8142448752,12095.5058776915,15919.2532750883
561170908575,37859,5,0,4768.0336770381,7893.0997551647,12611.1728690478,59.9502422466,-6497.3919233923,-3807.9050561333,-6715.8629198483,-20660.6153606905,-9087.3713660333,-3056.1239079279,-5290.7701002485,-178.3662677275,-22135.0603586041,9468.3906243469,12094.8731574567,15916.7954003301
561170908575,37859,5,0,4764.9187466514,7887.3322668706,12606.5126411646,52.8199719084,-6502.2711698183,-3820.2309330150,-6720.6083216092,-20659.8366280938,-9089.1721851631,-3059.2875091018,-5297.3284888360,-179.4126896543,-22137.4087240909,9466.9670038186,12092.9993321460,15918.5597163694
561170908575,37859,5,0,4759.1025875700,7879.3137546643,12591.5342063755,40.8956290219,-6505.1670816622,-3831.7050711190,-6724.7575062258,-20661.7469564950,-9089.8779115788,-3062.9013150583,-5299.6768543229,-178.5974539671,-22137.2140409418,9463.6208871923,12089.8600663656,15920.9567526435
561170915857,37860,5,0,4755.5739554914,7877.6589478964,12587.6283756954,39.7883686110,-6505.8363049875,-3833.2016978282,-6724.0152767196,-20662.1849935806,-9092.5669725767,-3065.8945684767,-5296.3672407870,-179.7290497717,-22136.9585193085,9466.6263083076,12092.8168166936,15923.9865091524
561170915857,37860,5,0,4756.9124021419,7880.5913628307,12596.4499558920,44.8501304894,-6506.0066527430,-3822.7374785605,-6723.4068918785,-20662.9637261773,-9091.8612461610,-3063.3515198407,-5292.3032300482,-181.1526703000,-22134.4884768534,9469.8507479657,12095.3720330264,15924.0351799397
561170915857,37860,5,0,4758.9322398145,7881.6134493639,12606.4152995900,47.8555516046,-6506.0918266207,-3817.1768411124,-6724.4533138053,-20665.0200669404,-9090.5471349041,-3060.1027447890,-5292.5587516814,-182.2964338013,-22132.2982914253,9472.1869457557,12099.4725468558,15924.4732170253
561170915857,37860,5,0,4756.8515636578,7879.2164130897,12602.6068104844,43.2561622056,-6505.7632988065,-3823.9055774555,-6727.4709026173,-20665.8474703243,-9092.2992832466,-3060.9788189602,-5299.3848295991,-182.2964338013,-22130.5461430828,9473.4402185284,12103.2445328709,15927.0406010550
561170915857,37860,5,0,4753.1160807331,7874.3493343606,12592.1425912167,36.7099413148,-6506.5420314032,-3833.0435177695,-6728.7363430869,-20666.9547307352,-9091.4597121658,-3062.7309673027,-5300.3217422545,-180.8363101826,-22129.7795781829,9472.3937966016,12102.5874772424,15930.0216867766
561170915857,37860,5,0,4754.5883720487,7877.5372709282,12592.1912620040,38.6811082001,-6505.3617648114,-3832.5689775934,-6725.8525989399,-20666.1638304417,-9090.4376256327,-3059.9567324271,-5294.7732725032,-180.5807885493,-22131.3978818604,9469.9480895402,12099.8619131541,15929.9486805957
561170915857,37860,5,0,4760.9277420935,7883.9739825475,12605.3810453600,47.2349990667,-6503.7069580434,-3820.2552684086,-6721.9102651693,-20666.3828489845,-9091.6543953150,-3058.8981428035,-5291.2811435150,-182.4667815568,-22132.1887821539,9467.9404195645,12095.3720330264,15925.0694341697
561170915857,37860,5,0,4764.5537157467,7887.9041486213,12612.8763466030,51.8343884657,-6504.5343614274,-3815.6558790096,-6721.9467682597,-20669.3639347062,-9093.3578728702,-3060.5772849651,-5294.5299185668,-186.9201585940,-22133.9165951027,9465.5190478967,12093.2061829919,15921.1757711863
561170943581,37861,5,0,4763.1179275216,7886.1154971883,12613.8740977425,51.0069850818,-6505.2522555400,-3821.6667212401,-6725.8647666367,-20669.1692515570,-9095.0978535159,-3061.8913962219,-5302.3172445334,-187.5042080415,-22135.0481909073,9465.5190478967,12093.7172262585,15923.9500060620
561170943581,37861,5,0,4760.2585187682,7884.2660072713,12602.6798166654,44.7649566116,-6505.4956094764,-3833.0921885568,-6727.6047472824,-20666.6383706178,-9095.2925366650,-3063.5218675962,-5304.4709268711,-183.3550234249,-22135.4618925993,9465.6650602586,12096.0412563517,15931.6278227572
561170943581,37861,5,0,4758.3116872765,7882.4043496573,12592.7753114515,40.7009458727,-6507.7953041759,-3836.7181622101,-6726.9233562603,-20666.7478798892,-9096.7404925870,-3064.4831156452,-5301.8427043573,-183.9390728724,-22138.6619968637,9463.5722164050,12095.6397223565,15933.7571697012
561170943581,37861,5,0,4759.2364322351,7885.2272553203,12598.7861536820,45.0691490322,-6509.4136078534,-3826.8988308740,-6725.8769343335,-20668.4513574444,-9097.1420265821,-3063.5462029899,-5297.7908613153,-185.5208734594,-22138.6133260764,9462.8299868988,12092.6464689381,15931.0072702193
561170943581,37861,5,0,4762.0958409885,7888.5977073402,12606.6951566169,51.3598482896,-6506.4690252222,-3817.8217290440,-6724.5019845925,-20668.3053450826,-9095.0735181222,-3061.1978375030,-5296.6714332076,-185.4722026721,-22135.2185386628,9465.1418492952,12093.3886984443,15932.0658598429
561170943581,37861,5,0,4766.6830626907,7891.3841099127,12610.5766519034,53.1363320258,-6503.1107408991,-3818.8316478803,-6723.6380781181,-20666.5410290432,-9092.7008172417,-3059.5430307351,-5300.2365683767,-182.9778248234,-22130.5096399923,9468.3419535596,12095.2381883614,15936.4097276086
561170943581,37861,5,0,4763.9696662992,7886.8455589977,12602.8501644209,47.0889867048,-6504.2058336132,-3828.4806314609,-6725.0616986464,-20665.5554456006,-9090.7174826596,-3059.5308630383,-5302.8161201032,-180.8728132730,-22129.9134228480,9469.8994187529,12094.4716234615,15939.3056394525
561170943581,37861,5,0,4763.7141446659,7885.7139631932,12595.9267449286,44.9353043671,-6503.2932563515,-3831.2426986397,-6723.1270348515,-20665.9934826862,-9090.4254579359,-3063.0229920265,-5299.6160158387,-180.6537947302,-22127.8084112976,9468.1472704104,12094.6541389139,15938.1862113448
561170973474,37862,5,0,4765.7096469449,7888.3786887974,12603.1300214478,49.4495198884,-6504.1571628259,-3825.6455581012,-6721.0098556044,-20667.9159787842,-9092.1411031879,-3067.5128721541,-5297.9125382835,-183.9025697819,-22132.3226268189,9468.4149597405,12095.4937099947,15932.3457168698
561170973474,37862,5,0,4765.9164977909,7888.0501609832,12611.2580429255,50.2769232724,-6508.3306828362,-3820.7298085847,-6725.0008601623,-20671.4811139533,-9096.9473434330,-3070.1045915774,-5300.8692886115,-188.1004251859,-22137.2383763354,9465.3608678380,12092.2571026398,15924.2663661794
561170973474,37862,5,0,4764.9187466514,7888.6828812180,12610.8443412335,48.9384766219,-6511.5672901911,-3826.4972968788,-6728.4686537568,-20672.8195606039,-9098.5656471104,-3073.7427329275,-5307.3911741086,-189.2441886872,-22137.5425687560,9466.1882712219,12092.6221335444,15924.5218878126
561170973474,37862,5,0,4760.9885805776,7885.3489322885,12598.8834952566,43.3778391738,-6511.6402963720,-3837.1318639021,-6729.2960571408,-20670.5928720853,-9097.8599206947,-3075.9450860524,-5310.7494584317,-185.8859043641,-22135.4132218120,9466.5898052171,12094.1065925568,15928.8292524880
561170973474,37862,5,0,4758.2386810956,7884.4728581172,12590.4999521456,40.2385733935,-6511.2630977705,-3842.2301288709,-6727.7629273411,-20666.8208860702,-9095.8644184157,-3074.2294408004,-5305.9067150962,-184.2310975962,-22131.7507450683,9466.1030973442,12094.2404372219,15932.2605429920
561170973474,37862,5,0,4762.8867412819,7887.8798132277,12596.8879929776,46.6509496192,-6509.5231171248,-3835.2458708945,-6726.9598593508,-20669.8749779727,-9097.0446850075,-3072.8544910594,-5301.6115181177,-186.9201585940,-22133.6489057726,9465.3365324443,12094.7636481853,15933.6354927330
561170973474,37862,5,0,4764.5902188372,7890.6905511938,12605.4297161473,51.8830592530,-6510.6060421420,-3826.3512845169,-6728.8945231456,-20672.5153681833,-9096.9716788266,-3072.0757584628,-5301.9035428415,-189.5362134110,-22134.5128122471,9463.5600487082,12093.3278599602,15928.0140168008
561170973474,37862,5,0,4762.1688471694,7888.7680550957,12606.3787964995,52.5887856688,-6512.3460227877,-3828.3711221895,-6732.0581243196,-20673.9998271957,-9099.7459137022,-3071.7472306485,-5305.4930134042,-191.0085047265,-22136.2284574991,9462.5257944782,12093.4130338379,15929.9730159893
561171002142,37863,5,0,4761.9741640202,7886.7238820295,12600.2462773008,47.2106636730,-6510.6182098389,-3837.5333978972,-6732.5935029798,-20671.1160830487,-9097.6043990614,-3069.8977407314,-5307.5128510768,-185.8859043641,-22135.8999296849,9464.5212967572,12096.2359395009,15938.1497082543
561171002142,37863,5,0,4762.6798904360,7887.9528194086,12592.9213238134,45.9817262939,-6508.9999061614,-3839.3220493302,-6728.9553616297,-20666.6140352242,-9094.7693257016,-3068.0482508144,-5303.0959771301,-180.5321177620,-22135.0846939978,9467.7457364153,12098.9250004987,15945.7180156782
561171002142,37863,5,0,4766.7925719621,7892.4061964458,12600.1854388167,51.1286620500,-6507.1990870316,-3832.3377913538,-6725.1347048273,-20668.0863265397,-9094.0879346796,-3065.4443636942,-5297.4136627138,-184.5596254104,-22137.4452271814,9466.3707866743,12097.4648768800,15944.3917367245
561171002142,37863,5,0,4767.9850062508,7895.0952574437,12613.0223589649,55.9957407792,-6510.2531789342,-3824.1732667856,-6727.9941135807,-20673.8659825306,-9096.8743372520,-3066.5516241051,-5299.9323759561,-191.1666847852,-22139.9761081206,9464.3509490017,12095.1651821804,15937.0667832371
561171002142,37863,5,0,4767.0237582017,7893.0632520742,12613.3873898695,54.1340831653,-6513.4289478050,-3827.2030232945,-6733.9197819335,-20678.2341856901,-9100.3542985434,-3070.9563303550,-5309.5083533558,-194.9386708004,-22138.9053508002,9463.1706824099,12093.0601706301,15929.4254696323
561171002142,37863,5,0,4764.4077033848,7889.3886076337,12608.7271619864,46.1885771399,-6515.5826301426,-3836.4139697895,-6738.0081280660,-20679.1710983455,-9102.7756702111,-3073.1221803895,-5314.3510966913,-195.4862171574,-22136.1676190150,9461.5645464292,12091.1011714416,15928.0505198913
561171002142,37863,5,0,4761.0372513649,7883.2925915254,12598.2264396282,39.8248717015,-6516.1180088028,-3844.0674510911,-6738.3001527898,-20677.2242668538,-9100.7923356290,-3073.9982545608,-5312.1487435664,-193.2960317293,-22134.3789675820,9460.9804969817,12090.0425818180,15927.0649364486
561171002142,37863,5,0,4761.1102575458,7885.2880938044,12598.7983213788,40.8226228410,-6514.6943882746,-3836.8155037847,-6735.1365516158,-20678.2341856901,-9100.3908016338,-3073.6332236561,-5306.8922985389,-193.2838640324,-22135.7417496262,9460.8466523167,12090.6509666591,15922.2951992940
561171035979,37864,5,0,4765.0525913164,7889.9239862939,12609.1773667688,48.2327502061,-6512.5528736337,-3824.9033285950,-6732.3379813465,-20679.0007505899,-9098.7603302596,-3069.3866974649,-5303.1568156142,-196.0580989081,-22138.3091336558,9459.8732365708,12090.2372649672,15915.4569536795
561171035979,37864,5,0,4766.3788702701,7890.6783834969,12612.5478187888,49.1331597710,-6513.9399910715,-3824.4774592062,-6735.0148746476,-20681.5194638323,-9100.7436648417,-3070.6034671472,-5308.7052853655,-198.9053399646,-22139.9761081206,9456.4054429763,12088.2174272945,15912.8408988626
561171035979,37864,5,0,4762.4365364995,7885.3610999853,12604.1521079809,41.5040138631,-6515.7894809886,-3836.6086529387,-6738.8233637531,-20682.5293826686,-9103.5544028078,-3076.3344523508,-5316.7237975718,-197.4938871332,-22138.5524875923,9457.3423556317,12089.9817433339,15916.1991831857
561171035979,37864,5,0,4758.9565752081,7882.7207097747,12593.2985224149,36.9167921608,-6517.2739400010,-3847.5960831698,-6739.0180469023,-20679.0007505899,-9103.4692289300,-3077.8554144536,-5314.5336121437,-194.1477705069,-22137.2140409418,9459.3256902138,12092.5004565762,15921.2366096704
561171035979,37864,5,0,4760.4410342205,7885.8964786455,12596.4621235888,39.5450146746,-6515.4974562649,-3842.8141783184,-6734.7471853175,-20676.8714036459,-9102.2159561573,-3077.0645141602,-5307.6953665292,-191.3005294503,-22138.5768229859,9461.2846894023,12093.7902324395,15922.7454040765
561171035979,37864,5,0,4768.7272357570,7895.0222512627,12609.8830931845,50.4837741184,-6511.5551224942,-3829.9894258670,-6727.5560764951,-20672.1016664913,-9098.9428457119,-3073.3046958419,-5301.7331950859,-189.1346794158,-22135.5227310834,9461.6253849133,12092.8654874809,15921.3826220323
561171035979,37864,5,0,4772.7060726181,7898.1736847399,12617.9989469654,54.4747786763,-6508.1116642933,-3823.2363541303,-6726.9841947444,-20672.7708898166,-9098.0911069343,-3070.7008087218,-5304.1302313601,-187.7475619780,-22134.9873524232,9464.4239551826,12093.8875740140,15922.4898824432
561171035979,37864,5,0,4770.6984026423,7895.8374869499,12612.7911727252,51.2990098055,-6507.2355901221,-3832.6784868649,-6729.7340942264,-20672.2233434596,-9098.1762808121,-3071.8567399199,-5309.0581485733,-186.5672953862,-22131.6169004032,9463.7790672510,12097.6108892419,15928.6832401261
561171087661,37865,5,0,4767.2671121382,7891.2380975508,12601.5603885576,44.6311119466,-6507.4911117554,-3841.5365701520,-6730.5249945199,-20671.2134246232,-9097.8964237851,-3076.8941664046,-5310.4209306175,-185.4965380658,-22131.3127079826,9465.3730355348,12096.6861442833,15929.9973513830
561171087661,37865,5,0,4766.7804042653,7890.2525141081,12598.5427997456,45.0813167290,-6508.2090058679,-3840.2832973792,-6730.5006591263,-20672.7830575134,-9100.7923356290,-3079.2060288010,-5309.2771671162,-188.8669900857,-22135.1942032692,9461.6132172165,12093.6807231680,15928.0261844976
561171087661,37865,5,0,4767.6808138302,7892.1141717221,12608.8366712578,49.6563707344,-6510.9467376531,-3831.9849281459,-6730.6953422754,-20677.8448193918,-9102.3984716096,-3079.7779105517,-5308.0603974339,-195.0846831622,-22138.9296861938,9458.3157713775,12088.8014767420,15923.6823167319
561171087661,37865,5,0,4769.1652728426,7893.0510843774,12612.5234833951,51.0191527786,-6512.5042028464,-3827.2395263850,-6732.5326644957,-20677.5771300616,-9103.1285334190,-3079.2181964978,-5312.0514019918,-196.1432727858,-22138.0536120225,9458.6321314949,12089.0326629817,15922.0396776608
561171087661,37865,5,0,4766.9264166272,7890.6053773160,12605.2958714823,48.0137316633,-6511.9809918830,-3833.2138655251,-6733.1410493368,-20676.1291741397,-9101.7657513748,-3079.6075627962,-5316.3587666671,-193.8070749958,-22136.4718114356,9460.1652612946,12091.0768360479,15925.3249558029
561171087661,37865,5,0,4766.0381747591,7887.0402421469,12596.9123283713,42.2584110661,-6511.9444887926,-3844.2134634530,-6733.4330740606,-20672.8195606039,-9099.7702490959,-3077.1861911284,-5314.2537551167,-189.8647412252,-22134.3911352788,9462.0755896958,12093.6077169871,15928.9630971530
561171087661,37865,5,0,4767.9850062508,7888.8897320640,12595.0871738478,45.0083105481,-6508.0508258092,-3840.1372850173,-6729.9774481629,-20670.6050397821,-9095.8765861125,-3074.1442669227,-5307.8292111942,-186.2874383592,-22132.7849992982,9463.6330548891,12092.3909473048,15924.0595153334
561171087661,37865,5,0,4772.7182403149,7895.7036422848,12604.8821697903,53.4770275368,-6506.2986774667,-3827.7627373484,-6727.6412503729,-20671.4689462565,-9093.7107360780,-3071.6377213771,-5303.5218465189,-187.7353942812,-22132.4808068776,9464.3387813049,12094.4716234615,15921.3947897291
561171099475,37866,5,0,4773.1319420069,7897.2002689940,12613.9592716202,56.8231441631,-6507.2720932126,-3823.8690743650,-6729.6975911359,-20674.3283550099,-9096.4849709537,-3070.3966163012,-5305.8458766121,-190.2541075235,-22134.5858184280,9464.3509490017,12095.1408467868,15917.6836421981
561171099475,37866,5,0,4770.3942102217,7896.5432133656,12611.1120305637,53.8055553510,-6508.9512353741,-3829.1620224830,-6731.9851181387,-20674.7542243987,-9099.2592058293,-3072.5137955484,-5311.1509924269,-188.6358038461,-22135.0116878168,9464.6794768159,12095.6032192661,15917.2334374157
561171099475,37866,5,0,4772.0125138992,7893.4769537662,12602.0349287337,48.7072903822,-6508.4036890171,-3838.6406583081,-6731.8999442609,-20672.3328527310,-9097.7260760296,-3072.0879261596,-5311.1631601237,-187.1878479241,-22132.9796824474,9465.3121970507,12095.5545484788,15922.9765903161
561171099475,37866,5,0,4770.1751916789,7891.8708177856,12596.5838005571,46.4806018636,-6508.9999061614,-3839.9669372618,-6730.9873669992,-20673.7199701688,-9098.1276100248,-3072.3799508833,-5307.5250187737,-189.4875426237,-22132.8336700855,9464.5577998477,12092.9384936618,15923.1712734653
561171099475,37866,5,0,4773.1197743100,7894.9249096882,12604.7361574284,51.3841836833,-6509.4744463375,-3829.6365626591,-6729.6732557423,-20677.6379685458,-9098.6021502009,-3072.4164539738,-5305.4808457074,-193.3812056070,-22134.1964521297,9461.9782481212,12089.2638492213,15919.7521506580
561171099475,37866,5,0,4776.8795926283,7899.4634606031,12613.7645884711,55.6915483586,-6509.4379432470,-3822.9930001938,-6730.7075099722,-20680.6190542674,-9098.7238271691,-3074.0225899544,-5308.8756331210,-196.6299806587,-22136.1432836213,9460.7858138326,12089.5923770355,15917.9269961346
561171099475,37866,5,0,4774.0201838749,7897.4922937178,12611.9881047349,52.2845932482,-6510.2166758437,-3829.1255193926,-6733.9927881144,-20682.5415503654,-9099.2835412230,-3074.7404840670,-5313.7183764565,-197.0801854412,-22138.3213013527,9457.3423556317,12089.9209048498,15924.2785338762
561171099475,37866,5,0,4771.4406321485,7894.6207172676,12601.0371775943,46.4197633795,-6510.1193342691,-3840.8065083426,-6734.8810299825,-20678.7208935630,-9099.3687151007,-3076.2736138667,-5316.2979281830,-192.6754791913,-22137.1897055481,9457.3666910253,12093.6685554712,15931.7129966350
561171162180,37867,5,0,4771.8056630532,7895.7523130721,12596.7906514030,48.3300917807,-6508.9390676773,-3842.1449549931,-6731.0603731801,-20674.7177213083,-9098.8820072278,-3077.5633897299,-5311.2848370919,-190.2176044331,-22136.3257990737,9459.8367334804,12095.5302130851,15934.2317098773
561171162180,37867,5,0,4774.7502456843,7898.1250139526,12604.5414742793,54.6329587350,-6508.6227075599,-3833.0313500727,-6729.8071004073,-20674.2553488290,-9099.1010257706,-3076.1397692016,-5305.8093735216,-191.7385665359,-22136.9828547021,9460.8588200135,12092.6464689381,15931.8346736032
561171162180,37867,5,0,4777.9138468583,7902.9190865008,12614.4216440995,60.7654779338,-6510.1193342691,-3825.8524089472,-6727.6534180697,-20674.7663920955,-9101.5954036193,-3075.6043905414,-5306.0283920644,-192.8458269468,-22137.5547364528,9459.5812118471,12092.3787796080,15927.7706628644
561171162180,37867,5,0,4774.5677302320,7898.2710263145,12609.4572237957,56.6771318013,-6513.0639169003,-3832.9096731045,-6732.3866521338,-20675.2409322716,-9104.7225017028,-3079.1816934073,-5312.4164328965,-192.1035974406,-22138.5646552891,9458.9484916123,12091.6608854954,15928.0870229818
561171162180,37867,5,0,4768.4717141237,7889.8388124162,12596.9975022490,45.4341799369,-6517.0305860646,-3847.6569216539,-6736.3289859044,-20674.8150628828,-9105.3673896344,-3080.5201400579,-5317.6850456208,-191.1666847852,-22139.3920586731,9458.0237466538,12091.4175315590,15934.9374362931
561171162180,37867,5,0,4765.9164977909,7888.0379932864,12589.5265363998,42.7451189390,-6516.4587043139,-3850.3338149549,-6734.5646698651,-20674.7177213083,-9103.7612536538,-3078.7801594122,-5313.9130596057,-188.3681145160,-22136.8611777339,9461.8200680625,12091.6365501018,15936.5922430610
561171162180,37867,5,0,4768.1675217031,7893.1970967393,12595.2453539065,47.1984959762,-6512.6988859956,-3839.3463847238,-6730.6710068818,-20675.8493171128,-9100.5854847830,-3075.6165582382,-5307.2816648372,-188.5262945747,-22134.5614830344,9464.9715015397,12094.1917664346,15931.3723011240
561171162180,37867,5,0,4774.3487116892,7899.3539513317,12610.3454656638,55.0223250333,-6509.1580862201,-3827.3612033532,-6728.6755046028,-20676.4820373476,-9099.3687151007,-3071.8810753136,-5305.5295164947,-190.8138215774,-22134.5979861248,9463.6695579796,12093.0845060237,15923.9621737588
561171169461,37868,5,0,4772.6574018308,7894.9614127786,12611.6595769207,53.8177230479,-6511.8714826116,-3830.5613076177,-6733.3722355765,-20678.6235519884,-9101.8387575558,-3075.0203410939,-5313.4506871264,-194.1842735973,-22136.4718114356,9458.7416407663,12090.0547495148,15919.0342565455
561171169461,37868,5,0,4768.2161924904,7888.8532289735,12599.3702031295,45.3611737559,-6513.1247553844,-3842.6194951692,-6735.2460608872,-20677.1390929760,-9104.1992907394,-3079.0721841359,-5317.1374992638,-192.0305912597,-22136.8003392498,9458.1940944093,12090.8578175051,15923.6944844287
561171169461,37868,5,0,4768.8489127252,7890.0821663526,12593.0430007816,44.9961428512,-6512.6380475115,-3846.5009904557,-6733.3357324860,-20672.8682313912,-9102.8365086953,-3077.3565388839,-5311.2239986078,-188.5627976651,-22135.1942032692,9460.8831554071,12092.2814380334,15931.5548165763
561171169461,37868,5,0,4771.1607751215,7895.2777728960,12597.8614087235,50.2769232724,-6510.0098249977,-3837.0953608116,-6727.7507596443,-20671.3594369851,-9100.2934600593,-3074.2294408004,-5304.6777777171,-187.4920403447,-22134.8413400613,9462.4527882973,12093.2305183856,15932.5647354126
561171169461,37868,5,0,4774.0566869654,7898.0763431653,12607.5347276977,58.3806093565,-6509.1215831296,-3827.3368679596,-6726.5218222652,-20672.9169021785,-9100.1596153942,-3073.7305652307,-5305.6511934629,-191.0815109075,-22139.1852078271,9457.4762002967,12091.4175315590,15929.6323204783
561171169461,37868,5,0,4773.3631282465,7898.7577341874,12608.0579386611,57.2490135519,-6509.8759803327,-3828.5293022482,-6731.4254040848,-20676.7010558904,-9101.4250558638,-3072.8788264531,-5312.8423022853,-194.3424536560,-22143.9306095880,9455.4076918368,12090.0060787275,15927.5029735343
561171169461,37868,5,0,4768.8124096347,7890.8122281620,12599.0173399216,47.9893962697,-6511.3847747387,-3838.9205153350,-6736.6331783250,-20678.7695643503,-9100.8166710226,-3073.7670683211,-5318.7314675476,-193.7219011181,-22142.5799952407,9455.1156671131,12088.5337874119,15930.7152454955
561171169461,37868,5,0,4767.2184413509,7888.5247011593,12590.5729583265,43.1101498437,-6509.1702539169,-3843.0575322548,-6735.2703962808,-20678.2463533869,-9100.2569569688,-3073.4020374165,-5317.3808532002,-193.3203671229,-22140.9130207759,9458.8024792504,12089.0935014658,15932.2605429920
561171197093,37869,5,0,4770.9904273660,7890.9339051302,12596.8636575840,48.4152656585,-6507.4546086649,-3834.2846228455,-6730.9386962119,-20677.9908317536,-9097.9450945724,-3071.7472306485,-5309.5813595367,-193.4055410007,-22139.7084187905,9460.0435843264,12089.3855261895,15929.7418297497
561171197093,37869,5,0,4775.7479968238,7895.8618223435,12609.3355468275,54.2070893462,-6508.1359996870,-3823.6257204286,-6729.0648709011,-20678.6600550789,-9097.6774052423,-3069.4840390395,-5306.0770628517,-195.9242542430,-22138.5524875923,9460.7128076516,12089.6045447324,15928.5615631579
561171197093,37869,5,0,4778.8994303009,7898.2466909208,12615.4558983294,57.4558643979,-6507.5884533300,-3822.8834909224,-6730.4276529453,-20677.7718132108,-9099.7702490959,-3071.0901750201,-5309.3745086907,-194.1842735973,-22136.2527928928,9461.2725217055,12091.3810284685,15929.7539974465
561171197093,37869,5,0,4775.3951336159,7894.1948478788,12605.7460762647,51.4571898642,-6509.0607446455,-3835.0633554422,-6733.3357324860,-20678.2585210837,-9100.9383479909,-3073.9617514703,-5314.1564135422,-192.4077898612,-22135.5470664770,9459.3986963947,12092.6464689381,15934.9252685962
561171197093,37869,5,0,4769.6276453219,7889.6441292670,12597.4233716378,45.6166953892,-6510.2288435405,-3843.5685755214,-6734.0657942954,-20676.8592359491,-9100.0987769101,-3072.9274972404,-5312.6597868329,-190.3757844918,-22135.6200726580,9457.9264050792,12093.3156922634,15937.2127955990
561171197093,37869,5,0,4770.8809180946,7892.6373826854,12597.6302224838,48.0380670570,-6508.9877384646,-3838.6284906113,-6730.3911498548,-20676.6523851031,-9098.9185103183,-3072.6719756071,-5306.8557954484,-191.5682187804,-22136.9220162180,9458.4617837394,12093.6685554712,15934.0491944250
561171197093,37869,5,0,4775.7601645206,7895.8861577372,12607.8024170278,53.5256983241,-6509.4014401566,-3828.1034328594,-6729.1865478694,-20678.1246764187,-9100.2204538783,-3072.6963110007,-5304.8967962599,-194.1112674164,-22138.1266182035,9457.5492064777,12092.3301088207,15927.7706628644
561171197093,37869,5,0,4776.0886923348,7896.0321700990,12613.1683713267,54.1462508621,-6510.9102345626,-3827.0083401454,-6732.4231552243,-20681.5316315291,-9103.0190241476,-3074.0104222576,-5309.6665334145,-197.4330486491,-22140.1951266634,9453.0593263500,12088.5094520183,15924.4002108444
561171223519,37870,5,0,4772.7425757085,7892.0289978443,12605.8312501425,49.3278429202,-6511.9566564894,-3837.2535408703,-6735.6962656696,-20680.8380728102,-9103.9559368030,-3076.6021416809,-5316.1397481243,-195.3767078860,-22140.5236544776,9455.0791640226,12088.9961598912,15927.6611535930
561171223519,37870,5,0,4768.0823478253,7887.5634531103,12594.2962735543,44.0470624991,-6511.2996008610,-3846.0629533701,-6735.0148746476,-20675.9344909905,-9102.4593100937,-3077.5998928204,-5313.7792149406,-191.9210819883,-22139.8909342428,9458.3522744680,12090.8578175051,15937.0181124498
561171223519,37870,5,0,4770.5645579772,7891.5666253650,12597.4112039410,49.2305013456,-6510.5817067484,-3842.2422965677,-6731.1333793610,-20673.7199701688,-9100.7436648417,-3074.7161486733,-5308.3402544608,-190.1811013426,-22139.8544311523,9455.6267103796,12090.1520910894,15939.4273164207
561171223519,37870,5,0,4773.5699790925,7896.4823748815,12606.5248088614,54.1097477716,-6511.2996008610,-3832.2282820824,-6729.5029079868,-20673.9511564084,-9101.9239314335,-3073.9739191671,-5305.2983302551,-191.7994050200,-22140.8035115045,9454.4951145751,12089.4463646737,15934.5967407820
561171223519,37870,5,0,4772.3045386229,7896.1295116736,12611.3553845001,56.1539208379,-6511.7863087339,-3827.5680541992,-6731.0603731801,-20676.1413418365,-9104.4304769791,-3075.1785211526,-5310.4696014048,-194.3059505656,-22140.2803005411,9452.2075875724,12089.2760169181,15930.5692331336
561171223519,37870,5,0,4770.9782596692,7891.7978116047,12607.3278768517,51.4450221674,-6512.4068612718,-3835.4405540437,-6734.2483097477,-20676.1048387461,-9104.1141168617,-3075.5070489668,-5315.7138787355,-191.8359081105,-22140.0369466047,9454.8236423893,12091.1133391384,15935.8256781611
561171223519,37870,5,0,4769.2017759331,7887.8554778340,12596.4742912857,46.0182293844,-6510.9102345626,-3842.7776752279,-6733.5669187256,-20673.2941007800,-9100.1961184847,-3072.7936525753,-5314.0104011803,-187.6137173129,-22136.3136313769,9458.0845851379,12095.0678406059,15944.9149476879
561171223519,37870,5,0,4770.9782596692,7891.0190790080,12596.0605895937,46.9794774334,-6507.6492918141,-3838.7258321859,-6729.3933987154,-20671.8583125549,-9098.1884485089,-3070.5304609662,-5307.6831988324,-186.9444939877,-22135.5348987802,9457.3545233285,12094.1187602537,15943.6981780056
561171255877,37871,5,0,4772.7182403149,7896.6527226370,12606.0989394726,52.0412393117,-6507.6371241172,-3828.0182589817,-6728.0792874585,-20673.8781502275,-9098.3101254771,-3068.0725862080,-5303.5583496094,-189.7795673474,-22140.5844929617,9458.7659761600,12095.6762254470,15943.3939855850
561171255877,37871,5,0,4769.8709992583,7896.1660147641,12610.4063041479,52.8686426957,-6511.0562469245,-3825.0615086537,-6732.3623167402,-20677.7474778172,-9103.3110488713,-3070.2506039393,-5310.4574337080,-194.0139258418,-22141.5335733139,9457.2206786634,12092.5977981508,15938.6485838241
561171255877,37871,5,0,4769.1044343585,7893.5499599472,12604.0669341032,48.1354086316,-6515.0107483919,-3835.6230694960,-6737.9351218851,-20679.5117938565,-9107.3263888229,-3076.7846571332,-5318.9139829999,-195.0238446781,-22142.0689519741,9455.8457289224,12092.0989225811,15940.6319184062
561171255877,37871,5,0,4768.2891986713,7889.2182598782,12593.2376839308,41.2728276234,-6516.9089090963,-3847.8394371062,-6740.5146736115,-20679.6821416120,-9108.1781276005,-3078.3786254170,-5320.3497712250,-192.6876468881,-22143.2248831723,9454.0935805799,12092.5491273635,15946.2898974289
561171255877,37871,5,0,4769.9926762265,7889.7171354479,12591.4246971041,43.7063669880,-6512.8448983575,-3844.6758359323,-6735.4164086427,-20675.4356154208,-9104.4183092822,-3075.7138998128,-5311.6377002998,-190.3392814013,-22139.5989095191,9456.4662814604,12095.1651821804,15947.9447041968
561171255877,37871,5,0,4777.6583252250,7897.6261383828,12604.9430082744,54.1705862557,-6507.5519502395,-3827.8844143166,-6727.5074057078,-20672.7708898166,-9099.7580813990,-3071.1266781106,-5303.8260389395,-189.1833502031,-22136.5691530102,9457.4396972063,12096.7226473738,15946.0587111892
561171255877,37871,5,0,4780.3595539197,7898.9159142461,12615.8452646278,59.7190560070,-6507.6006210268,-3820.8758209466,-6727.3370579523,-20674.1823426480,-9099.0158518929,-3069.8734053378,-5305.0549763186,-192.0914297438,-22136.2406251959,9455.5780395923,12092.9506613587,15939.5489933890
561171255877,37871,5,0,4779.0211072692,7899.3782867254,12615.3828921485,56.0444115665,-6511.4942840101,-3829.1620224830,-6731.8026026863,-20679.3901168883,-9103.3475519618,-3075.0568441844,-5315.1541646816,-196.4231298128,-22139.2095432207,9455.4320272305,12090.0182464243,15938.1375405575
561171289975,37872,5,0,4773.7889976353,7893.1240905584,12600.8424944451,47.6121976682,-6516.2275180742,-3844.6028297513,-6736.8643645647,-20682.4198733972,-9107.7157551213,-3081.5300588942,-5321.0798330344,-196.4231298128,-22140.1342881793,9455.4320272305,12087.7063840280,15940.7900984649
561171289975,37872,5,0,4772.0733523833,7891.5422899714,12594.8194845177,45.3246706655,-6517.6024678152,-3848.6060020061,-6736.1343027553,-20683.1621029034,-9107.8739351800,-3081.6274004688,-5317.2956793225,-197.3235393777,-22141.0346977442,9456.1864244335,12088.2052595977,15942.4692406265
561171289975,37872,5,0,4778.8629272105,7901.1060996742,12608.9826836196,55.1074989111,-6512.3338550909,-3834.4306352074,-6730.5371622167,-20681.6898115878,-9102.6783286366,-3076.4804647127,-5308.8391300305,-196.9220053825,-22137.7007488147,9458.3766098616,12092.4152826985,15942.6030852915
561171289975,37872,5,0,4783.3528073381,7905.8758368288,12618.0354500559,60.6194655719,-6509.2797631883,-3825.8645766440,-6729.6975911359,-20681.6046377100,-9101.4980620447,-3076.1154338080,-5310.5669429794,-197.1288562285,-22135.1942032692,9458.6442991917,12092.3787796080,15940.6319184062
561171289975,37872,5,0,4781.6371620861,7903.6978190975,12615.5654076008,59.8650683689,-6509.9003157263,-3830.2692828939,-6734.3699867159,-20681.1787683212,-9102.1307822795,-3076.7603217396,-5316.2005866084,-198.5159736663,-22135.7782527167,9459.4230317884,12091.5513762240,15942.8829423185
561171289975,37872,5,0,4776.7700833569,7901.6414783344,12607.9727647833,54.0732446812,-6509.8273095454,-3841.9624395408,-6734.4064898064,-20679.2197691327,-9101.5345651352,-3077.0645141602,-5318.5246167016,-194.6344783798,-22136.0216066531,9461.4915402483,12092.7559782095,15952.0452180261
561171289975,37872,5,0,4778.7534179391,7900.1813547157,12601.8037424941,52.3575994291,-6507.3572670903,-3843.7024201864,-6731.3523979039,-20675.3626092399,-9098.7846656532,-3075.9085829620,-5313.1708300995,-191.1301816948,-22134.7805015772,9461.9052419403,12090.2129295735,15952.7752798355
561171289975,37872,5,0,4786.6745885708,7905.0849365353,12612.6208249697,59.3661927991,-6504.8020507575,-3832.0579343269,-6727.0815363190,-20673.9511564084,-9097.6774052423,-3072.0149199786,-5306.2595783041,-190.2906106140,-22137.5182333623,9461.3941986737,12093.2791891729,15953.7730309750
561171310076,37873,5,0,4791.5416673000,7908.0660222569,12623.8394414405,65.6447243598,-6503.8408027085,-3823.0173355874,-6726.4853191747,-20674.0484979830,-9097.7869145137,-3069.9707469124,-5305.8702120057,-191.3735356312,-22140.0734496952,9458.4496160426,12092.2084318525,15948.2488966174
561171310076,37873,5,0,4790.4587422827,7906.8857556651,12621.7100944964,63.1625142079,-6505.1427462685,-3826.4242906979,-6728.6755046028,-20674.8515659733,-9100.8775095068,-3072.6719756071,-5313.5358610042,-192.0670943501,-22141.1563747124,9456.4906168541,12091.1620099257,15942.8342715312
561171310076,37873,5,0,4786.1513776074,7905.2431165940,12614.2147932535,57.9060691804,-6505.6416218383,-3837.3873855353,-6730.1721313120,-20673.7564732592,-9100.9383479909,-3073.3655343260,-5316.4074374544,-190.4001198854,-22140.9495238664,9456.0769151621,12090.8821528988,15946.8252760891
561171310076,37873,5,0,4786.3582284534,7900.8627457378,12608.6784911991,55.0466604270,-6505.7389634129,-3840.5266513157,-6728.6633369060,-20672.9655729657,-9099.0523549833,-3073.2681927514,-5312.0270665981,-189.8039027411,-22139.2460463112,9454.6532946338,12089.8722340625,15949.5508401774
561171310076,37873,5,0,4788.5727492752,7904.3183716355,12615.1760413025,60.9966641734,-6502.9525608404,-3830.7924938573,-6724.3316368370,-20670.0939965155,-9097.9572622693,-3072.0149199786,-5305.8823797026,-189.3293625650,-22140.0856173920,9452.5726184771,12087.6820486343,15944.2335566658
561171310076,37873,5,0,4792.2230583221,7907.8713391078,12623.8272737436,66.4356246533,-6500.9448908646,-3818.8924863645,-6721.7764205042,-20668.7190467745,-9094.4286301906,-3067.6710522128,-5301.4411703622,-189.5970518951,-22139.2460463112,9457.1476724825,12090.9186559892,15943.8685257611
561171310076,37873,5,0,4792.0770459602,7909.7816675090,12627.6966013333,67.0440094944,-6497.5622711479,-3815.0353264716,-6722.5551531009,-20669.6802948236,-9091.3623705912,-3064.2275940120,-5304.4709268711,-188.2221021541,-22136.2406251959,9461.8444034562,12093.3278599602,15946.0222080988
561171310076,37873,5,0,4787.6723397103,7906.6545694255,12618.2909716892,62.3959493080,-6493.8754590105,-3823.8082358809,-6722.5186500104,-20669.0719099824,-9088.5638003219,-3064.4466125548,-5308.6322791845,-185.4965380658,-22131.0936894398,9466.0909296474,12095.8587408993,15953.4201677671
561171349912,37874,5,0,4786.1270422138,7905.1944458067,12610.0534409401,59.8285652784,-6492.8655401742,-3828.5414699451,-6721.0220233012,-20667.3684324272,-9086.3371118033,-3063.5583706867,-5304.0450574823,-183.3550234249,-22126.1049337424,9469.3762077896,12097.4527091832,15956.8757936648
561171349912,37874,5,0,4788.8161032116,7908.7839163695,12616.0156123833,64.8903271567,-6494.1188129470,-3822.7374785605,-6719.6835766507,-20667.5144447891,-9087.0063351286,-3062.1104147648,-5299.1779787531,-185.1558425547,-22128.3924607451,9466.9183330313,12096.2116041072,15955.2818253810
561171349912,37874,5,0,4791.5173319063,7913.1277841353,12625.0683788196,69.7087350986,-6497.3919233923,-3816.2155930634,-6719.7930859221,-20671.4202754692,-9090.5958056914,-3064.9333204277,-5299.8350343816,-189.7065611665,-22131.8359189460,9464.3874520922,12093.9727478918,15951.6558517278
