timestamp,sequence,battery,flags,EEG-ch1,EEG-ch2,EEG-ch3,EEG-ch4,EEG-ch5,EEG-ch6,EEG-ch7,EEG-ch8,EEG-ch9,EEG-ch10,EEG-ch11,EEG-ch12,EEG-ch13,EEG-ch14,EEG-ch15,EEG-ch16
561440130002,44684,-2,0,7785.7806691864,10093.2505269923,13693.5016691453,2205.7722477597,-5666.6545905028,-2823.3071969177,-5569.9579038509,-20446.9384367828,-8037.9075150545,-2376.5458726697,-4790.1667175590,875.1007555060,-20982.4874447477,10865.8019336745,13234.9985174632,18694.1817094380
561440130002,44684,-2,0,7785.4521413721,10089.0161684979,13684.1690456821,2197.8024063407,-5667.4089877058,-2831.6177338478,-5574.2409331325,-20446.0745303083,-8037.2017886388,-2375.8401462540,-4800.1442289538,878.8849092179,-20979.7497129626,10868.9046963643,13239.4762298940,18699.6936760988
561440130002,44684,-2,0,7785.9753523355,10090.6223044785,13679.5696562830,2196.8411582917,-5666.5450812314,-2831.2648706399,-5571.9899092203,-20444.8577606261,-8036.6785776754,-2377.5679592029,-4797.8201988606,880.5518836827,-20978.8979741850,10870.4134907704,13241.0580304810,18700.1803839717
561440130002,44684,-2,0,7784.4665579295,10092.5813036670,13686.7607651054,2201.3553738130,-5668.3824034516,-2821.7375640275,-5568.7654695622,-20447.8753494381,-8040.0246943017,-2379.0159151248,-4788.1833829768,876.8164007580,-20984.1422515157,10864.9258595032,13235.2297037028,18696.5057395312
561440130002,44684,-2,0,7780.7189073080,10088.8823238328,13689.2064721668,2200.7956597592,-5674.9407920392,-2822.2364395973,-5571.8438968584,-20453.8740239719,-8048.5785851683,-2386.1461854630,-4790.0572082876,868.1164975296,-20993.5478811598,10856.0677762161,13226.5419681712,18688.2195379947
561440130002,44684,-2,0,7777.2876168040,10083.0053262673,13681.5651585620,2192.7528121592,-5679.9052123430,-2831.6177338478,-5579.2540242236,-20457.3904883537,-8053.9080363767,-2390.9280903145,-4801.5313463916,865.4517719254,-20995.3852033801,10855.2282051354,13226.5784712617,18687.5381469727
561440130002,44684,-2,0,7778.4313803053,10083.2121771133,13673.6926587175,2189.1511738996,-5676.1818971152,-2838.9670227288,-5581.4563773485,-20452.8154343483,-8048.8584421952,-2387.3994582358,-4809.2456661774,870.8055585275,-20987.6100451102,10862.1029538403,13233.0030151842,18693.4881507191
561440130002,44684,-2,0,7783.4809744868,10088.2131005076,13676.1140303853,2192.0470857435,-5672.7871097016,-2836.7281665134,-5577.5018758811,-20448.0822002841,-8042.5434075441,-2381.6806407290,-4803.1618177659,876.5122083374,-20982.4022708700,10867.7000943789,13237.8335908229,18700.3142286367
561440162348,44685,-2,0,7788.5184009715,10094.5403028555,13684.7287597359,2199.5302192896,-5672.4464141905,-2825.9719225219,-5571.8317291616,-20448.3133865238,-8043.7115064391,-2382.2890255702,-4793.0382940092,874.4071967871,-20983.2296742539,10866.9578648727,13235.5947346075,18695.5688268758
561440162348,44685,-2,0,7785.2331228293,10093.9927564985,13688.9022797462,2203.1683606396,-5678.1530640005,-2822.1877688100,-5571.7708906775,-20453.0344528911,-8049.7466840633,-2385.4891298346,-4790.0693759844,867.5446157789,-20989.5568766019,10861.1417057913,13229.1458552913,18688.2560410852
561440162348,44685,-2,0,7780.0253485891,10087.0450016126,13683.2808038140,2197.3643692551,-5682.1075654679,-2831.1310259749,-5576.7231432844,-20455.2611414097,-8052.5452543325,-2387.9226691992,-4798.3312421272,864.9042255684,-20992.3311114775,10859.6815821726,13229.4865508024,18687.5989854568
561440162348,44685,-2,0,7778.7842435132,10086.5582937396,13675.9436826298,2191.7185579293,-5678.7371134480,-2838.0179423766,-5580.7263155392,-20451.5499938787,-8048.4204051096,-2384.7712357220,-4806.6174436636,871.0854155544,-20985.5293689535,10865.7775982809,13235.2053683092,18693.6341630810
561440162348,44685,-2,0,7780.4998887652,10088.7363114710,13671.5268086830,2191.4873716896,-5672.5559234619,-2835.9250985231,-5577.1976834605,-20446.9141013891,-8041.9350227029,-2379.7094738437,-4803.4416747928,876.0620035550,-20980.1025761705,10869.6347581737,13241.3257198111,18698.8419373212
561440162348,44685,-2,0,7782.6414034060,10090.7439814467,13680.2997180924,2196.4761273870,-5671.9110355303,-2825.7042331918,-5573.0484988439,-20447.8388463477,-8043.5533263804,-2378.5778780392,-4793.1721386743,873.8961535205,-20981.9764014812,10865.4247350730,13235.7285792726,18694.3520571935
561440162348,44685,-2,0,7778.6625665449,10091.9972542195,13684.8869397946,2199.0191760230,-5679.2359890177,-2825.1080160475,-5574.0949207707,-20452.2192172039,-8049.0896284348,-2384.7469003284,-4790.6047546446,867.1917525711,-20990.1530937462,10859.5355698107,13230.4234634578,18689.4484753739
561440162348,44685,-2,0,7773.8076555126,10086.2175982286,13678.8882652609,2193.3246939099,-5682.7767887932,-2831.0823551876,-5580.1057630012,-20456.9281158744,-8053.9688748608,-2389.9668422654,-4799.8887073205,863.1399095290,-20992.4527884457,10856.8465088128,13227.7344024599,18688.0126871488
561440196236,44686,-2,0,7771.7756501432,10081.3140164090,13669.1541078026,2184.6247906815,-5683.3851736343,-2842.5199902011,-5586.1044375349,-20456.8672773903,-8052.2653973056,-2389.3462897275,-4809.8418833217,866.2305045221,-20989.3743611495,10861.0443642167,13232.1877794971,18693.8775170174
561440196236,44686,-2,0,7775.0000898012,10083.8570650450,13667.7426549711,2183.5053625738,-5678.6519395702,-2843.1283750423,-5585.1553571827,-20452.0123663579,-8046.4979090115,-2385.7081483774,-4809.8783864121,871.9858251193,-20983.4486927968,10866.3008092442,13238.3324663927,18700.8252719033
561440196236,44686,-2,0,7777.0685982611,10086.0350827763,13671.3321255339,2187.4841994349,-5676.4739218389,-2833.4672237649,-5578.8038194411,-20450.1872118345,-8045.2324685420,-2384.2601924555,-4799.5480118095,871.4261110655,-20983.3391835254,10865.9114429459,13237.4563922214,18699.2434713163
561440196236,44686,-2,0,7775.3042822218,10086.1445920477,13679.3263023466,2191.9375764721,-5680.0998954921,-2826.1666056711,-5576.5527955289,-20454.7257627495,-8048.5785851683,-2384.7712357220,-4792.2595614125,865.9019767078,-20987.5127035356,10863.1007049798,13231.9687609543,18693.6463307778
561440196236,44686,-2,0,7773.7711524221,10085.6092133875,13679.5209854957,2191.3778624182,-5681.2558266903,-2828.4906357643,-5579.7650674902,-20456.8551096935,-8051.4136585280,-2387.5819736881,-4797.7228572860,864.4175176954,-20988.3887777069,10860.4724824660,13230.5451404260,18689.8986801563
561440196236,44686,-2,0,7774.0388417522,10084.5627914607,13673.0477707859,2187.4111932539,-5678.6884426607,-2837.3487190514,-5582.4054577007,-20452.9006082260,-8048.7367652270,-2386.8762472724,-4807.0433130524,868.5423669184,-20984.3856054521,10863.4292327940,13234.3657972284,18694.1573740443
561440196236,44686,-2,0,7779.0641005401,10087.6898895442,13671.9405103750,2188.1534227601,-5673.4319976332,-2838.8210103670,-5579.3270304045,-20448.0822002841,-8043.7966803169,-2382.3741994479,-4807.0554807492,874.2368490316,-20979.3725143611,10866.1547968824,13237.8457585197,18697.3939813992
561440196236,44686,-2,0,7782.5562295283,10094.7106506110,13679.4844824053,2195.7704009713,-5672.9696251539,-2830.7659950702,-5573.8759022279,-20446.5734058781,-8044.3320589771,-2381.6319699417,-4798.2217328558,875.2346001710,-20982.6212894128,10865.5585797380,13237.1643674977,18699.4138190718
561440231230,44687,-2,0,7784.1015270248,10097.0590160978,13688.0140378781,2202.6208142826,-5676.7902819563,-2821.7132286339,-5570.6027917825,-20449.0677837268,-8048.2622250509,-2384.3575340301,-4789.4731588401,871.3774402782,-20988.7416409147,10861.8352645102,13233.0030151842,18693.7558400492
561440231230,44687,-2,0,7781.9478446871,10095.2581969680,13690.0947140349,2201.4283799940,-5681.6208575950,-2825.6433947077,-5573.2553496899,-20452.6085835023,-8052.8859498436,-2386.9857565438,-4794.3645729629,866.3765168839,-20993.0490055901,10859.1097004219,13229.0485137168,18690.3732203324
561440231230,44687,-2,0,7780.8284165794,10091.4983786498,13682.9766113934,2194.9429975873,-5681.0003050570,-2834.7326642344,-5578.5482978079,-20451.5621615755,-8052.8616144499,-2388.4823832530,-4805.5101832527,867.7514666249,-20990.5181246509,10860.9591903390,13232.4067980399,18691.6751638925
561440231230,44687,-2,0,7781.1812797873,10092.6543098479,13674.9337637935,2191.9497441689,-5675.7560277263,-2838.1152839512,-5577.8425713921,-20447.5468216239,-8046.6074182830,-2385.3431174727,-4807.8950518300,873.6771349777,-20984.9331518092,10865.6437536158,13237.0426905294,18696.1650440201
561440231230,44687,-2,0,7784.7950857437,10096.4141281662,13680.5309043320,2196.2084380569,-5673.5658422982,-2830.9606782193,-5573.3405235676,-20447.3034676875,-8044.9526115150,-2382.2160193892,-4799.9982165919,872.1440051780,-20984.9453195060,10864.1227915129,13235.8624239376,18695.9581931741
561440231230,44687,-2,0,7782.7387449806,10096.5723082249,13688.4642426606,2199.1408529912,-5676.4860895357,-2823.4410415828,-5570.9678226872,-20453.5333284608,-8049.0774607380,-2384.3453663332,-4792.4177414712,866.2670076125,-20989.6420504796,10859.7789237471,13229.9854263721,18690.9937728704
561440231230,44687,-2,0,7779.0641005401,10090.7074783563,13686.6634235308,2195.4540408539,-5681.0854789348,-2824.5969727809,-5575.0561688197,-20457.4148237473,-8055.0396321812,-2388.3607062848,-4796.7372738434,861.2904196119,-20993.0246701964,10855.2768759227,13224.6559751637,18683.3159561751
561440231230,44687,-2,0,7775.9613378503,10087.5317094855,13680.3483888797,2188.9929938409,-5681.4870129300,-2834.8178381122,-5580.8723279010,-20457.3174821727,-8053.4091608070,-2388.1295200452,-4806.7391206318,864.2958407272,-20991.1630125825,10859.3165512679,13229.8150786166,18691.0789467481
561440258673,44688,-2,0,7778.1028524911,10087.5195417887,13675.2866270013,2184.6612937719,-5674.9529597360,-2838.1396193449,-5580.1666014853,-20451.1849629740,-8045.9868657450,-2381.2669390370,-4807.7490394681,872.7280546255,-20984.4099408458,10865.7654305840,13237.0426905294,18699.6693407051
561440258673,44688,-2,0,7783.1889497631,10092.9706699653,13679.5088177989,2189.8325649217,-5669.2463099261,-2828.8678343658,-5573.1580081153,-20446.5734058781,-8041.3266378618,-2378.5048718582,-4798.4164160049,877.6438041420,-20982.0980784494,10867.5054112297,13237.9187647007,18700.7644334192
561440258673,44688,-2,0,7787.2529605019,10097.0711837947,13690.1920556094,2198.2161080327,-5669.1854714420,-2817.3936962618,-5567.2810105498,-20448.3863927047,-8043.7236741359,-2379.1619274867,-4788.6822585466,872.4725329922,-20987.1233372373,10862.6626678942,13232.9178413065,18697.1506274628
561440258673,44688,-2,0,7785.1479489516,10096.1951096234,13693.3434890866,2199.0921822040,-5674.4662518631,-2818.8294844869,-5570.5297856015,-20452.4260680499,-8048.7245975301,-2382.1795162988,-4789.5948358083,866.9970694219,-20991.1386771889,10859.4382282361,13229.9367555848,18692.8919335748
561440258673,44688,-2,0,7782.5927326188,10092.2406081560,13686.4322372912,2194.2859419589,-5675.5735122740,-2828.8556666690,-5574.9709949419,-20451.5256584850,-8050.1725534521,-2384.0655093063,-4801.4340048170,867.5081126885,-20988.3036038291,10860.8496810676,13231.3360407195,18693.5854922937
561440258673,44688,-2,0,7783.2497882472,10091.7052294958,13679.5331531925,2190.3801112787,-5670.0615456132,-2834.0391055155,-5576.1999323210,-20450.5887458297,-8043.1396246884,-2380.9749143133,-4806.7026175414,872.8132285033,-20982.5847863223,10866.7996848140,13237.2860444659,18699.5354960401
561440258673,44688,-2,0,7784.9897688929,10095.7327371441,13682.0883695254,2191.6820548388,-5667.1899691630,-2831.1310259749,-5575.3603612403,-20448.3255542206,-8040.0368619986,-2378.1885117408,-4800.3632474966,873.5676257063,-20979.7253775689,10870.1701368339,13239.0990312925,18701.4944952286
561440258673,44688,-2,0,7785.5859860372,10097.5700593644,13687.2718083719,2196.6829782330,-5672.2152279509,-2824.3779542381,-5573.7298898660,-20452.1218756294,-8046.1328781069,-2384.6860618443,-4793.9752066646,867.9704851677,-20984.7993071441,10866.5319954839,13235.5217284266,18696.7734288613
561440289852,44689,-2,0,7779.4656345353,10092.2649435496,13687.0527898291,2195.3566992793,-5681.2071559030,-2828.2229464342,-5578.0980930254,-20458.1083824662,-8054.4434150369,-2390.7334071653,-4795.6178457357,862.3855123260,-20990.9804971302,10860.8740164612,13231.4577176877,18692.0766978876
561440289852,44689,-2,0,7775.6206423392,10085.2076793923,13680.4092273638,2187.6788825840,-5684.5046017420,-2837.4947314133,-5583.4032088402,-20457.4391591410,-8056.9012897952,-2392.4490524173,-4804.4029228418,864.3445115145,-20991.2846895507,10860.8861841580,13233.9642632332,18697.0776212818
561440289852,44689,-2,0,7777.6526477086,10086.1445920477,13672.3663797638,2184.4422752291,-5680.0147216144,-2843.8827722453,-5583.6830658671,-20451.5986646660,-8052.1680557310,-2388.3242031943,-4810.7909636739,871.9128189384,-20985.5293689535,10867.7365974693,13240.3401363685,18704.6702640994
561440289852,44689,-2,0,7781.9843477776,10090.8413230213,13672.9504292113,2188.4697828775,-5674.4297487726,-2837.7502530465,-5577.6235528493,-20445.8920148560,-8046.8507722194,-2383.4814598588,-4804.2082396927,877.4734563865,-20981.1368304004,10871.4112419099,13244.6475010438,18708.4422501145
561440289852,44689,-2,0,7783.0186020076,10094.2482781317,13682.7332574570,2193.2881908194,-5677.1431451642,-2827.4442138375,-5574.1435915580,-20448.8609328808,-8048.5299143810,-2382.7027272621,-4794.1212190264,872.8618992906,-20985.6388782249,10867.5419143202,13239.4640621972,18704.4512455565
561440289852,44689,-2,0,7781.1812797873,10093.9805888016,13687.6246715798,2196.9019967758,-5679.6496907097,-2825.0350098666,-5576.2972738956,-20454.4459057225,-8054.0662164354,-2387.8374953214,-4796.7616092370,865.1354118080,-20991.5280434872,10861.7135875420,13231.6402331400,18695.2402990616
561440289852,44689,-2,0,7776.5697226914,10089.7097272168,13681.1879599605,2190.5626267311,-5683.0444781233,-2832.7736650460,-5581.9795883119,-20456.8064389062,-8057.2054822157,-2390.9767611017,-4806.5322697858,864.0524867908,-20992.1120929347,10860.6306625247,13231.2143637512,18695.0212805188
561440289852,44689,-2,0,7776.6062257819,10088.7849822582,13674.6539067665,2187.0826654397,-5680.1729016731,-2839.4537306017,-5582.9530040578,-20451.8785216929,-8051.1824722884,-2386.3773717027,-4811.2168330627,871.3166017941,-20987.0624987532,10866.5076600902,13237.7484169452,18704.5850902216
561440380112,44690,-2,0,7783.4201360027,10093.4208747478,13677.5011478231,2191.8402348975,-5671.4243276574,-2834.0634409092,-5575.3846966339,-20443.8965125770,-8043.8940218914,-2381.0722558879,-4803.5390163674,878.2400212863,-20981.1124950068,10871.8371112987,13243.7349237821,18708.9897964715
561440380112,44690,-2,0,7788.8104256953,10100.7944990225,13688.1478825432,2201.2701999353,-5669.9642040386,-2820.5086266484,-5567.2323397625,-20440.1975327429,-8043.8940218914,-2377.3976114473,-4786.8327686295,879.4446232718,-20982.7429663810,10871.8492789955,13243.6375822075,18708.6977717478
561440380112,44690,-2,0,7787.1434512305,10102.7778336046,13697.4926737032,2205.9060924248,-5672.2273956477,-2814.5342875084,-5565.1273282122,-20442.0470226600,-8047.4469893637,-2376.7648912126,-4782.3428885018,876.3783636724,-20988.0845852863,10865.6802567063,13237.9065970039,18704.1470531360
561440380112,44690,-2,0,7786.6810787513,10100.1496110909,13693.2948182993,2203.1075221555,-5675.0137982201,-2822.2486072941,-5568.8506434400,-20442.2417058091,-8050.2820627235,-2379.3931137263,-4790.1910529526,873.4216133444,-20991.0048325238,10862.9181895275,13236.3369641137,18702.0298738888
561440380112,44690,-2,0,7784.8194211374,10094.1752719508,13682.6845866697,2194.8456560127,-5672.2152279509,-2831.3135414272,-5573.8393991374,-20441.8645072076,-8047.5808340288,-2380.4152002594,-4800.9229615505,876.5608791247,-20987.3301880833,10866.3616477284,13240.0846147352,18705.0596303977
561440380112,44690,-2,0,7787.0704450496,10096.0734326552,13682.7332574570,2193.3003585162,-5667.9808694565,-2830.6078150115,-5572.1115861885,-20439.0781046352,-8042.7867614805,-2376.0835001905,-4798.7936146064,879.3837847877,-20984.6532947822,10869.3183980563,13242.6885018553,18708.6004301732
561440380112,44690,-2,0,7787.4476436511,10099.2857046164,13689.7053477365,2197.9240833090,-5669.5870054371,-2823.1368491622,-5569.0209911955,-20440.9640976427,-8045.6096671435,-2378.6022134328,-4790.3370653145,876.2080159169,-20987.9872437117,10862.4314816545,13233.2098660302,18699.7423468861
561440380112,44690,-2,0,7785.1844520420,10098.2271149928,13692.7351042454,2200.1872749180,-5675.6586861518,-2820.2896081056,-5570.6271271761,-20446.8532629050,-8052.9589560245,-2385.6838129838,-4788.9621155735,868.9195655199,-20997.0521778448,10857.2845458984,13229.3040353500,18695.3619760298
561440382697,44691,-2,0,7783.2132851567,10096.5844759218,13691.0559620839,2196.4031212061,-5679.5766845288,-2826.8966674805,-5576.5771309225,-20449.6883362648,-8057.9112086315,-2388.5067186467,-4797.7471926797,865.8776413142,-20999.2910340602,10854.6928264752,13227.0651791346,18692.2105425527
561440382697,44691,-2,0,7783.8460053915,10093.9440857112,13685.3736476676,2191.5603778706,-5674.4419164695,-2835.3897198629,-5579.0958441649,-20445.9041825528,-8051.8760310073,-2385.6838129838,-4805.3763385877,870.3796891387,-20993.6573904312,10860.0587807741,13232.2121148907,18696.8951058295
561440382697,44691,-2,0,7789.3823074460,10098.8720029245,13684.6314181614,2194.7726498318,-5667.5793354613,-2833.1995344348,-5574.0462499834,-20439.0659369383,-8044.8917730309,-2379.8311508119,-4802.8332899517,877.0840900881,-20987.6708835943,10865.3030581048,13237.2373736786,18701.2876443826
561440382697,44691,-2,0,7796.0988760922,10106.8661797371,13694.2073955610,2203.8740870554,-5665.3891500332,-2821.6767255434,-5566.4292717722,-20438.0073473147,-8043.8696864978,-2377.0569159363,-4789.2906433877,876.3783636724,-20989.4595350273,10863.3197235226,13234.7429958299,18699.0731235608
561440382697,44691,-2,0,7795.0889572559,10107.6570800306,13700.4859271217,2208.4004702735,-5670.6212596671,-2816.9799945698,-5564.7866327011,-20440.9884330364,-8048.1283803858,-2379.3809460295,-4783.6691674555,872.6672161414,-20996.3464514291,10857.7834214682,13230.2409480054,18694.3885602840
561440382697,44691,-2,0,7791.0006111234,10102.4006350031,13696.2880717177,2204.4946395933,-5673.7118546601,-2821.6645578466,-5569.5076990684,-20444.0668603326,-8052.7642728754,-2383.7004784016,-4789.4366557496,869.5157826643,-20998.3054506176,10855.8244222797,13228.2576134233,18691.4561453496
561440382697,44691,-2,0,7788.2750470351,10100.2834557559,13689.2429752573,2198.3012819105,-5672.2638987382,-2831.0701874907,-5573.1336727217,-20440.9032591586,-8049.8440256379,-2382.4837087193,-4797.9783789193,872.3995268113,-20993.2923595265,10858.1362846760,13229.7420724357,18694.1208709539
561440382697,44691,-2,0,7788.3602209128,10099.0423506800,13683.8770209583,2195.6365563062,-5669.5626700435,-2834.8421735059,-5573.3283558708,-20436.7054037547,-8046.4249028306,-2379.5634614818,-4800.5944337362,876.9259100294,-20989.7880628415,10864.0011145447,13236.3369641137,18701.1294643239
561440398971,44692,-2,0,7790.1245369522,10102.5344796682,13687.0771252228,2199.6032254705,-5670.1223840973,-2828.1499402532,-5569.1183327701,-20437.6301487132,-8046.7169275544,-2381.1452620688,-4794.3645729629,873.8474827332,-20991.4185342158,10862.1516246276,13232.6866550668,18698.3795648419
561440398971,44692,-2,0,7788.2263762478,10103.6174046854,13692.6377626709,2202.1584418033,-5676.4982572325,-2823.8304078811,-5572.5496232742,-20445.1741207435,-8054.2000611005,-2386.2678624313,-4790.8359408842,864.7460455097,-21000.2036113220,10853.3908829151,13223.4270377846,18690.0690279118
561440398971,44692,-2,0,7782.5562295283,10098.6529843816,13692.3944087344,2198.5203004533,-5682.8132918837,-2831.4230506986,-5580.4951292995,-20453.5333284608,-8060.1257294532,-2392.0596861190,-4799.9617135015,858.8447125505,-21005.3748824717,10848.4142949145,13219.3265239552,18686.4552219554
561440398971,44692,-2,0,7782.5562295283,10095.3433708458,13684.6314181614,2193.0813399734,-5681.0246404507,-2840.6461648904,-5583.5613888989,-20449.4206469347,-8058.7994504995,-2392.2908723586,-4809.0631507250,862.5923631720,-20999.3518725443,10854.6563233847,13224.4491243177,18691.9671886162
561440398971,44692,-2,0,7788.1533700668,10098.4217981420,13683.3781453886,2193.7870663892,-5671.5095015351,-2838.7358364892,-5579.9597506393,-20442.7770844693,-8047.5199955447,-2382.3376963575,-4806.6417790572,872.3751914176,-20988.5956285529,10864.9866979874,13235.0350205536,18700.8982780842
561440398971,44692,-2,0,7794.2007153878,10105.0166898200,13691.8590300742,2200.2237780085,-5665.3891500332,-2827.6997354708,-5570.9799903840,-20438.8712537892,-8042.0688673680,-2375.2317614129,-4792.6124246204,876.0376681614,-20983.5338666745,10870.5716708291,13238.1256155467,18705.0717980945
561440398971,44692,-2,0,7797.3764842586,10110.8571842951,13702.1042307991,2208.3517994862,-5664.3183927128,-2814.9479892003,-5566.3197625008,-20440.4652220730,-8042.5555752409,-2375.7671400731,-4783.9611921793,873.0809178334,-20984.3369346648,10869.2940626627,13235.0350205536,18700.3994025145
561440398971,44692,-2,0,7791.9740268692,10104.8463420645,13700.6684425740,2205.9912663026,-5668.8691113246,-2817.7952302569,-5569.7510530049,-20444.4927297214,-8046.4249028306,-2379.5026229977,-4788.9377801799,867.0335725124,-20988.7781440052,10864.4999901144,13230.8371651497,18694.6927527045
561440411533,44693,-2,0,7785.4156382817,10097.3875439121,13693.4529983580,2197.1818538028,-5670.3292349433,-2829.7925793243,-5577.7939006048,-20446.9627721764,-8047.9215295398,-2382.7270626558,-4802.6629421961,865.8776413142,-20988.8998209734,10864.3783131462,13232.4311334335,18697.4669875802
561440411533,44693,-2,0,7788.7860903016,10098.5921458975,13687.6976777607,2194.6874759540,-5665.5838331824,-2835.6452414962,-5577.1125095828,-20441.3777993347,-8042.8232645710,-2380.1840140198,-4807.3110023825,872.8618992906,-20984.3734377553,10869.2088887849,13237.4563922214,18703.7455191408
561440411533,44693,-2,0,7792.2782192898,10103.8364232282,13691.8468623774,2199.4207100182,-5664.9632806444,-2829.2572006641,-5572.7929772106,-20440.1610296524,-8043.4194817153,-2379.0280828216,-4798.7814469096,873.4094456476,-20985.4441950757,10868.1989699486,13238.2472925149,18704.4390778597
561440411533,44693,-2,0,7793.0447841897,10106.0144409595,13701.3741689897,2203.5333915443,-5669.2341422293,-2822.2242719005,-5570.8461457189,-20445.7581701910,-8048.4569082000,-2382.0943424210,-4790.1545498622,867.5811188694,-20992.5866331108,10862.5653263196,13231.2143637512,18699.0244527735
561440411533,44693,-2,0,7788.4332270938,10103.1063614188,13699.9627161583,2202.2801187716,-5674.4662518631,-2824.1711033921,-5575.4820382085,-20451.3674784263,-8053.8593655894,-2387.5333029009,-4795.3014856183,860.1344884138,-20997.0521778448,10857.6374091063,13227.3693715552,18693.2447967826
561440411533,44693,-2,0,7783.9920177534,10095.6962340537,13689.5958384651,2192.7284767656,-5679.3454982891,-2837.5677375942,-5585.6177296620,-20456.1980540650,-8057.8260347537,-2391.8284998794,-4810.7544605834,856.7397010002,-20997.2590286908,10857.3818874730,13226.5663035649,18691.2492945037
561440411533,44693,-2,0,7783.9190115725,10092.9341668749,13681.3461400192,2186.1214173907,-5676.7537788658,-2845.7931006465,-5590.5334791785,-20455.8573585540,-8054.1878934036,-2390.2223638987,-4818.4079418850,859.0880664870,-20990.7006401032,10863.5630774591,13231.0440159957,18695.7756777218
561440411533,44693,-2,0,7787.3868051670,10097.8134133009,13682.3560588555,2189.5040371075,-5675.3909968217,-2843.1892135264,-5585.8245805080,-20449.9438578980,-8050.8539444742,-2387.6914829596,-4811.1194914881,862.2760030546,-20988.0602498927,10866.9335294790,13234.4509711061,18698.4039002355
561440448761,44694,-2,0,7786.3038801498,10099.3465431006,13688.2938949051,2196.4882950838,-5676.4860895357,-2830.9850136130,-5580.5438000868,-20452.3165587785,-8052.8616144499,-2386.7789056978,-4799.1221424207,859.8667990837,-20990.2991061081,10866.0696230046,13231.0440159957,18695.6661684504
561440448761,44694,-2,0,7782.0573539585,10097.2780346407,13691.7738561964,2196.0989287855,-5681.9372177124,-2829.8534178084,-5581.0426756566,-20455.8573585540,-8057.5583454236,-2389.0177619133,-4798.1852297653,855.7541175575,-20993.4262041916,10861.6892521483,13227.2355268901,18691.8820147384
561440448761,44694,-2,0,7779.4047960511,10093.9197503175,13685.0694552470,2190.1489250391,-5683.2634966661,-2838.6141595210,-5586.0922698381,-20456.0642094000,-8058.1180594775,-2391.5608105493,-4807.3718408666,858.0659799539,-20990.9439940397,10863.5995805495,13230.4721342450,18694.4980695554
561440448761,44694,-2,0,7778.6260634545,10090.1599319992,13674.8850930062,2182.1790836201,-5680.0877277953,-2846.5840009400,-5588.6474861709,-20452.2800556881,-8053.9567071640,-2388.3728739816,-4813.8693909701,863.7604620670,-20985.5050335598,10869.0020379389,13236.5194795660,18697.1627951596
561440448761,44694,-2,0,7782.2763725014,10093.6277255938,13678.2312096325,2183.9799027499,-5677.4473375847,-2843.8827722453,-5587.5402257600,-20450.9416090375,-8051.0607953201,-2386.5355517614,-4808.9901445441,865.3544303508,-20982.2075877208,10868.8560255771,13236.8723427739,18700.6670918446
561440448761,44694,-2,0,7781.7653292348,10095.1486876966,13683.7796793837,2186.5959575668,-5682.6551118250,-2838.6019918241,-5586.9318409189,-20454.6892596590,-8055.2221476336,-2389.1637742751,-4802.3830851692,859.4409296949,-20986.7339709390,10868.0407898899,13236.0692747836,18698.5134095070
561440448761,44694,-2,0,7777.2146106230,10091.7904033735,13684.5097411931,2188.1047519728,-5686.5244394147,-2835.7304153739,-5589.9494297310,-20460.5297541340,-8060.7584496880,-2394.3715485153,-4802.5899360152,855.2309065941,-20990.7371431937,10864.0984561193,13231.9079224702,18694.7779265823
561440448761,44694,-2,0,7774.1240156300,10088.2131005076,13681.7355063175,2185.0506600703,-5686.7921287448,-2843.1892135264,-5593.7944219270,-20460.2133940166,-8061.0869775023,-2395.1016103247,-4811.7157086324,856.0461422813,-20989.0458333353,10865.6315859190,13233.1246921524,18695.0577836092
561440475011,44695,-2,0,7774.7689035616,10087.6290510601,13674.6660744634,2180.4147675807,-5680.0998954921,-2849.6989313267,-5594.9260177315,-20454.3485641479,-8054.2852349782,-2391.4269658842,-4817.2276752932,862.1786614800,-20982.8524756524,10873.0417132841,13240.0359439479,18700.7157626319
561440475011,44695,-2,0,7777.6769831023,10089.5515471581,13674.3497143460,2182.6049530089,-5675.2936552471,-2845.5740821037,-5589.2193679216,-20448.3255542206,-8049.8196902442,-2388.8352464609,-4812.1050749307,866.6198708204,-20978.2652539502,10877.1665625071,13243.6010791170,18703.8063576249
561440475011,44695,-2,0,7776.2776979676,10092.5934713638,13682.4412327332,2186.3161005399,-5679.4671752573,-2836.5091479706,-5586.0679344444,-20452.4017326563,-8053.1293037800,-2390.5387240161,-4803.0644761913,860.5968608930,-20983.9232329729,10872.2264775970,13237.2982121627,18697.9780308467
561440475011,44695,-2,0,7772.1406810478,10089.0891746788,13682.8792698189,2185.6590449114,-5686.9989795907,-2837.4703960196,-5589.2193679216,-20459.2034751803,-8059.6633569740,-2396.2088707356,-4804.2690781768,853.3570812834,-20990.4694538636,10865.4490704666,13229.4013769246,18691.4074745624
561440475011,44695,-2,0,7770.1938495562,10086.2054305318,13678.2433773293,2181.0231524219,-5688.6659540555,-2844.3451447246,-5594.3176328904,-20460.6149280118,-8062.7417842702,-2398.6545777970,-4812.6526212878,853.6004352199,-20990.8223170715,10865.0110333810,13231.4455499909,18693.1839582985
561440475011,44695,-2,0,7771.2037683925,10083.1148355388,13671.1009392942,2175.7545396976,-5684.2977508961,-2851.5484212437,-5594.8895146411,-20454.0200363337,-8054.5164212179,-2391.8771706666,-4817.9212340121,861.1444072501,-20983.6555436428,10872.0561298415,13239.4640621972,18701.8108553460
561440475011,44695,-2,0,7774.6958973807,10090.0747581215,13674.3862174364,2178.9668116588,-5673.1034698189,-2844.2843062405,-5588.6353184741,-20447.2304615065,-8045.2446362388,-2384.1871862745,-4810.9856468230,869.1507517596,-20976.7929626346,10880.1598159256,13246.9106926528,18708.1745607844
561440475011,44695,-2,0,7780.6215657334,10096.2924511980,13683.4998223568,2187.6667148872,-5670.1588871878,-2829.3058714514,-5580.8844955979,-20446.8532629050,-8043.2978047471,-2381.6198022449,-4797.9297081320,868.3233483756,-20975.2111620476,10881.2914117301,13245.2558858849,18707.2741512195
561440510186,44696,-2,0,7777.2876168040,10093.2018562050,13687.1379637069,2189.5162048043,-5674.3932456822,-2825.7894070696,-5580.9818371725,-20451.2823045486,-8047.0697907622,-2383.5422983429,-4795.1433055596,861.7771274849,-20980.6744579211,10876.3878299105,13239.6587453464,18701.8108553460
561440510186,44696,-2,0,7770.9725821528,10086.5217906492,13682.7819282443,2183.5418656642,-5677.9462131545,-2831.8367523906,-5585.7150712366,-20454.6649242653,-8051.2311430757,-2387.5576382945,-4803.3321655214,857.7374521397,-20981.4896936083,10874.8912032012,13238.2472925149,18700.6670918446
561440510186,44696,-2,0,7770.9360790624,10084.8061453971,13675.1284469426,2178.7234577223,-5674.1133886553,-2840.1229539270,-5587.9782628456,-20451.1362921867,-8046.7777660385,-2385.4161236537,-4812.5796151068,862.9573940767,-20976.8416334219,10880.3423313779,13244.6109979533,18706.8482818307
561440510186,44696,-2,0,7776.3385364518,10088.2009328107,13676.2843781408,2180.1349105538,-5666.2773919013,-2836.0467754913,-5583.5735565957,-20444.9307668070,-8038.9904400718,-2376.8987358776,-4806.2037419716,870.6352107720,-20970.2832448343,10887.3265893543,13251.6074236265,18712.6887763057
561440510186,44696,-2,0,7783.7608315138,10097.0103453106,13688.6224227193,2190.0759188582,-5661.3616423848,-2823.7208986097,-5574.8493179737,-20441.4873086061,-8036.8975962182,-2371.7031293342,-4793.3424864298,872.3386883272,-20969.6991953868,10884.5523544787,13250.0621261300,18711.2529880806
561440510186,44696,-2,0,7786.4012217243,10102.4371380936,13699.3786667108,2199.4937161991,-5664.0385356859,-2815.1670077432,-5571.0529965649,-20443.1177799804,-8040.4627313874,-2374.3556872416,-4787.2221349278,867.9339820773,-20972.5221010498,10883.7127833979,13248.0787915478,18708.2597346621
561440510186,44696,-2,0,7781.8018323253,10099.5655616434,13695.5336745147,2195.4540408539,-5669.1368006547,-2820.7763159785,-5576.4189508638,-20448.7149205189,-8045.1837977547,-2380.1718463230,-4795.5691749484,863.1399095290,-20978.6546202485,10878.7970338814,13244.0634515963,18704.9014503390
561440510186,44696,-2,0,7778.5773926672,10094.8931660634,13684.5949150709,2187.6058764031,-5670.7186012417,-2833.4915591585,-5582.4662961849,-20448.1308710714,-8045.4514870848,-2381.1574297656,-4807.0433130524,865.8289705269,-20978.1557446788,10879.3810833289,13246.0832892689,18708.5030885986
561440537669,44697,-2,0,7781.7288261443,10096.9373391296,13682.3317234618,2186.9244853810,-5665.4743239110,-2835.3410490756,-5579.2661919204,-20442.2782088996,-8041.2414639840,-2378.4805364646,-4806.1064003970,873.0444147429,-20974.3837586637,10883.4937648551,13250.4149893378,18712.6887763057
561440537669,44697,-2,0,7786.5228986926,10101.4637223477,13688.9631182303,2194.8334883159,-5663.1259584241,-2825.5460531331,-5570.9556549903,-20439.5404771144,-8040.5600729619,-2375.4507799557,-4793.5858403662,873.6893026745,-20977.7298752900,10880.7438653731,13247.5434128876,18712.1412299486
561440537669,44697,-2,0,7786.5350663894,10104.5786527344,13698.8676234442,2201.6960693241,-5665.1944668840,-2815.6172125256,-5567.2323397625,-20442.1321965377,-8044.3198912802,-2376.5580403666,-4786.1392099106,869.9781551435,-20984.8601456282,10873.6135950348,13241.4717321730,18706.8239464370
561440537669,44697,-2,0,7784.6855764723,10103.0820260252,13699.0014681093,2201.2945353289,-5668.4310742389,-2818.1602611616,-5568.0719108433,-20443.9573510612,-8048.1770511731,-2380.4395356531,-4790.7385993097,867.2282556615,-20988.0237468022,10870.4378261640,13236.9575166517,18700.8374396001
561440537669,44697,-2,0,7782.5805649219,10099.2978723133,13690.5449188173,2193.5923832400,-5667.7010124296,-2826.8601643900,-5574.4112808881,-20443.2394569486,-8047.4834924542,-2379.8311508119,-4801.8355388122,869.4549441801,-20985.5172012567,10873.0903840714,13240.2184594002,18710.2917400316
561440537669,44697,-2,0,7785.3304644039,10102.3762996095,13688.2330564209,2192.5702967069,-5663.6491693875,-2830.5348088305,-5573.4256974454,-20438.3845459163,-8040.6939176270,-2374.7450535399,-4802.5412652279,876.0620035550,-20978.6181171581,10879.2837417543,13245.6452521833,18716.6676131668
561440537669,44697,-2,0,7790.6720833092,10108.8495143193,13695.6066806956,2199.1286852944,-5658.3075504822,-2817.9899134061,-5567.6217060609,-20435.7563234025,-8037.4573102721,-2371.1069121899,-4792.1865552316,877.6316364452,-20975.4910190746,10882.3134982632,13246.4483201736,18716.5094331081
561440537669,44697,-2,0,7792.7649271627,10113.4975745056,13704.0267268971,2206.1372786644,-5659.6338294360,-2808.0367374049,-5562.0123978255,-20435.1601062582,-8038.4672291084,-2370.6932104979,-4782.4402300764,875.3441094424,-20976.6712856664,10878.3346614021,13242.4573156156,18709.6590197968
561440566499,44698,-2,0,7793.0204487960,10109.5309053414,13709.3075073183,2205.8695893343,-5661.1912946293,-2810.3729351949,-5563.7280430775,-20440.7329114031,-8040.9616069571,-2372.4696942341,-4784.1802107221,872.3873591145,-20980.7231287084,10877.4220841404,13243.7227560852,18709.9388768237
561440566499,44698,-2,0,7788.7130841207,10103.7147462600,13698.8067849601,2198.5081327565,-5662.7974306099,-2822.2851103846,-5569.9700715477,-20439.9906818969,-8042.8354322678,-2375.6576308017,-4795.5813426452,873.2390978921,-20979.3846820579,10877.7992827419,13246.3266432053,18712.5549316406
561440566499,44698,-2,0,7788.5062332747,10101.3298776827,13690.7030988760,2192.4972905259,-5661.8726856514,-2828.6488158230,-5573.1945112058,-20437.8735026497,-8040.2193774509,-2375.1587552319,-4800.3145767093,876.5487114279,-20977.0606519647,10882.3378336569,13249.0278719000,18718.1642398760
561440566499,44698,-2,0,7789.3579720523,10104.2136218297,13693.8423646563,2194.5779666826,-5661.2399654166,-2823.5627185510,-5571.1503381395,-20439.7351602636,-8040.4140606001,-2374.2826810607,-4792.7949400727,874.7235569045,-20977.6203660186,10880.8290392508,13246.9228603497,18713.2363226627
561440566499,44698,-2,0,7789.2362950841,10108.5209865051,13701.1551504469,2202.1827771970,-5663.1867969082,-2814.7533060512,-5567.6095383640,-20441.4508055156,-8045.1472946642,-2377.3976114473,-4786.0053652455,869.6374596325,-20980.2242531387,10874.4531661156,13239.0990312925,18709.4521689508
561440566499,44698,-2,0,7787.5084821352,10106.4524780452,13701.5566844421,2202.0367648351,-5668.2850618771,-2817.4788701395,-5571.7343875870,-20447.1087845383,-8049.3329823713,-2382.0700070274,-4791.2253071826,863.7847974607,-20985.2738473202,10874.7330231425,13237.8822616102,18707.9190391511
561440566499,44698,-2,0,7783.5783160614,10101.2082007145,13696.4705871701,2193.7748986923,-5671.3269860828,-2828.8434989721,-5580.1422660917,-20450.1872118345,-8051.0851307138,-2384.6617264506,-4804.5489352037,861.9596429372,-20985.6145428312,10873.2120610397,13237.6875784611,18709.9997153078
561440566499,44698,-2,0,7782.2763725014,10095.5137186013,13686.1158771738,2186.3647713272,-5670.4509119115,-2837.1783712959,-5583.1111841165,-20448.1917095555,-8049.5276655205,-2384.1628508809,-4812.5187766227,865.4639396222,-20982.0980784494,10877.6167672896,13241.7029184126,18713.2971611468
561440605222,44699,-2,0,7782.6170680124,10098.9328414086,13684.6679212518,2188.3116028188,-5670.9011166940,-2833.0900251633,-5580.6654770551,-20447.7050016826,-8049.0044545571,-2382.9217458050,-4806.3984251208,864.9650640525,-20982.6456248064,10878.2251521307,13242.8345142172,18713.7473659293
561440605222,44699,-2,0,7780.1105224669,10099.3222077069,13692.0415455265,2192.4851228291,-5673.7605254474,-2823.9764202430,-5577.3315281256,-20450.2237149250,-8052.3992419707,-2381.8023176973,-4795.5083364643,861.6797859103,-20985.0061579901,10874.4653338124,13238.9651866275,18708.5030885986
561440605222,44699,-2,0,7778.1271878847,10097.0955191883,13692.8689489105,2192.6311351910,-5678.9074612035,-2823.9885879398,-5578.5239624142,-20453.8983593655,-8055.0517998781,-2385.3309497759,-4795.5083364643,859.7572898123,-20986.4906170025,10871.8127759050,13237.2860444659,18705.6923506325
561440605222,44699,-2,0,7773.9536678745,10092.4474590019,13685.3006414866,2185.9510696352,-5678.6519395702,-2832.8831743174,-5584.4131276765,-20453.4846576735,-8054.5650920052,-2386.2191916440,-4806.0942327002,860.7063701644,-20982.7307986842,10875.5239234360,13239.5614037718,18707.7365236987
561440605222,44699,-2,0,7772.9559167350,10089.8435718818,13676.4060551090,2178.6626192382,-5674.5392580441,-2839.4537306017,-5586.4207976523,-20450.4305657710,-8048.4082374127,-2382.7879011399,-4811.0829883976,865.9141444047,-20974.8826342334,10882.6176906838,13245.7182583642,18714.4409246482
561440605222,44699,-2,0,7774.2335249014,10091.1820185324,13677.4889801263,2179.6482026809,-5673.0304636380,-2836.4604771833,-5583.8655813195,-20447.0844491447,-8045.2933070261,-2381.9483300591,-4805.2789970131,868.9439009136,-20973.5441875829,10884.0413112121,13248.5654994208,18715.2074895480
561440605222,44699,-2,0,7777.0442628675,10095.9882587774,13687.7828516385,2188.3116028188,-5671.4729984447,-2824.8768298079,-5577.3436958224,-20449.5179885092,-8045.6096671435,-2385.0145896585,-4796.0437151245,865.1110764144,-20978.0340677106,10879.4905926003,13243.9904454153,18709.2818211953
561440605222,44699,-2,0,7775.7179839138,10094.5524705523,13691.3966575949,2189.2363477774,-5675.4396676090,-2824.8889975047,-5579.0715087713,-20455.6870107985,-8051.3649877407,-2388.5432217372,-4797.2361494131,860.0249791424,-20986.1985922787,10872.7375208636,13237.4563922214,18703.3439851457
561440635294,44700,-2,0,7771.4106192385,10090.0139196374,13686.8216035895,2183.2376732437,-5677.0214681959,-2834.2946271488,-5585.9949282635,-20457.4634945346,-8054.0175456481,-2392.1205246031,-4808.7102875171,859.2584142425,-20985.9795737359,10873.4189118857,13236.8115042898,18703.2223081774
561440635294,44700,-2,0,7772.1771841383,10087.6290510601,13676.9536014661,2179.5143580158,-5673.7240223569,-2842.3618101424,-5588.2824552662,-20453.1561298593,-8049.6980132760,-2391.6338167302,-4816.0717440950,863.6752881892,-20979.5671975102,10878.9308785465,13243.1995451218,18709.6711874936
561440635294,44700,-2,0,7774.5498850188,10090.6953106594,13676.4668935932,2180.2565875220,-5670.1588871878,-2839.7457553255,-5584.8024939749,-20449.5301562061,-8046.1207104100,-2386.1218500694,-4809.2213307837,866.6807093045,-20976.1602423998,10881.8754611776,13246.4118170831,18714.4287569514
561440635294,44700,-2,0,7774.2456925982,10092.5813036670,13682.3438911586,2185.2088401290,-5674.7826119805,-2831.0336844003,-5581.5902220136,-20451.9636955707,-8050.4524104790,-2387.5333029009,-4801.1298123965,861.2295811278,-20981.8668922098,10878.4563383704,13241.2648813270,18711.1921495965
561440635294,44700,-2,0,7769.6949739864,10090.2329381802,13682.2343818872,2183.4931948769,-5681.1706528126,-2830.9363428257,-5584.7051524003,-20459.4711645104,-8058.0693886902,-2392.0961892095,-4801.5435140884,854.7807018117,-20988.1089206799,10867.7974359535,13231.0196806021,18701.3484828667
561440635294,44700,-2,0,7762.4186912863,10081.7763888882,13674.4957267078,2176.3020860546,-5686.2567500845,-2841.7169222108,-5592.5046460638,-20462.5982625939,-8061.9387162799,-2395.8803429214,-4812.1902488085,852.4688394153,-20990.1287583526,10867.8217713471,13231.4698853845,18702.6625941236
561440635294,44700,-2,0,7760.6543752470,10077.8705582081,13666.5137175920,2166.6896055645,-5686.8164641384,-2851.1833903391,-5598.7345068371,-20460.5784249213,-8060.7097789007,-2394.7122440264,-4822.5449588048,855.7662852543,-20987.2328465087,10872.8713655286,13237.2982121627,18711.7518636503
561440635294,44700,-2,0,7765.1320876778,10080.9124824138,13665.2726125161,2168.1375614864,-5682.3874224949,-2849.8449436885,-5597.0188615851,-20457.5608361092,-8056.7796128269,-2392.1813630872,-4818.9676559389,859.3070850298,-20983.0349911048,10876.2539852454,13240.3644717621,18715.3169988194
561440696202,44701,-2,0,7767.9671610376,10085.8038965366,13674.2645404682,2176.1074029054,-5683.5798567835,-2841.3153882157,-5591.9936027972,-20459.0696305153,-8058.7751151059,-2390.0641838400,-4806.5687728763,856.3746700955,-20985.4320273789,10874.3436568442,13238.8800127497,18713.1146456945
561440696202,44701,-2,0,7767.7481424948,10088.6024668059,13684.4732381027,2180.4025998839,-5684.7722910721,-2831.6664046351,-5591.4825595307,-20462.8659519240,-8061.7927039180,-2391.1227734636,-4801.0811416092,851.0938896743,-20988.3036038291,10870.3891553767,13235.3635483679,18708.6004301732
561440696202,44701,-2,0,7766.4583666315,10086.4366167714,13680.9689414177,2178.2732529399,-5684.7114525880,-2835.6452414962,-5593.5267325969,-20463.5108398556,-8062.4497595464,-2391.9988476349,-4808.1749088569,851.5440944568,-20987.8533990467,10872.1169683256,13237.6389076738,18707.0307972830
561440696202,44701,-2,0,7766.0446649396,10082.3604383357,13674.0576896222,2172.1772368316,-5680.7812865142,-2843.9557784262,-5596.6294952868,-20460.1647232293,-8057.4731715458,-2390.2101962019,-4815.3781853761,856.2773285209,-20982.0007368748,10875.6821034947,13243.7105883884,18711.2286526869
561440696202,44701,-2,0,7767.1519253504,10083.8570650450,13673.2424539351,2171.3254980540,-5677.0214681959,-2844.5519955706,-5594.7678376728,-20457.7433515616,-8053.8958686799,-2386.6085579423,-4813.5895339431,859.1124018806,-20979.2873404833,10878.8092015782,13246.7768479878,18712.5184285502
561440696202,44701,-2,0,7768.0645026122,10085.8769027176,13676.3208812313,2175.4746826706,-5680.1850693699,-2836.8985142689,-5592.3464660051,-20459.9213692929,-8055.6236816288,-2388.2998678007,-4806.0333942161,855.2795773814,-20983.8258913983,10876.0106313089,13242.0679493173,18705.6315121484
561440696202,44701,-2,0,7764.3411873843,10084.7696423067,13680.5187366352,2178.0907374876,-5684.8696326467,-2833.0413543761,-5591.5555657116,-20465.2386528045,-8060.8557912626,-2391.4391335810,-4803.1861531595,848.6481826129,-20989.9097398097,10868.5883362470,13236.3126287201,18699.4016513750
561440696202,44701,-2,0,7761.3966047532,10081.9345689469,13680.2632150019,2174.5499377121,-5688.1792461826,-2839.2833828462,-5595.9967750520,-20467.5018444135,-8063.8247092874,-2395.5518151072,-4811.7643794197,845.7401030722,-20992.1485960252,10864.9745302905,13231.5185561718,18695.6905038440
561440718901,44702,-2,0,7760.5813690661,10078.5032784429,13670.9792623260,2170.1087283717,-5684.9061357372,-2850.8791979185,-5598.7466745339,-20465.5185098314,-8059.4321707343,-2395.7221628627,-4822.9343251032,848.6846857034,-20987.3910265674,10871.3139003353,13236.9940197421,18701.6770106809
561440718901,44702,-2,0,7764.9860753160,10084.0639158909,13670.1761943357,2170.1330637654,-5678.3842502401,-2849.8936144758,-5595.3640548172,-20461.4179960021,-8053.5186700784,-2391.0984380700,-4820.3061025894,854.7320310244,-20983.4486927968,10875.4630849519,13241.3378875079,18706.9942941925
561440718901,44702,-2,0,7768.0766703090,10088.2982743853,13679.8860164004,2177.7257065829,-5675.5126737899,-2840.6461648904,-5590.2171190611,-20461.7830269068,-8053.5795085625,-2391.6094813365,-4810.2677527105,853.3205781929,-20984.8479779314,10873.2120610397,13239.3788883194,18705.4003259087
561440718901,44702,-2,0,7769.7923155610,10090.2086027865,13687.5638330957,2182.2885928915,-5678.5059272083,-2833.7835838823,-5585.9827605667,-20463.7663614889,-8056.3050726508,-2395.6369889849,-4804.1717366022,850.9843804029,-20989.3743611495,10870.4986646482,13236.7628335025,18700.8617749938
561440718901,44702,-2,0,7770.3520296149,10087.5195417887,13687.6611746703,2182.8361392485,-5680.1607339763,-2835.7304153739,-5589.7912496723,-20465.3603297727,-8059.2131521915,-2400.6135769855,-4808.7954613949,850.0961385348,-20989.4717027241,10871.0462110052,13238.2594602117,18701.1051289302
561440718901,44702,-2,0,7767.4804531647,10080.6934638710,13679.1559545910,2175.0974840691,-5679.7713676779,-2845.6592559814,-5593.6970803524,-20462.6591010780,-8056.6092650714,-2401.0637817680,-4818.2619295232,853.6977767944,-20984.3612700585,10875.7186065852,13243.6132468138,18706.6657663783
561440718901,44702,-2,0,7764.7548890763,10078.3694337778,13669.7138218564,2170.7171132129,-5678.2382378782,-2850.5506701043,-5593.8187573207,-20458.2057240408,-8052.6425959071,-2399.6158258460,-4819.1258359976,858.2484954062,-20979.0196511532,10878.4441706735,13245.7182583642,18706.9456234052
561440718901,44702,-2,0,7769.2569369008,10083.3460217784,13676.1261980821,2176.4480984165,-5676.0845555406,-2840.5974941031,-5588.0391013298,-20457.5730038060,-8053.2509807483,-2397.0362741196,-4809.2821692678,859.9641406582,-20981.8547245130,10878.5415122481,13246.2536370244,18707.4566666718
561440735128,44703,-2,0,7769.5002908373,10085.5362072065,13685.7630139659,2181.5950341726,-5678.7006103575,-2830.4374672559,-5584.2306122242,-20460.5175864372,-8055.9278740493,-2393.7631636742,-4800.4605890712,855.8757945257,-20987.1233372373,10874.1003029077,13241.5934091412,18702.7842710918
561440735128,44703,-2,0,7769.3056076881,10084.0517481941,13687.9775347877,2182.5319468279,-5680.4284233064,-2830.6564857988,-5583.5127181116,-20460.7366049800,-8057.0838052475,-2393.3616296790,-4801.9693834772,856.1556515527,-20988.3644423132,10875.0615509568,13242.1166201046,18701.3971536540
561440735128,44703,-2,0,7770.2303526466,10083.0539970546,13682.9401083030,2179.6116995904,-5676.3157417802,-2838.6263272178,-5586.2261145031,-20457.6095068965,-8053.7620240148,-2388.7744079768,-4810.7544605834,860.2196622915,-20983.3270158285,10878.8335369719,13245.7912645451,18704.1835562264
561440735128,44703,-2,0,7770.8995759719,10082.3239352453,13678.8639298673,2176.8618001084,-5671.1444706305,-2840.2202955016,-5586.4207976523,-20452.9979498006,-8046.8386045226,-2382.7635657463,-4811.5940316642,864.7217101160,-20978.8371357009,10882.8002061361,13250.7070140616,18708.9167902906
561440735128,44703,-2,0,7774.9514190139,10084.4776175829,13682.7697605474,2181.1569970869,-5670.0737133100,-2833.1386959506,-5584.1454383464,-20453.9348624560,-8045.4636547816,-2382.4472056289,-4804.0622273308,864.2350022431,-20978.0705708010,10881.8754611776,13248.9670334159,18705.9722076594
561440735128,44703,-2,0,7773.9536678745,10084.5384560670,13689.8513600984,2185.2453432194,-5675.0016305233,-2826.4099596076,-5583.6465627767,-20460.7852757673,-8051.1946399852,-2387.3142843580,-4799.0734716334,856.3016639145,-20983.6312082491,10877.3247425658,13243.2968866964,18699.6450053115
561440735128,44703,-2,0,7770.7778990037,10080.2919298758,13691.8346946805,2184.1015797181,-5680.6352741523,-2828.4663003706,-5588.0634367234,-20464.6546033570,-8055.3924953891,-2388.8960849450,-4801.4583402107,851.5927652441,-20985.6875490122,10874.7573585362,13241.3135521143,18696.2258825042
561440735128,44703,-2,0,7768.2348503677,10076.7632977972,13686.6999266213,2177.6648680988,-5680.6109387587,-2837.8962654084,-5593.6362418683,-20461.6370145449,-8054.5650920052,-2389.2246127592,-4812.7012920751,853.6734414008,-20981.5870351828,10877.3977487468,13243.0657004568,18696.6152488026
561440756277,44704,-2,0,7769.2934399913,10075.2058326038,13679.0951161069,2173.9658882646,-5676.0967232374,-2841.9967792377,-5592.5654845479,-20455.3219798938,-8046.7899337353,-2384.7347326316,-4814.9158128968,862.2151645705,-20975.7343730110,10886.8763845718,13254.0531306879,18708.4300824176
561440756277,44704,-2,0,7768.9527444802,10076.8849747654,13682.2830526745,2175.2434964310,-5673.6388484792,-2835.5357322248,-5588.3432937503,-20454.4945765098,-8044.9282761214,-2380.7802311641,-4804.9017984116,864.5270269669,-20974.3594232700,10888.0201480732,13255.2820680670,18710.6567709362
561440756277,44704,-2,0,7768.6485520597,10077.6028688780,13688.6589258098,2180.1470782506,-5678.1895670909,-2829.3545422387,-5586.5911454078,-20459.4711645104,-8050.0995472711,-2383.6274722207,-4797.3821617750,859.1124018806,-20979.5306944198,10883.1409016472,13248.0179530637,18703.1614696933
561440756277,44704,-2,0,7764.2925165971,10073.5023550486,13686.2618895356,2178.2245821526,-5683.3486705439,-2831.2283675494,-5589.0490201661,-20464.3382432396,-8056.4389173159,-2390.2832023828,-4801.5921848757,853.1137273469,-20984.0692453347,10878.0791397688,13243.0900358504,18699.8031853702
561440756277,44704,-2,0,7761.5547848119,10067.0534757325,13680.1902088210,2172.0920629538,-5686.4270978401,-2842.5929963821,-5595.0111916093,-20465.6645221933,-8058.1667302647,-2392.0475184222,-4813.9302294542,853.4787582516,-20983.1566680730,10874.5018369029,13240.3644717621,18699.6085022210
561440756277,44704,-2,0,7766.2393480887,10068.6961148036,13676.9170983756,2170.4372561859,-5682.5821056440,-2849.5285835711,-5595.1450362744,-20459.3373198454,-8053.3361546260,-2390.5752271066,-4818.7851404865,859.1489049711,-20977.3648443853,10881.5591010602,13249.9161137681,18710.6202678458
561440756277,44704,-2,0,7776.0708471217,10077.7975520271,13684.4245673154,2177.2511664068,-5675.6830215454,-2840.4271463476,-5585.4473819065,-20451.9515278738,-8046.5952505861,-2384.5035463919,-4806.4105928176,866.5712000331,-20971.0011389469,10887.4482663225,13253.7732736610,18715.8888805701
561440756277,44704,-2,0,7779.6116468971,10081.5938734359,13697.2006489795,2187.2286778016,-5671.7163523811,-2823.8912463652,-5574.2652685262,-20449.2746345728,-8042.6529168155,-2376.3390218237,-4789.9233636225,869.6131242388,-20970.8916296755,10892.4248543231,13258.2509860918,18719.9650590058
561440787776,44705,-2,0,7775.8639962757,10081.0098239884,13700.6684425740,2189.7230556503,-5673.8456993251,-2823.4288738859,-5573.8880699247,-20449.8708517171,-8046.0720396227,-2377.0325805427,-4788.1225444927,866.4251876712,-20973.2764982528,10890.9768984012,13255.5984281844,18715.7672036019
561440787776,44705,-2,0,7773.4791276984,10079.3915203109,13692.6742657613,2184.4057721387,-5680.0877277953,-2835.5844030120,-5584.4496307670,-20456.2102217619,-8051.1824722884,-2385.7203160742,-4805.6440279178,861.3512580961,-20977.1214904488,10885.9516396133,13251.4127404773,18711.1799818996
561440787776,44705,-2,0,7780.0010131955,10085.0616670304,13686.4079018975,2181.9357296836,-5683.4095090280,-2850.7696886471,-5594.3906390713,-20459.9943754738,-8054.4190796433,-2389.8695006909,-4818.4444449755,858.9785572156,-20978.7762972168,10885.0755654420,13249.6970952253,18711.6545220757
561440787776,44705,-2,0,7795.9041929431,10101.4758900446,13696.8599534684,2192.4729551323,-5681.0368081475,-2847.5574166858,-5591.8475904353,-20457.5486684124,-8052.0585464596,-2388.2755324071,-4814.0032356351,860.8888856168,-20978.6181171581,10884.6253606596,13249.1130457778,18713.1998195722
561440787776,44705,-2,0,7812.2575774731,10120.8468633867,13714.1867537443,2208.6924949973,-5678.5911010861,-2834.0147701219,-5584.1576060432,-20456.2102217619,-8053.0319622055,-2386.7058995169,-4801.6286879662,860.2318299884,-20982.5482832319,10880.5005114366,13245.0490350389,18709.1236411366
561440787776,44705,-2,0,7823.3423492788,10131.9803059797,13727.8389095796,2219.0593726904,-5681.4626775363,-2827.1400214169,-5581.7484020723,-20455.1637998351,-8055.1734768463,-2385.7081483774,-4795.8733673689,860.0614822328,-20987.3058526896,10877.2030655976,13242.5911602807,18707.1403065544
561440787776,44705,-2,0,7826.4207765750,10135.0709009727,13728.3621205430,2220.3491485536,-5680.4162556095,-2832.6763234714,-5582.1621037643,-20452.3530618690,-8053.9080363767,-2382.8244042304,-4800.8377876727,863.5901143115,-20983.6433759459,10878.4563383704,13243.7227560852,18708.0893869066
561440787776,44705,-2,0,7833.5510469132,10141.3250971397,13724.9186623421,2219.4000682014,-5675.0503013106,-2838.2126255258,-5582.2229422484,-20446.5125673940,-8047.0089522781,-2379.9893308706,-4806.1672388812,871.8519804543,-20977.9488938328,10886.7912106941,13253.7367705705,18716.1930729907
561440817445,44706,-2,0,7848.7728356387,10154.6122220704,13731.7690756534,2230.2536537675,-5669.5505023466,-2833.3698821903,-5574.9709949419,-20441.2439546696,-8042.1540412458,-2375.3169352906,-4799.3289932667,877.1327608754,-20974.8339634461,10889.5167747824,13256.3528253874,18719.7582081598
561440817445,44706,-2,0,7861.0257063394,10165.8795093284,13747.0395351662,2241.8251334461,-5672.1300540731,-2822.7718182575,-5570.6027917825,-20441.2926254569,-8044.1738789184,-2374.7328858431,-4788.4145692165,872.9105700779,-20980.8326379798,10883.8466280629,13250.4514924283,18716.2539114748
561440817445,44706,-2,0,7867.8274488635,10175.3216420630,13754.6565133774,2248.9554037844,-5677.7271946117,-2819.4865401153,-5570.0065746382,-20444.6752451737,-8052.0828818533,-2380.7437280737,-4787.3073088056,868.1530006201,-20987.8168959562,10877.4707549277,13244.1607931709,18710.2309015474
561440817445,44706,-2,0,7870.7963668883,10179.6898452224,13754.0116254458,2250.2573473444,-5679.8322061620,-2825.8137424632,-5574.1070884675,-20444.1033634230,-8053.8715332862,-2382.4715410225,-4794.0968836328,868.5058638280,-20988.6808024306,10876.3269914263,13243.4672344519,18710.9001248727
561440817445,44706,-2,0,7873.9234649718,10180.1765530954,13749.5582484086,2246.6922121753,-5674.5270903472,-2833.3577144935,-5576.2486031083,-20440.8424206745,-8048.1892188699,-2379.5512937850,-4800.3997505871,872.4847006891,-20984.3491023617,10880.9750516127,13248.1517977288,18716.1809052939
561440817445,44706,-2,0,7880.6643690117,10186.7227739861,13752.6123403111,2250.0626641953,-5668.8812790214,-2831.2405352463,-5571.7343875870,-20434.8559138376,-8042.3973951822,-2374.8058920241,-4797.0171308703,877.0962577850,-20978.2652539502,10886.0003104006,13252.2036407708,18720.0258974899
561440817445,44706,-2,0,7891.2989360349,10200.8616376944,13765.8872975450,2263.7148200306,-5665.7176778474,-2817.6248825014,-5563.7037076839,-20432.9455854364,-8040.5479052651,-2371.0217383121,-4784.5817447173,877.1814316627,-20978.9344772754,10882.2769951728,13247.9206114891,18715.9132159638
561440817445,44706,-2,0,7894.9614127786,10205.4123563061,13777.9333173997,2272.0983631416,-5667.2508076471,-2809.7645503538,-5561.3553421970,-20435.8049941898,-8043.0179477202,-2369.7684655394,-4778.4005547312,874.6262153299,-20985.4806981662,10879.0647232115,13244.7205072247,18715.5481850591
561440847686,44707,-2,0,7890.4715326510,10203.6845433573,13773.3217603038,2270.2123701340,-5670.3900734274,-2814.6559644766,-5564.5919495520,-20436.9609253880,-8046.0355365323,-2374.2826810607,-4785.2631357393,874.4193644839,-20989.8002305383,10875.0980540472,13242.4451479188,18713.8082044134
561440847686,44707,-2,0,7889.4616138147,10200.2045820659,13763.2469073344,2262.4007087737,-5668.9664528991,-2823.6357247319,-5567.4513583053,-20433.0915977983,-8043.2004631725,-2373.0659113784,-4793.9022004836,879.5419648464,-20985.7483874963,10879.2594063607,13248.8696918413,18719.7825435535
561440847686,44707,-2,0,7890.8000604652,10198.9269738995,13761.3609143268,2260.8797466709,-5664.2210511382,-2823.6357247319,-5563.0223166618,-20427.8351527708,-8036.5203976167,-2367.4444354462,-4789.1202956322,886.0395149498,-20980.7717994957,10886.5600244544,13255.4767512162,18727.5577018233
561440847686,44707,-2,0,7894.0731709106,10202.7476307019,13769.3429234427,2265.2844529208,-5661.0209468738,-2813.8528964863,-5559.4085107054,-20428.8329039102,-8035.6929942328,-2368.0041495000,-4778.7169148486,884.3725404851,-20981.3558489432,10885.7082856768,13253.3717396658,18724.7712992509
561440847686,44707,-2,0,7889.9118185971,10201.8715565307,13772.9323940054,2267.7666630726,-5667.0682921948,-2811.6505433613,-5560.6252803877,-20434.8559138376,-8042.3000536076,-2372.4575265372,-4777.4028035917,874.7843953886,-20987.5978774134,10878.4198352799,13244.9881965548,18716.8257932255
561440847686,44707,-2,0,7878.8757175787,10191.7845358644,13766.9215517749,2258.9329151792,-5675.3909968217,-2821.9079117831,-5569.7632207017,-20442.6797428948,-8049.3208146745,-2378.6995550074,-4787.8426874658,867.1795848743,-20991.4185342158,10874.6600169616,13239.9142669796,18712.1047268582
561440847686,44707,-2,0,7868.4966721887,10180.2373915795,13752.9530358222,2247.7873048894,-5674.1620594425,-2831.7394108160,-5577.0273357050,-20445.7703378878,-8048.7854360143,-2381.4616221862,-4801.1054770028,868.6153730994,-20985.4320273789,10879.2229032702,13243.6497499043,18713.5040119928
561440847686,44707,-2,0,7862.3884883836,10175.8205176327,13743.6447477526,2241.4235994510,-5670.8646136035,-2833.0778574665,-5576.2121000179,-20442.9717676185,-8043.0909539011,-2378.5413749487,-4801.5678494821,872.6307130509,-20981.1368304004,10884.6740314469,13246.6430033227,18717.6653643063
561440880203,44708,-2,0,7860.8431908871,10173.7641768697,13747.3680629804,2243.9788157838,-5670.0858810069,-2823.6478924287,-5570.0430777286,-20443.1907861613,-8042.8475999647,-2374.9032335986,-4792.0162074761,871.4261110655,-20982.2319231145,10884.0656466057,13244.4406501978,18714.2827445895
561440880203,44708,-2,0,7857.1685464466,10172.8515996080,13755.2770659154,2248.8580622098,-5672.1787248604,-2814.0110765450,-5566.2954271072,-20446.4395612130,-8045.7800148990,-2375.7549723762,-4784.6547508982,867.7027958376,-20985.9309029486,10880.5735176175,13242.0801170141,18708.7707779287
561440880203,44708,-2,0,7852.3136354142,10166.7190804092,13751.7484338367,2245.9134795786,-5672.9939605475,-2817.3815285649,-5569.2765128288,-20448.5202373698,-8049.4546593395,-2378.4440333741,-4791.1279656080,864.7947162970,-20987.0868341468,10878.9065431528,13241.2892167206,18706.7874433466
561440880203,44708,-2,0,7845.8525884012,10158.4572142664,13741.6370777768,2236.3253344822,-5674.8921212519,-2828.9773436372,-5576.5406278321,-20449.8708517171,-8049.3451500681,-2380.7558957705,-4802.3830851692,864.1984991526,-20985.1521703520,10881.2427409428,13243.2725513028,18708.7464425350
561440880203,44708,-2,0,7841.8250807528,10153.4927939627,13732.0489326804,2228.5988469996,-5672.4099111000,-2834.1729501806,-5577.8790744826,-20448.7514236094,-8044.6119160040,-2379.4174491200,-4806.0090588225,868.7492177644,-20980.5527809529,10886.6330306354,13246.9593634401,18710.1335599729
561440880203,44708,-2,0,7839.4402121755,10152.7383967596,13731.2945354773,2230.0102998310,-5671.3999922637,-2828.5514742484,-5574.6668025213,-20447.0844491447,-8044.5754129135,-2379.7216415405,-4797.9662112225,868.3841868597,-20981.8425568161,10886.0733165815,13245.2437181881,18709.1844796207
561440880203,44708,-2,0,7833.2103514022,10148.2363489351,13733.3387085436,2230.6795231563,-5676.4130833548,-2820.5694651325,-5574.5207901595,-20454.0078686369,-8050.3915719949,-2381.3399452180,-4792.3934060776,862.8357171085,-20986.3202692470,10879.6609403558,13237.8822616102,18704.0618792582
561440880203,44708,-2,0,7823.3910200661,10141.2399232619,13729.6762317999,2225.3865750383,-5681.5843545045,-2823.1611845558,-5578.4266208396,-20458.6559288233,-8056.5484265873,-2385.4769621378,-4797.1144724449,858.6135263109,-20991.9295774824,10876.5703453628,13233.8182508714,18701.7621845587
561440913875,44709,-2,0,7816.3580913024,10131.2502441703,13718.0560813340,2216.6014979322,-5682.0467269838,-2832.6641557745,-5582.7096501213,-20458.9236181534,-8056.3172403477,-2385.2701112918,-4807.0189776588,861.3025873088,-20988.4009454037,10879.1620647861,13238.0526093657,18705.1083011850
561440913875,44709,-2,0,7813.8150426664,10128.7802017153,13711.2908419004,2212.4158102251,-5675.9507108755,-2835.6574091930,-5580.8844955979,-20452.1097079325,-8047.8728587525,-2377.1055867236,-4806.8486299032,867.8244728059,-20980.2485885323,10888.1296573446,13245.6209167896,18714.4409246482
561440913875,44709,-2,0,7816.3945943929,10130.9095486593,13716.7298023803,2216.4676532671,-5670.4752473052,-2824.1224326048,-5573.6203805946,-20446.7072505431,-8042.3973951822,-2370.7175458916,-4794.3280698724,871.6086265178,-20975.5031867714,10891.6339540296,13250.6826786680,18718.0912336951
561440913875,44709,-2,0,7814.5937752631,10131.5301011972,13723.0448370314,2219.7164283188,-5672.0083771049,-2814.4369459338,-5570.3959409365,-20448.0578648905,-8043.4194817153,-2370.5106950456,-4784.4479000522,867.9948205614,-20979.1899989087,10888.4946882493,13247.2270527702,18714.8546263402
561440913875,44709,-2,0,7807.0498032329,10125.8842898714,13722.9718308504,2217.5384105875,-5678.6884426607,-2817.8804041347,-5574.4234485849,-20454.3972349352,-8049.8196902442,-2375.5846246207,-4788.5970846688,861.2539165215,-20985.4076919853,10883.2382432218,13242.4938187061,18709.7441936745
561440913875,44709,-2,0,7797.7171797697,10116.3813186527,13711.0353202671,2206.2711233295,-5682.4482609790,-2831.5447276668,-5582.6366439404,-20456.7456004221,-8053.0806329928,-2378.5292072519,-4800.9351292473,859.8424636900,-20985.0426610806,10880.3544990747,13240.4374779430,18706.8239464370
561440913875,44709,-2,0,7794.3467277497,10111.1005382315,13699.1231450775,2200.8564982433,-5678.8587904162,-2839.2225443621,-5584.2062768305,-20454.1538809988,-8048.8706098920,-2377.3002698728,-4806.7391206318,866.7293800918,-20980.0904084736,10888.6041975207,13248.5654994208,18716.7527870445
561440913875,44709,-2,0,7796.2935592414,10112.7066742121,13702.2989139483,2200.9295044242,-5675.3909968217,-2834.1972855742,-5581.4563773485,-20451.7325093310,-8046.2788904687,-2376.5945434570,-4800.4240859807,867.3864357202,-20978.7519618231,10890.6727059806,13248.7358471763,18714.2584091958
561440952702,44710,-2,0,7792.4363993485,10111.8427677377,13707.6770359440,2202.4139634366,-5679.7226968906,-2827.7970770454,-5581.8457436469,-20458.6802642169,-8051.0607953201,-2381.4981252767,-4793.5493372758,859.8302959932,-20984.8601456282,10884.9173853833,13242.1044524078,18706.6901017720
561440952702,44710,-2,0,7785.5008121594,10104.6881620058,13704.1849069558,2196.9628352599,-5686.8894703193,-2830.5956473146,-5586.2991206841,-20466.1755654598,-8059.6146861867,-2390.7212394685,-4798.7449438192,853.1989012247,-20991.0413356143,10878.2373198275,13237.1400321040,18697.4426521865
561440952702,44710,-2,0,7777.9446724324,10096.2802835012,13695.2051467005,2188.8834845695,-5689.9800653124,-2843.0432011645,-5594.0377758635,-20466.0660561884,-8062.4497595464,-2396.0993614642,-4808.9293060600,853.0650565596,-20990.5546277414,10877.8601212260,13239.6587453464,18698.4525710228
561440952702,44710,-2,0,7774.2335249014,10090.9508322927,13682.7940959411,2181.4490218107,-5688.9579787792,-2851.9134521484,-5595.0841977902,-20461.4301636989,-8059.0306367392,-2394.8825917819,-4814.2222541779,859.1002341838,-20985.8457290709,10883.4450940678,13245.0977058262,18705.1813073659
561440952702,44710,-2,0,7773.8684939967,10092.5326328797,13680.4457304543,2182.4224375565,-5686.6096132924,-2848.0562922556,-5589.6452373104,-20457.8893639234,-8056.1833956826,-2392.1691953904,-4808.1384057665,862.6410339593,-20983.8380590951,10886.4505151830,13248.7115117826,18708.8802872001
561440952702,44710,-2,0,7774.3795372633,10096.2072773202,13688.9266151399,2189.9299064963,-5688.7024571460,-2837.8719300148,-5584.8876678526,-20458.9236181534,-8058.5804319567,-2389.9303391750,-4796.4695845133,860.1588238074,-20989.4838704209,10883.8831311534,13246.2414693276,18707.6756852146
561440952702,44710,-2,0,7770.6805574291,10092.4717943956,13690.0582109444,2189.3215216551,-5693.7763867211,-2835.9007631294,-5586.7979962538,-20463.3648274938,-8063.3014983240,-2390.7455748621,-4795.7273550071,856.2894962177,-20994.0224213359,10876.0106313089,13240.1332855225,18703.3683205393
561440952702,44710,-2,0,7766.0081618491,10087.0328339157,13683.7310085965,2183.0064870040,-5694.4942808337,-2844.6006663578,-5590.9593485673,-20462.5374241098,-8064.7616219428,-2391.9015060603,-4804.5732705973,857.8834645015,-20995.3365325928,10877.4464195341,13242.4938187061,18706.4589155323
561440992340,44711,-2,0,7765.1442553747,10083.7232203799,13674.4227205269,2177.6040296146,-5689.8948914346,-2850.0274591409,-5591.6164041957,-20458.5829226423,-8058.5925996535,-2387.9226691992,-4809.9878956836,864.8798901747,-20989.9462429002,10882.8610446203,13249.3563997143,18715.2196572449
561440992340,44711,-2,0,7767.4439500742,10086.7043061015,13676.0166888107,2179.7212088618,-5685.3320051260,-2845.1360450181,-5587.3333749140,-20453.9591978496,-8053.6646824403,-2382.7513980494,-4802.6021037120,869.5157826643,-20986.0039091296,10888.3000051001,13253.1040503357,18719.8068789471
561440992340,44711,-2,0,7770.8995759719,10093.7494025620,13683.8891886552,2188.9808261441,-5684.6506141039,-2833.6375715204,-5581.9552529183,-20452.2435525976,-8054.7232720639,-2382.1308455115,-4790.9089470652,868.9682363072,-20985.5415366503,10888.6163652175,13251.7169328979,18717.3246687952
561440992340,44711,-2,0,7768.0766703090,10093.9197503175,13688.1843856337,2190.6964713961,-5689.7245436791,-2829.1963621800,-5582.0890975833,-20456.8064389062,-8058.5074257758,-2385.5743037124,-4788.3293953387,864.4053499986,-20989.6663858733,10886.9858938432,13248.6506732985,18713.4675089023
561440992340,44711,-2,0,7762.0536603816,10086.7043061015,13679.9346871877,2182.6171207057,-5695.2973488240,-2840.2933016825,-5590.3387960293,-20461.7100207258,-8063.0581443876,-2389.9060037813,-4800.8499553695,859.6599482377,-20991.0048325238,10884.7713730215,13247.1905496798,18710.4255846966
561440992340,44711,-2,0,7755.6169487623,10077.8097197240,13668.1685243599,2171.3498334476,-5695.0783302812,-2851.0617133708,-5597.8584326659,-20462.5860948971,-8062.4132564560,-2392.4125493269,-4813.1393291607,862.3246738419,-20988.2792684355,10887.5334402003,13250.4758278220,18712.2264038264
561440992340,44711,-2,0,7754.7895453783,10075.2910064816,13661.9995020707,2168.5025923911,-5694.2265915036,-2852.4731662023,-5597.0310292819,-20461.1259712783,-8060.2109033310,-2392.1326922999,-4811.3263423341,863.2615864973,-20987.4762004452,10889.2855885428,13253.0432118516,18713.7108628388
561440992340,44711,-2,0,7754.6922038037,10078.4059368683,13669.9206727024,2172.7126154918,-5696.4897831126,-2844.8561879911,-5594.3906390713,-20462.7321072590,-8064.2870817667,-2392.9357602902,-4803.4538424896,858.8447125505,-20990.0070813843,10883.0922308599,13244.7570103152,18705.9357045689
561441013625,44712,-2,0,7752.5263537693,10077.1526640955,13676.2600427472,2176.4846015069,-5702.0869236512,-2843.4812382501,-5594.6826637951,-20467.7330306532,-8070.4682717527,-2397.5959881734,-4801.6286879662,853.1989012247,-20996.6871469401,10879.4054187225,13241.9827754395,18702.2610601284
561441013625,44712,-2,0,7748.8638770256,10073.0399825694,13671.0766039006,2172.7247831886,-5706.3577852360,-2851.9864583294,-5600.3041397273,-20470.2760792892,-8073.0721588728,-2403.3391410739,-4811.8008825102,851.0695542807,-20997.2225256003,10877.3004071722,13240.7173349700,18701.6040045000
561441013625,44712,-2,0,7748.6691938764,10073.4780196550,13667.5966426092,2169.7071943765,-5700.4686199737,-2857.8026174107,-5600.9246922653,-20464.8857895966,-8068.2172478405,-2398.7640870684,-4817.4101907456,857.3845889318,-20990.4816215604,10884.5888575691,13249.2468904428,18711.5085097139
561441013625,44712,-2,0,7753.4389310310,10077.6150365748,13666.4528791079,2174.3065837756,-5692.3162631024,-2855.8922890095,-5595.5587379663,-20458.7532703979,-8061.5128468911,-2393.8240021583,-4813.7355463050,863.7361266734,-20985.2495119266,10890.4536874378,13255.3064034607,18717.5436873380
561441013625,44712,-2,0,7756.9067246255,10081.6060411327,13672.8652553336,2181.0109847251,-5691.7443813517,-2844.4911570864,-5589.6330696136,-20457.6825130774,-8060.9409651404,-2394.0308530043,-4804.9748045925,862.3003384483,-20988.4131131005,10889.6627871443,13251.3153989027,18713.7960367166
561441013625,44712,-2,0,7755.3492594322,10081.1801717439,13682.0640341317,2184.3692690482,-5694.1535853226,-2838.7845072765,-5588.7569954423,-20462.9511258018,-8064.7737896396,-2396.7685847895,-4799.8765396237,855.7541175575,-20992.8908255314,10884.6253606596,13246.8741895624,18711.2651557774
561441013625,44712,-2,0,7749.8007896809,10073.4780196550,13677.4281416422,2177.3120048909,-5698.2175960615,-2844.8561879911,-5594.5123160396,-20465.6280191028,-8069.0081481340,-2400.5405708046,-4807.9680580109,853.6247706135,-20995.0931786563,10883.0313923758,13246.1562954498,18710.5959324521
561441013625,44712,-2,0,7744.8972078613,10065.0823088472,13663.6664765354,2165.9960468456,-5698.3149376361,-2855.7827797381,-5600.1581273654,-20466.2120685503,-8066.9031365836,-2401.7208373964,-4820.7441396750,855.0240557481,-20990.6519693159,10887.2414154765,13249.7214306189,18713.7108628388
561441038612,44713,-2,0,7745.2744064628,10063.4031666856,13659.7849812489,2161.8833653194,-5696.0274106334,-2859.1045609708,-5600.0851211845,-20463.4621690683,-8063.8977154684,-2398.5450685256,-4820.7684750687,857.5427689905,-20987.9020698340,10890.5388613155,13252.1184668931,18717.3125010984
561441038612,44713,-2,0,7747.3550826195,10066.0800599866,13666.6353945602,2168.0158845182,-5693.9345667798,-2850.2221422900,-5594.8651792474,-20463.1093058605,-8063.8612123779,-2396.5252308530,-4812.4336027450,856.4111731859,-20988.4496161910,10891.3297616090,13249.1495488683,18714.1488999244
561441038612,44713,-2,0,7750.6403607617,10070.4239277524,13673.6318202334,2174.2822483820,-5698.7043039344,-2842.8971888026,-5593.5997387778,-20466.8326210883,-8066.4772671948,-2398.1313668336,-4806.8242945096,852.3836655376,-20992.0512544506,10883.9804727280,13241.8976015618,18705.0961334882
561441038612,44713,-2,0,7748.2068213971,10069.6573628526,13675.9923534171,2173.6738635408,-5699.6898873771,-2844.4303186023,-5595.1937070616,-20469.8623775972,-8069.9572284862,-2399.6158258460,-4812.0807395371,849.5850952683,-20995.2635264118,10882.8853800139,13237.1765351945,18700.1803839717
561441038612,44713,-2,0,7746.3573314800,10066.1895692580,13667.3654563696,2167.1276426501,-5697.7795589759,-2854.6511839336,-5598.4911529007,-20468.3292477975,-8067.3046705788,-2397.3769696306,-4818.9676559389,854.3670001197,-20992.6961423822,10881.4009210015,13239.5492360750,18705.9722076594
561441038612,44713,-2,0,7748.8030385414,10070.1197353319,13660.9044093566,2168.6242693593,-5694.8349763447,-2858.5935177042,-5594.6704960983,-20461.1624743688,-8063.2284921431,-2393.9943499138,-4814.4047696303,861.0957364628,-20990.3721122890,10886.4383474862,13246.5213263545,18714.5991047069
561441038612,44713,-2,0,7753.2685832755,10078.1625829318,13668.6917353233,2177.2876694972,-5691.2090026915,-2845.0143680498,-5586.0192636572,-20456.6360911507,-8059.8215370327,-2387.1317689057,-4800.3389121030,865.3179272603,-20990.0314167780,10887.3630924448,13248.1883008192,18717.5436873380
561441038612,44713,-2,0,7755.7751288210,10080.7056315678,13681.9058540730,2183.9920704467,-5689.9800653124,-2829.1233559991,-5581.3103649867,-20455.4314891652,-8057.8625378442,-2382.3498640543,-4793.6101757599,864.5026915732,-20991.0778387047,10886.3288382148,13248.4559901494,18714.6477754942
561441088642,44714,-2,0,7756.6512029922,10078.6492908047,13686.3105603229,2181.5463633853,-5686.9989795907,-2825.9597548251,-5582.9530040578,-20453.8618562750,-8055.3559922986,-2381.2791067339,-4800.0833904697,865.0624056271,-20987.5857097166,10889.8939733839,13251.9481191375,18715.7428682082
561441088642,44714,-2,0,7754.0594835690,10073.3076718995,13678.6570790213,2176.3750922355,-5686.4636009305,-2835.7425830707,-5586.5546423174,-20452.3530618690,-8053.6160116530,-2379.5756291787,-4806.8364622064,868.9804040040,-20982.3292646891,10894.9679029591,13258.0319675490,18721.8875551038
561441088642,44714,-2,0,7750.8107085172,10069.1584872828,13670.2005297293,2169.6706912861,-5685.5510236688,-2844.4668216928,-5587.5402257600,-20449.6883362648,-8051.3649877407,-2378.5170395551,-4806.8364622064,872.6550484446,-20978.7519618231,10900.3338572580,13261.8647920482,18728.1782543613
561441088642,44714,-2,0,7751.9788074122,10073.6240320169,13669.9085050056,2173.3940065139,-5684.4559309548,-2840.0621154429,-5581.8944144342,-20449.3476407537,-8051.3528200439,-2377.7626423520,-4797.3821617750,872.9835762588,-20978.1800800724,10899.5064538740,13257.6060981602,18723.3233433289
561441088642,44714,-2,0,7751.8327950504,10075.1693295134,13677.5984893977,2179.4778549254,-5688.3739293317,-2832.8588389237,-5580.3491169377,-20453.0466205879,-8055.8913709589,-2379.7703123278,-4789.6070035051,866.6442062140,-20984.1179161220,10892.4126866263,13253.5055843309,18720.9628101453
561441088642,44714,-2,0,7750.9445531823,10074.3784292199,13680.9567737208,2179.2466686857,-5691.7200459580,-2835.1828690169,-5584.2549476178,-20459.3251521485,-8060.4664249643,-2382.3376963575,-4794.9364547136,861.2174134310,-20989.2526841813,10887.6794525621,13249.2225550492,18716.6189423795
561441088642,44714,-2,0,7750.5186837935,10072.2855853663,13676.4303905027,2173.6251927535,-5693.5452004815,-2845.2820573799,-5589.8885912468,-20459.4833322072,-8061.1478159864,-2384.9780865680,-4807.1406546270,861.4851027611,-20987.5492066261,10887.8254649240,13250.9868710885,18718.4562645998
561441088642,44714,-2,0,7750.7377023363,10070.0102260604,13670.1396912452,2170.1208960685,-5688.1427430921,-2850.7210178598,-5591.0323547482,-20454.8961105050,-8054.0540487386,-2379.1862628803,-4809.9878956836,868.0313236519,-20980.4067685910,10894.2378411497,13257.7521105221,18726.2435905664
561441111507,44715,5,0,7754.9233900434,10074.6826216405,13675.1406146395,2173.1263171838,-5684.0178938691,-2841.9116053600,-5585.4473819065,-20452.9979498006,-8049.4546593395,-2373.9419855496,-4801.0446385187,870.5987076815,-20977.8393845614,10897.1702560840,13259.3339111091,18727.1440001313
561441111507,44715,5,0,7755.1180731926,10078.4059368683,13681.4313138969,2179.0519855366,-5683.9448876882,-2831.3257091240,-5580.4586262091,-20454.3485641479,-8051.1703045916,-2376.0226617064,-4790.7142639160,868.6397084930,-20981.0759919163,10893.6172886117,13255.6592666685,18723.5180264781
561441111507,44715,5,0,7751.8327950504,10073.8065474692,13681.2731338382,2177.4823526464,-5688.9823141729,-2829.8655855053,-5582.4419607912,-20457.1593021141,-8056.2198987731,-2379.3809460295,-4792.2838968062,865.0745733239,-20986.0769153105,10889.4924393888,13252.5686716755,18720.0502328836
561441111507,44715,5,0,7742.0986375920,10064.7537810329,13672.4150505511,2166.2515684788,-5692.2797600119,-2843.2987227978,-5590.6794915403,-20461.3571575180,-8059.5781830962,-2384.4062048174,-4806.1185680939,861.9353075436,-20988.2062622545,10887.2049123861,13250.5975047902,18719.0403140473
561441111507,44715,5,0,7738.4848316356,10059.4364975213,13657.5096219430,2156.6755910792,-5691.5375305057,-2852.5948431705,-5594.3906390713,-20461.0894681879,-8058.6169350472,-2386.0975146757,-4814.0275710288,864.8190516906,-20986.3567723374,10889.5776132665,13251.9481191375,18719.6000281011
561441111507,44715,5,0,7741.0643833621,10064.0602223140,13657.7043050922,2161.3844897497,-5691.0629903296,-2847.6304228668,-5590.6673238435,-20459.1791397867,-8056.6944389492,-2385.7689868615,-4808.4669335807,866.0723244634,-20984.8723133250,10890.6240351933,13252.2401438613,18719.5270219202
561441111507,44715,5,0,7743.6561027853,10071.7502067061,13670.2005297293,2170.9969702398,-5692.4014369801,-2838.0544454671,-5586.8101639506,-20461.6370145449,-8059.4808415216,-2386.7545703042,-4798.4164160049,862.0569845118,-20990.2504353208,10886.2193289434,13246.1197923593,18714.8424586433
561441111507,44715,5,0,7743.4614196362,10071.8110451902,13673.6561556271,2173.5400188758,-5696.0882491175,-2836.4969802738,-5587.8322504838,-20464.9952988680,-8064.1897401921,-2390.5873948034,-4799.3411609635,857.6157751714,-20993.8155704899,10881.0845608841,13242.5911602807,18708.9167902906
561441126663,44716,5,0,7739.4339119878,10066.0922276835,13667.4627979442,2169.0258033545,-5696.9764909856,-2845.7809329497,-5593.3442171446,-20465.0074665648,-8065.4186775712,-2391.8650029698,-4808.2235796442,857.6036074746,-20991.8322359078,10882.3500013537,13243.9661100217,18708.2597346621
561441126663,44716,5,0,7742.1473083793,10066.1408984707,13663.4839610831,2163.8666999015,-5692.8151386721,-2852.3758246277,-5594.7800053697,-20460.1038847452,-8060.2595741183,-2387.8374953214,-4812.6039505005,863.7604620670,-20987.0868341468,10888.5676944302,13249.0522072937,18712.6157701247
561441126663,44716,5,0,7747.0630578958,10071.4460142856,13664.5912214940,2167.8820398531,-5689.6758728918,-2847.5087458985,-5589.5235603422,-20454.3972349352,-8055.1369737558,-2382.6905595653,-4805.5831894337,869.2845964246,-20983.4730281904,10892.5708666850,13253.7611059642,18716.1322345066
561441126663,44716,5,0,7748.9733862970,10074.2202491612,13671.1009392942,2172.1894045284,-5690.9169779677,-2836.9228496626,-5585.1675248795,-20455.8451908572,-8057.7408608759,-2383.1529320446,-4795.4109948897,866.7537154855,-20986.8799833008,10891.3297616090,13248.7236794795,18708.7707779287
561441126663,44716,5,0,7747.3064118322,10072.5411069996,13677.1726200089,2173.7590374186,-5695.7475536064,-2836.0346077945,-5585.4108788160,-20460.9556235228,-8062.7174488765,-2385.5864714092,-4794.6322622930,862.0691522086,-20990.1044229589,10884.8443792024,13245.7790968483,18709.5495105254
561441126663,44716,5,0,7742.7921963109,10066.4815939818,13670.2492005166,2165.8500344837,-5698.6312977535,-2845.1725481085,-5592.6506584257,-20463.9488769413,-8066.0635655028,-2389.1151034878,-4805.0234753798,861.4607673675,-20991.7713974237,10886.6573660290,13247.5312451908,18711.8613729217
561441126663,44716,5,0,7738.3631546674,10061.4076644066,13656.7673924368,2158.4520748153,-5699.3978626533,-2856.2694876111,-5597.5664079421,-20460.5784249213,-8065.8810500505,-2390.9767611017,-4814.2952603589,864.3323438177,-20990.0679198684,10887.8376326208,13251.8872806534,18717.4098426730
561441126663,44716,5,0,7736.7448509899,10061.9917138541,13655.5506227545,2156.7120941696,-5698.4487823011,-2856.5371769412,-5597.1283708565,-20460.0795493516,-8064.4817649159,-2389.0786003974,-4811.8617209943,864.5513623605,-20991.1021740984,10887.4239309289,13251.7656036852,18718.8699662917
561441158501,44717,5,0,7738.9472041149,10065.5811844169,13662.9485824229,2162.6012594320,-5701.1135079054,-2848.2509754047,-5594.9138500347,-20462.2819024765,-8067.7062045739,-2392.3882139332,-4803.8553764848,859.4774327853,-20995.3730356832,10882.7150322584,13245.3288920659,18713.3214965405
561441158501,44717,5,0,7740.4681662177,10065.8245383534,13669.5313064041,2167.1641457406,-5705.4573756711,-2844.6250017515,-5594.8773469443,-20467.3679997485,-8073.4493574744,-2397.7906713226,-4802.7359483771,853.0650565596,-21000.5199714393,10876.7893639056,13237.8944293070,18706.2885677768
561441158501,44717,5,0,7739.2392288386,10066.2869108326,13667.4384625505,2163.7450229333,-5708.0125920040,-2853.3005695863,-5601.1193754144,-20471.3225012160,-8075.9437353231,-2399.6401612397,-4811.8617209943,850.0718031412,-21001.2013624614,10876.5460099692,13238.9043481433,18705.2786489405
561441158501,44717,5,0,7741.5632589318,10065.7758675661,13661.0139186280,2160.7761049085,-5703.1941840621,-2861.6597773036,-5603.7841010186,-20468.0980615579,-8069.3366759482,-2396.2940446134,-4818.0064078899,855.7906206480,-20993.1828502551,10884.1508204835,13246.6065002323,18711.8857083154
561441158501,44717,5,0,7748.4988461209,10071.9083867648,13663.5326318704,2165.0834695838,-5693.9589021735,-2856.6345185157,-5597.2865509152,-20462.9632934986,-8060.8922943531,-2389.2367804561,-4813.0054844956,862.0813199054,-20986.0404122200,10890.7457121615,13251.9602868344,18716.8257932255
561441158501,44717,5,0,7751.9058012313,10077.6515396653,13672.2325350988,2174.2822483820,-5693.7033805402,-2845.7322621624,-5592.0057704940,-20460.5662572245,-8058.6169350472,-2386.3408686122,-4801.7260295408,860.8402148295,-20985.8335613741,10887.7037879558,13249.2833935333,18715.4508434845
561441158501,44717,5,0,7751.4677641457,10078.1869183255,13679.1924576815,2177.4580172528,-5693.6912128434,-2837.1297005086,-5588.8056662296,-20463.4378336747,-8061.9265485830,-2387.2169427835,-4797.4673356527,857.3967566286,-20990.9318263429,10883.3355847964,13244.6961718311,18710.6081001490
561441158501,44717,5,0,7748.9855539938,10074.0742367993,13678.8882652609,2175.8518812721,-5694.7863055574,-2841.7412576045,-5591.7989196480,-20465.5306775282,-8064.2627463730,-2391.0984380700,-4805.1329846512,855.4620928338,-20991.5767142745,10881.8876288744,13242.6763341585,18709.0871380461
561441190364,44718,5,0,7746.8440393530,10071.1418218650,13671.2834547466,2167.2614873151,-5691.2941765692,-2849.7110990235,-5593.9404342889,-20462.3305732638,-8060.1865679374,-2388.9569234291,-4812.0320687498,859.8911344773,-20985.0061579901,10886.3410059116,13246.8620218655,18714.1854030149
561441190364,44718,5,0,7746.8683747466,10068.2702454148,13665.6254757239,2163.1488057890,-5687.2179981336,-2851.3172350041,-5593.3198817509,-20458.0840470726,-8056.0738864112,-2386.8397441819,-4811.4966900896,863.1642449227,-20982.5361155350,10889.8331348998,13249.3320643206,18718.6266123553
561441190364,44718,5,0,7747.5497657687,10072.0543991267,13668.3510398123,2166.6896055645,-5688.4956063000,-2844.1991323627,-5589.4140510708,-20460.7609403736,-8058.8237858932,-2389.8086622067,-4804.2447427831,860.9740594946,-20985.6632136185,10887.4726017162,13246.4969909609,18715.8037066923
561441190364,44718,5,0,7746.0653067563,10071.7867097966,13674.8485899157,2170.9848025430,-5693.3140142419,-2839.0278612129,-5588.7204923518,-20464.3625786332,-8063.7638708033,-2392.4125493269,-4798.8057823033,856.6910302129,-20990.8588201619,10884.1994912708,13240.2062917034,18709.3669950730
561441190364,44718,5,0,7744.8485370740,10072.0543991267,13675.4204716664,2171.5445165968,-5694.0562437481,-2842.9093564995,-5591.4703918338,-20464.5815971760,-8065.6498638109,-2393.4224681632,-4802.8332899517,856.2651608241,-20992.1364283283,10883.5789387328,13240.7660057573,18710.8027832981
561441190364,44718,5,0,7747.7201135242,10071.8110451902,13668.7769092011,2169.0258033545,-5689.0796557475,-2850.1248007155,-5592.6384907288,-20458.4247425836,-8060.5515988420,-2391.5486428524,-4809.6350324757,863.0304002576,-20986.2959338533,10887.8376326208,13247.0323696211,18716.2782468684
561441190364,44718,5,0,7751.0783978473,10075.1328264229,13666.9882577681,2167.1763134374,-5683.0931489106,-2850.5263347106,-5590.8376715990,-20453.4359868862,-8053.7011855307,-2386.6937318201,-4809.7932125344,866.9605663314,-20981.7817183320,10892.2423388708,13250.3663185506,18721.5346918960
561441190364,44718,5,0,7752.5020183756,10077.3716826383,13672.9139261209,2170.8874609684,-5685.4171790038,-2843.7367598834,-5588.0269336329,-20457.0497928426,-8055.4655015701,-2386.8154087883,-4802.8211222548,864.0159837003,-20986.1620891883,10887.7646264399,13245.6330844864,18716.1809052939
561441223940,44719,5,0,7749.7521188936,10077.2865087606,13677.1361169184,2174.1849068074,-5690.8074686963,-2838.4194763718,-5588.1729459948,-20463.7055230048,-8062.5957719083,-2392.6559032633,-4798.5137575795,856.1678192495,-20994.7403154484,10879.8191204145,13235.7285792726,18706.2398969895
561441223940,44719,5,0,7744.5443446534,10074.1229075866,13673.5344786588,2169.4151696528,-5695.4190257922,-2843.7124244898,-5592.4559752765,-20466.5284286677,-8066.6719503440,-2396.6590755181,-4804.0500596340,851.4224174885,-20997.5875565050,10877.2517363849,13234.5848157712,18702.9667865441
561441223940,44719,5,0,7748.4623430304,10074.5122738849,13673.1451123605,2167.8455367626,-5690.6614563345,-2848.8228571554,-5593.0643601176,-20461.6735176354,-8060.3812510865,-2390.5995625002,-4809.2213307837,859.0272280029,-20988.9606594576,10885.6839502832,13244.0026131122,18712.5914347311
561441223940,44719,5,0,7754.6922038037,10079.3793526141,13672.0378519496,2169.1596480195,-5681.2558266903,-2847.2653919621,-5588.1607782980,-20452.8154343483,-8050.9999568360,-2383.9438323381,-4806.7269529350,869.0290747913,-20977.8393845614,10896.4280265778,13254.0896337784,18721.9483935879
561441223940,44719,5,0,7760.2893443423,10087.2640201554,13677.6593278818,2177.0686509544,-5679.2846598050,-2836.2536263373,-5582.0404267960,-20449.7613424457,-8048.7732683174,-2382.0213362401,-4796.2018951832,871.0002416767,-20977.4013474758,10896.3915234874,13254.6736832259,18723.4328526003
561441223940,44719,5,0,7760.3866859169,10089.0891746788,13687.4664915211,2182.2399221042,-5686.1350731163,-2831.0336844003,-5581.1035141407,-20456.6117557570,-8055.8183647779,-2387.0222596343,-4791.0914625175,862.6166985657,-20986.3446046406,10885.5866087086,13245.4018982468,18714.2340738022
561441223940,44719,5,0,7751.2974163901,10080.9976562916,13681.2853015350,2176.1560736927,-5694.7132993765,-2838.6628303083,-5589.5600634326,-20465.6401867996,-8065.0049758792,-2394.9677656597,-4800.9838000346,855.0970619291,-20995.2270233214,10878.9673816369,13238.8800127497,18709.1723119238
561441223940,44719,5,0,7746.0044682722,10073.1008210535,13669.2271139835,2165.3633266108,-5698.2784345456,-2852.2298122658,-5597.2865509152,-20467.8303722278,-8067.7670430580,-2398.0826960463,-4813.0784906766,854.7685341149,-20995.3000295023,10878.1643136466,13238.1256155467,18709.2088150143
561441256476,44720,5,0,7744.8850401645,10071.0201448967,13664.1653521052,2161.1776389037,-5694.3239330782,-2857.1090586918,-5598.0044450277,-20464.4720879046,-8063.5935230478,-2393.7388282806,-4815.8405578554,858.7108678855,-20990.6519693159,10882.9705538917,13243.7470914789,18715.5968558464
561441256476,44720,5,0,7751.6259442044,10075.4613542371,13669.4096294359,2167.5170089484,-5688.3252585444,-2846.8030194828,-5589.8642558532,-20459.8361954151,-8058.0085502060,-2387.9105015024,-4805.0843138639,862.9573940767,-20987.5005358388,10886.8885522687,13246.1076246625,18717.4220103698
561441256476,44720,5,0,7756.7607122636,10081.2653456217,13681.7720094080,2177.5188557369,-5686.2445823877,-2833.7835838823,-5583.7682397449,-20459.2034751803,-8058.6412704408,-2386.4017070963,-4793.2694802488,861.0348979787,-20988.8754855798,10885.6839502832,13244.3068055327,18716.4364269271
561441256476,44720,5,0,7757.7219603127,10083.5772080180,13689.0482921081,2180.5486122458,-5690.0409037965,-2832.9561804983,-5585.3013695446,-20462.5252564130,-8061.5493499815,-2387.0100919375,-4794.1455544201,858.1754892253,-20992.9394963187,10881.1332316714,13241.3743905984,18714.2340738022
561441256476,44720,5,0,7756.0063150606,10079.1725017681,13682.1613757063,2174.5134346216,-5691.4766920216,-2844.4303186023,-5591.5312303179,-20462.6104302907,-8063.1433182653,-2391.0619349795,-4805.3398354972,858.6135263109,-20993.3775334043,10880.6343561017,13242.5181540998,18713.7838690197
561441256476,44720,5,0,7757.2960909239,10079.9390666680,13674.2037019841,2169.6463558924,-5688.9458110824,-2851.4267442755,-5591.9449320099,-20458.7289350042,-8058.8237858932,-2389.8451652972,-4810.3164234978,861.9231398467,-20987.2571819023,10883.9318019407,13245.8277676356,18715.2196572449
561441256476,44720,5,0,7761.8589772325,10087.7507280283,13681.3339723223,2176.5819430815,-5684.4194278643,-2845.5497467100,-5585.1188540923,-20453.8131854877,-8053.2023099610,-2383.4327890715,-4799.4385025381,865.4517719254,-20981.7208798479,10891.3054262154,13249.4780766825,18718.4319292061
561441256476,44720,5,0,7764.0369949638,10094.4672966746,13688.9996213208,2185.0628277671,-5683.5798567835,-2832.1044417207,-5580.0935953044,-20454.8352720209,-8054.7354397607,-2383.8586584603,-4790.7142639160,862.5801954752,-20983.8867298824,10891.3297616090,13244.6231656501,18712.2507392201
561441288927,44721,5,0,7758.0383204301,10089.5150440676,13687.8436901226,2181.6193695662,-5690.1869161584,-2835.3045459851,-5585.7029035398,-20462.7686103494,-8062.9486351162,-2390.7699102558,-4796.9806277798,853.7707829754,-20990.6032985287,10883.4937648551,13238.0526093657,18704.6824317962
561441288927,44721,5,0,7750.0806467079,10077.9070612985,13678.1217003611,2170.4615915796,-5694.7741378606,-2847.4844105049,-5595.2545455458,-20467.4166705358,-8066.6111118599,-2393.9943499138,-4810.0487341677,850.5950141046,-20992.3189437807,10881.9606350554,13238.6001557228,18705.6923506325
561441288927,44721,5,0,7752.0761489868,10079.4523587950,13671.2591193529,2165.7648606059,-5687.4856874637,-2851.8282782707,-5594.0986143476,-20461.2476482466,-8058.8359535900,-2388.1781908325,-4813.3583477035,860.3535069566,-20985.1886734424,10888.7867129730,13245.0733704326,18714.7572847656
561441288927,44721,5,0,7758.3546805475,10085.4997041160,13676.1748688694,2173.6616958440,-5680.1972370667,-2845.7200944656,-5586.9075055252,-20454.3607318448,-8052.0342110660,-2384.3331986364,-4803.3565009151,866.1574983411,-20980.4554393783,10893.8849779418,13250.4271570347,18719.2106618028
561441288927,44721,5,0,7758.6467052712,10088.5051252313,13684.6557535550,2178.1394082748,-5683.3121674534,-2833.7105777013,-5583.1841902974,-20458.1935563440,-8054.4677504306,-2385.0997635363,-4794.2915667820,862.7627109275,-20985.6145428312,10886.1098196720,13244.1851285645,18712.3602484915
561441288927,44721,5,0,7756.1036566352,10085.9985796858,13689.2916460445,2177.8352158543,-5687.5343582510,-2830.6078150115,-5584.4252953733,-20462.9632934986,-8059.4200030375,-2387.4602967199,-4793.4884987916,858.3215015872,-20991.1630125825,10883.2260755249,13241.4717321730,18710.1092245792
561441288927,44721,5,0,7758.9387299950,10086.0350827763,13687.8558578194,2176.5941107783,-5683.9448876882,-2835.8764277358,-5586.6641515888,-20460.9677912196,-8057.0351344602,-2386.5233840646,-4800.6431045235,860.7063701644,-20988.2549330418,10885.9151365228,13246.1441277530,18712.6522732152
561441288927,44721,5,0,7763.5259516972,10087.7993988156,13685.8725232373,2175.4746826706,-5677.2526544356,-2840.1594570175,-5586.1896114127,-20455.2368060160,-8048.8949452857,-2381.1817651593,-4803.5998548515,867.3986034171,-20982.2684262049,10892.5952020786,13251.0842126631,18718.5171030839
561441319154,44722,5,0,7764.5967090176,10089.4785409772,13684.2907226503,2175.2069933405,-5675.8290339073,-2840.6583325872,-5584.4739661606,-20452.9979498006,-8049.7953548506,-2381.4007837021,-4802.7481160739,867.0457402092,-20984.4707793299,10889.3220916332,13249.0278719000,18715.9375513574
561441319154,44722,5,0,7763.5989578781,10089.5515471581,13687.9288640004,2178.5044391795,-5679.7713676779,-2833.3212114030,-5582.8556624832,-20456.9524512681,-8054.3825765528,-2385.6108068028,-4796.4695845133,862.0569845118,-20989.8245659320,10884.0899819994,13243.0048619727,18709.7441936745
561441319154,44722,5,0,7762.0293249880,10090.5127952071,13696.4584194733,2182.2520898010,-5683.5676890867,-2827.4077107470,-5582.4054577007,-20460.8217788578,-8057.2663206998,-2387.2656135708,-4792.5759215299,859.7329544186,-20992.0512544506,10883.2625786154,13240.8390119382,18707.9312068479
561441319154,44722,5,0,7765.3754416143,10091.5348817402,13697.8090338206,2181.1691647838,-5681.6330252918,-2832.2261186889,-5584.6686493098,-20458.6680965201,-8056.0495510176,-2385.0024219617,-4798.1000558875,861.5946120325,-20987.5978774134,10886.5843598481,13245.4870721246,18710.8514540854
561441319154,44722,5,0,7764.7305536827,10088.5902991091,13685.6291693008,2173.6373604504,-5679.7957030716,-2840.4879848317,-5586.7371577697,-20454.1538809988,-8051.5475031931,-2384.0898447000,-4804.9626368957,866.4130199744,-20982.2075877208,10890.6970413742,13249.6362567412,18715.5238496654
561441319154,44722,5,0,7762.2605112276,10087.0328339157,13679.2046253783,2169.8410390416,-5681.4018390522,-2844.2843062405,-5587.6497350314,-20453.5941669449,-8052.3749065770,-2382.5810502939,-4805.2303262258,866.6077031236,-20984.6897978727,10888.0566511637,13246.6795064132,18711.9587144963
561441319154,44722,5,0,7759.6322887139,10086.6799707079,13681.8693509825,2172.3354168903,-5687.1206565590,-2839.9647738683,-5589.2923741025,-20461.4910021830,-8058.6899412281,-2387.2656135708,-4800.4970921617,858.6500294014,-20993.8764089740,10879.0890586052,13238.1377832435,18704.9501211263
561441319154,44722,5,0,7760.6300398533,10089.4907086740,13688.0992117559,2178.2002467590,-5690.1990838552,-2833.1021928602,-5587.1508594617,-20463.3404921001,-8061.4520084069,-2388.6405633117,-4795.5813426452,855.9366330099,-20994.3631168469,10879.4540895098,13236.7141627152,18702.4192401871
561441346672,44723,5,0,7762.8202252815,10092.4474590019,13690.5814219078,2180.9988170282,-5684.6141110134,-2833.2482052220,-5586.4207976523,-20460.6879341927,-8058.5682642599,-2385.4526267441,-4797.8688696479,859.0515633965,-20988.4861192815,10885.1972424103,13241.4230613857,18708.0772192098
561441346672,44723,5,0,7765.4849508857,10092.2406081560,13687.4786592179,2178.7477931160,-5682.2049070425,-2841.4857359712,-5587.7349089092,-20455.5409984366,-8054.2730672814,-2382.2160193892,-4805.1329846512,864.2715053336,-20983.8380590951,10890.1251596236,13246.8376864719,18712.8469563644
561441346672,44723,5,0,7767.3222731060,10093.4938809287,13684.2055487726,2176.6671169593,-5679.1629828368,-2843.3838966756,-5584.9241709431,-20451.3553107295,-8051.2676461661,-2383.4449567683,-4805.3520031940,867.2039202679,-20981.3071781559,10892.9115621960,13248.9792011127,18716.0835637193
561441346672,44723,5,0,7768.5877135755,10095.2095261808,13689.7783539175,2181.7897173217,-5680.1729016731,-2834.0391055155,-5579.4365396759,-20453.2778068275,-8053.0684652959,-2383.4206213747,-4795.2041440437,865.6951258619,-20985.3833565916,10891.1837492472,13246.8620218655,18714.7937878560
561441346672,44723,5,0,7768.5877135755,10096.8643329487,13698.1618970285,2185.4400263686,-5681.4991806268,-2824.6821466587,-5575.6158828735,-20454.7135950526,-8055.0517998781,-2382.1551809051,-4787.3803149865,863.5657789178,-20987.0259956627,10889.7966318093,13246.6065002323,18713.9298813816
561441346672,44723,5,0,7762.9784053402,10089.2595224343,13695.6431837861,2181.1569970869,-5679.2359890177,-2825.0715129570,-5575.8105660227,-20453.5211607640,-8052.5209189389,-2381.2912744307,-4790.0693759844,866.9362309378,-20983.0349911048,10891.0742399757,13248.0301207606,18716.4729300176
561441346672,44723,5,0,7755.5196071877,10080.2067559981,13684.5705796772,2171.9460505920,-5676.6321018976,-2832.9318451046,-5577.5870497589,-20449.5301562061,-8049.2356407967,-2376.5337049729,-4796.2992367577,872.2291790558,-20978.5572786739,10895.1139153210,13252.5930070692,18719.1619910155
561441346672,44723,5,0,7754.6313653196,10080.4866130250,13678.9369360482,2169.5611820147,-5675.8898723914,-2839.0521966066,-5579.6677259156,-20447.8510140445,-8046.7534306448,-2376.8257296967,-4799.7791980491,872.9470731683,-20978.8249680040,10897.6812993506,13255.7079374558,18722.1430767371
561441380443,44724,5,0,7762.0414926848,10093.5060486255,13684.9842813692,2175.6937012134,-5680.8421249983,-2835.9250985231,-5580.7749863265,-20453.9105270623,-8052.9346206309,-2382.9704165923,-4796.7737769338,866.1818337348,-20985.3711888948,10890.1616627140,13246.6065002323,18711.6301866821
561441380443,44724,5,0,7771.1307622115,10104.1649510424,13697.5900152778,2186.5837898700,-5683.5798567835,-2828.6853189134,-5580.2274399694,-20458.5950903392,-8057.4001653649,-2385.6594775901,-4790.2032206495,860.8888856168,-20989.9462429002,10885.2702485912,13241.1675397524,18705.3881582119
561441380443,44724,5,0,7770.1816818594,10103.3740507490,13700.4494240312,2187.5937087063,-5684.2004093215,-2829.1963621800,-5580.7384832360,-20458.0718793758,-8057.6800223918,-2385.1362666267,-4793.5493372758,858.9907249124,-20991.2603541571,10885.1485716230,13240.7538380604,18706.4954186228
561441380443,44724,5,0,7767.6751363138,10095.3920416331,13690.6179249982,2179.0519855366,-5682.3265840107,-2838.5533210368,-5585.4108788160,-20456.1007124905,-8056.0617187144,-2384.9902542649,-4802.8332899517,862.1056552991,-20989.3013549686,10886.7668753004,13244.6353333470,18712.1168945550
561441380443,44724,5,0,7769.4637877468,10095.0878492125,13684.7409274328,2175.2556641278,-5678.8709581130,-2843.3108904946,-5584.2549476178,-20451.9393601770,-8051.6691801613,-2382.4837087193,-4804.6949475656,867.5811188694,-20986.7948094231,10889.3950978142,13247.4947421003,18717.0691471619
561441380443,44724,5,0,7772.7125627985,10100.5146419956,13691.9807070424,2180.5607799426,-5679.6740261033,-2836.9593527530,-5580.9575017788,-20452.7910989546,-8053.7011855307,-2382.2403547829,-4798.4894221859,865.7559643460,-20989.4960381178,10884.0291435153,13242.7371726426,18713.2849934500
561441380443,44724,5,0,7772.8585751604,10102.4006350031,13697.9915492729,2185.5373679432,-5685.4780174879,-2830.5591442242,-5580.9453340820,-20459.2764813612,-8060.6976112039,-2388.7014017959,-4794.8147777453,858.0051414698,-20998.0134258938,10877.2030655976,13236.0692747836,18706.9942941925
561441380443,44724,5,0,7767.6021301329,10098.7016551689,13696.0203823876,2182.7874684612,-5691.8417229263,-2835.5600676184,-5587.0413501903,-20465.6280191028,-8067.7427076644,-2395.6978274691,-4802.7602837707,851.5075913663,-21003.7322434006,10871.4599126972,13231.0683513894,18700.6184210573
561441456546,44725,5,0,7764.2195104161,10094.5159674618,13688.9631182303,2175.2434964310,-5690.3450962171,-2843.6515860057,-5590.6429884499,-20464.6059325697,-8064.0558955270,-2393.1791142267,-4809.4646847202,855.2917450782,-20996.6019730624,10877.6776057737,13237.4807276151,18706.3250708673
561441456546,44725,5,0,7766.7990621426,10093.2140239018,13684.8139336137,2171.7148643523,-5681.6816960791,-2844.9900326562,-5588.2702875694,-20457.1349667204,-8054.9666260003,-2387.4846321136,-4808.4304304902,863.5049404337,-20987.6708835943,10887.0102292369,13245.9372769070,18713.6621920515
561441456546,44725,5,0,7770.8874082751,10098.2514503865,13689.5836707683,2176.8374647148,-5676.1332263279,-2834.5744841757,-5580.5072969964,-20452.5842481086,-8049.9900379997,-2382.5323795066,-4798.7449438192,866.3400137935,-20984.0084068506,10889.7357933252,13248.0422884574,18713.8082044134
561441456546,44725,5,0,7770.6075512482,10099.0910214673,13696.4949225637,2181.0596555124,-5680.3432494286,-2826.3491211234,-5578.2441053873,-20456.9767866617,-8055.8183647779,-2384.5278817856,-4791.0792948207,861.8744690595,-20990.0922552621,10883.9926404248,13241.1310366619,18708.4909209018
561441456546,44725,5,0,7764.7913921668,10094.7349860047,13695.1321405196,2177.6527004019,-5688.9214756888,-2830.8511689479,-5584.2184445274,-20462.4400825352,-8062.4619272432,-2390.9889287986,-4798.4650867922,855.4134220465,-20994.5699676929,10877.0813886294,13234.4874741966,18701.4701598349
561441456546,44725,5,0,7756.4930229335,10084.6236299448,13680.9689414177,2167.1276426501,-5695.6502120319,-2847.4479074144,-5593.4537264160,-20463.7176907016,-8067.3411736692,-2396.0020198896,-4811.9103917816,854.0749753959,-20995.2026879277,10879.3324125416,13238.2716279086,18705.8383629944
561441456546,44725,5,0,7755.3735948258,10082.4334445167,13674.0941927127,2160.2650616419,-5689.0674880506,-2852.0351291167,-5594.4879806459,-20461.5761760608,-8060.3325802992,-2390.9524257081,-4814.2709249652,860.1101530201,-20987.6587158975,10886.4261797894,13243.8079299630,18713.6743597483
561441456546,44725,5,0,7761.2384246945,10088.4564544440,13679.3993085275,2165.9352083614,-5683.0323104265,-2843.3473935851,-5587.9174243615,-20457.1836375077,-8054.2852349782,-2385.2214405045,-4804.4515936291,863.4684373433,-20983.2783450412,10890.0156503522,13245.8642707261,18715.6090235432
561441465038,44726,5,0,7763.5381193940,10091.4375401656,13687.7585162449,2173.0168079124,-5681.6208575950,-2830.3279579845,-5583.2085256911,-20457.6946807743,-8055.1126383622,-2384.2358570618,-4793.7926912122,861.5581089421,-20986.0404122200,10887.7037879558,13242.1044524078,18711.2286526869
561441465038,44726,5,0,7761.1532508167,10090.2329381802,13692.8202781232,2173.6130250567,-5684.9183034340,-2828.4784680675,-5584.4496307670,-20463.5595106429,-8059.9553816977,-2387.3751228422,-4795.6665165230,856.5571855478,-20991.5645465777,10882.3986721410,13239.0746958989,18707.3593250972
561441465038,44726,5,0,7759.5836179266,10088.6389698964,13687.4056530370,2170.5954362446,-5688.1305753953,-2839.5632398732,-5590.1319451833,-20463.1944797382,-8062.2185733068,-2391.1714442509,-4805.8022079765,855.8514591321,-20994.7159800548,10880.9385485222,13239.4640621972,18707.2011450385
561441465038,44726,5,0,7759.2915932028,10086.8381507666,13677.0874461311,2165.5823451536,-5687.7168737033,-2849.5042481775,-5591.1905348069,-20459.6050091755,-8060.3447479961,-2391.9258414539,-4813.5043600654,860.2074945947,-20992.7204777758,10882.6906968647,13243.3455574837,18710.5107585744
561441465038,44726,5,0,7764.6088767144,10093.3843716573,13680.6282459066,2169.7071943765,-5682.8741303678,-2843.7854306707,-5586.2747852904,-20455.3463152874,-8057.2906560935,-2387.8131599278,-4803.4416747928,863.7847974607,-20992.5744654140,10885.2824162880,13248.8575241445,18715.5481850591
561441465038,44726,5,0,7768.6728874533,10099.0666860736,13693.7206876881,2179.5021903190,-5681.8033730473,-2829.2450329673,-5579.9354152457,-20454.8352720209,-8057.6921900887,-2384.9902542649,-4793.0991324933,861.8379659690,-20993.6330550376,10883.9318019407,13245.9981153911,18711.6058512884
561441465038,44726,5,0,7768.9892475707,10100.9405113844,13697.7116922460,2182.7509653707,-5683.7258691454,-2825.0593452602,-5577.6357205461,-20456.2953956396,-8060.0527232723,-2385.6838129838,-4791.7485181460,861.3755934897,-20995.0445078690,10884.2603297549,13247.3852328289,18712.9564656358
561441465038,44726,5,0,7765.5579570666,10097.9350902691,13692.9054520010,2177.7500419765,-5683.7258691454,-2834.8665088995,-5584.1454383464,-20457.9380347107,-8060.6611081134,-2387.4237936294,-4799.4019994476,862.3976800228,-20993.0611732869,10885.3554224690,13248.6628409953,18714.6721108878
561441482839,44727,5,0,7760.9463999707,10091.1698508355,13681.4799846842,2168.4904246943,-5685.4293467006,-2848.0076214683,-5588.7083246550,-20456.6847619380,-8058.9089597709,-2390.5022209257,-4809.0266476345,864.9650640525,-20990.7736462842,10888.9692284254,13250.9625356949,18719.1011525314
561441482839,44727,5,0,7763.1852561862,10095.4163770267,13678.4745635689,2168.7581140244,-5683.0323104265,-2846.8273548764,-5585.3865434224,-20453.7280116100,-8056.4510850127,-2390.7699102558,-4804.6341090815,867.7271312313,-20986.5027846993,10891.3054262154,13253.0918826389,18720.2570837295
561441482839,44727,5,0,7770.2546880403,10102.1207779762,13691.3966575949,2178.6869546319,-5681.5356837172,-2834.9273473836,-5581.1035141407,-20455.1759675319,-8056.4389173159,-2389.7113206322,-4794.5105853248,865.1354118080,-20987.8290636530,10889.4194332078,13248.6628409953,18716.2295760812
561441482839,44727,5,0,7770.3033588276,10102.2911257317,13698.6972756887,2180.2444198252,-5685.5510236688,-2831.6055661509,-5583.8655813195,-20462.0628839337,-8060.4055864802,-2393.7266605837,-4795.3258210119,857.3845889318,-20993.6938935217,10883.4207586741,13241.4838998698,18708.1258899971
561441482839,44727,5,0,7763.3677716385,10092.8003222098,13688.0505409686,2170.7779516970,-5691.6592074739,-2844.8683556880,-5592.8210061812,-20469.3026635433,-8066.7327888281,-2400.6744154696,-4809.9513925931,850.8018649506,-20996.7114823338,10879.7339465368,13237.2860444659,18702.6504264267
561441482839,44727,5,0,7759.2429224155,10085.3415240574,13677.9148495151,2161.4088251433,-5691.7565490485,-2857.4619218997,-5600.3284751209,-20470.3004146828,-8066.5502733758,-2401.5991604282,-4821.1091705797,851.7022745155,-20995.0080047786,10881.2670763365,13238.8435096592,18705.7896922071
561441482839,44727,5,0,7760.6908783375,10088.2861066885,13676.8927629820,2160.8734464831,-5687.4735197668,-2854.8458670828,-5596.5199860153,-20465.9930500075,-8061.9873870671,-2395.3814673517,-4815.0496575619,856.1191484622,-20990.1774291398,10885.8056272514,13243.2603836060,18712.5305962470
561441482839,44727,5,0,7768.6607197565,10098.7259905626,13687.2596406751,2174.3309191693,-5682.7037826122,-2838.7115010955,-5587.4915549727,-20462.3427409606,-8057.5583454236,-2389.5774759671,-4801.6165202694,858.8568802474,-20986.5757908803,10888.3851789779,13244.8056811025,18715.2074895480
561441503808,44728,5,0,7774.0875125395,10105.0775283042,13700.6197717867,2182.6901268866,-5680.6231064555,-2827.8579155295,-5582.8313270895,-20461.0407974006,-8058.1058917806,-2386.1583531599,-4795.2649825278,856.4355085796,-20986.9529894818,10887.8984711050,13242.0679493173,18714.6234401005
561441503808,44728,5,0,7772.4570411652,10101.8409209493,13699.0258035029,2179.0398178397,-5682.3630871012,-2832.0801063270,-5587.6497350314,-20463.8150322762,-8059.9675493945,-2386.3287009154,-4802.8454576485,855.3647512592,-20988.3279392228,10884.2116589676,13240.2184594002,18712.6887763057
561441503808,44728,5,0,7767.6386332234,10094.7593213983,13686.7485974085,2169.4395050464,-5685.5023528815,-2845.3428958640,-5592.8818446653,-20464.0948893031,-8062.4619272432,-2388.7987433704,-4814.4291050239,855.9731361003,-20988.8146470957,10883.5302679455,13239.0260251116,18712.5549316406
561441503808,44728,5,0,7762.5038651641,10089.5272117644,13675.0919438522,2164.0127122634,-5688.5929478746,-2852.7530232292,-5596.5929921963,-20465.7740314647,-8065.6133607204,-2393.0087664712,-4815.2321730142,853.4665905548,-20992.1485960252,10880.4640083461,13233.0395182747,18706.3129031705
561441503808,44728,5,0,7759.6444564107,10089.7827333977,13680.2875503956,2166.6044316867,-5692.3892692833,-2844.7588464165,-5595.5344025727,-20469.4851789957,-8068.3024217183,-2392.5950647792,-4807.1649900206,848.8672011557,-20996.3099483386,10875.9254574312,13229.6690662547,18702.9667865441
561441503808,44728,5,0,7763.9153179955,10098.0689349341,13691.3844898981,2175.8397135753,-5689.9192268283,-2832.2139509921,-5591.6164041957,-20467.4531736263,-8066.3555902266,-2389.3584574243,-4800.0225519856,850.5706787109,-20994.2414398787,10879.1255616956,13232.3459595558,18702.7842710918
561441503808,44728,5,0,7768.6363843628,10101.5975670128,13698.1740647253,2178.7477931160,-5685.0156450086,-2829.9750947767,-5588.0147659361,-20463.4378336747,-8059.8702078200,-2383.7004784016,-4800.7161107045,855.6811113766,-20990.5424600445,10887.5821109876,13240.2184594002,18709.6225167063
561441503808,44728,5,0,7769.8896571356,10099.7967478830,13693.9275385341,2175.6328627293,-5678.8952935067,-2836.0467754913,-5587.4672195791,-20457.4269914442,-8052.2532296088,-2374.9519043859,-4801.4218371202,863.5536112210,-20982.0980784494,10892.4126866263,13247.3974005258,18714.7086139783
561441533642,44729,5,0,7772.8464074636,10100.0401018195,13690.4719126364,2174.5986084994,-5674.6609350123,-2839.4172275113,-5583.2693641752,-20453.9226947591,-8049.3938208554,-2373.3457684053,-4797.9053727384,868.1164975296,-20979.0074834564,10897.3162684459,13254.5763416513,18722.0944059498
561441533642,44729,5,0,7771.8121532336,10099.5412262497,13692.7837750327,2176.3020860546,-5676.4617541421,-2833.2847083125,-5581.9187498278,-20458.2908979186,-8052.7399374817,-2376.3998603079,-4791.8580274174,864.1741637590,-20985.7970582836,10892.2666742644,13250.0134553427,18714.6721108878
561441533642,44729,5,0,7768.5633781819,10097.3997116089,13698.5877664173,2175.4746826706,-5683.3486705439,-2826.6411458472,-5585.6298973588,-20467.0029688438,-8058.0693886902,-2382.1430132083,-4792.0040397792,855.7297821639,-20993.7182289153,10885.4527640435,13243.2725513028,18706.3615739577
561441533642,44729,5,0,7764.6575475017,10094.7836567920,13698.4539217522,2171.6783612619,-5686.6217809892,-2833.6132361267,-5591.1418640196,-20470.1544023210,-8061.8778777957,-2389.0786003974,-4802.6872775898,852.4566717185,-20997.1373517226,10881.5225979697,13240.7295026668,18701.9812031015
561441533642,44729,5,0,7762.6255421323,10089.2838578280,13687.8193547290,2164.6332648014,-5687.5830290382,-2847.8859445000,-5595.2667132426,-20468.3414154943,-8063.4110075954,-2393.4833066473,-4812.0685718403,855.5350990147,-20993.6695581280,10883.6519449138,13243.8931038407,18706.3859093514
561441533642,44729,5,0,7762.6012067387,10091.3280308942,13681.5043200779,2163.2826504540,-5686.0255638449,-2854.3834946035,-5592.7358323034,-20461.8682007845,-8062.9486351162,-2394.5783993613,-4809.2456661774,860.8767179200,-20988.4861192815,10886.3531736084,13247.1905496798,18711.3381619583
561441533642,44729,5,0,7768.9040736929,10099.2126984355,13689.9730370666,2174.2822483820,-5681.8520438346,-2844.6980079324,-5582.9773394514,-20456.5022464856,-8058.3005749298,-2393.1061080458,-4797.3334909877,864.5270269669,-20985.5415366503,10892.8263883183,13252.7998579151,18717.4585134603
561441533642,44729,5,0,7772.6273889208,10103.3618830521,13699.4516728917,2182.3981021629,-5679.6740261033,-2829.4032130260,-5577.5140435779,-20456.1250478841,-8056.1590602890,-2394.1160268821,-4791.3104810603,863.4197665560,-20986.0647476137,10893.5929532181,13250.2689769760,18714.2584091958
561441565679,44730,5,0,7769.8409863483,10101.0865237462,13699.8897099773,2177.3363402845,-5682.8011241868,-2832.1774479016,-5584.4496307670,-20461.9898777528,-8059.8215370327,-2396.8415909704,-4801.7747003281,857.8834645015,-20989.3621934527,10889.8453025966,13244.9273580707,18708.4057470240
561441565679,44730,5,0,7759.0725746600,10086.8746538570,13683.4876546600,2163.3678243318,-5691.3185119629,-2852.5218369896,-5598.0652835119,-20470.2882469860,-8069.6530360656,-2405.7361773480,-4820.4277795576,851.1668958553,-20994.7403154484,10882.2526597791,13240.1819563098,18702.3949047935
561441565679,44730,5,0,7749.3992556858,10075.2301679975,13663.4596256894,2150.3727241249,-5699.4343657438,-2868.5101906149,-5604.9278645200,-20474.0967360916,-8074.5444501884,-2411.7956903658,-4826.3291125168,848.7455241875,-20998.5974753413,10880.0989774415,13238.7218326910,18702.9911219378
561441565679,44730,5,0,7749.9711374364,10079.4766941887,13665.7228172985,2155.6535045461,-5697.8525651568,-2862.3168329321,-5600.6204998447,-20472.4297616268,-8073.9725684377,-2407.4518226000,-4815.8405578554,850.2543185935,-20997.7700719574,10881.3644179110,13240.6078256986,18705.6315121484
561441565679,44730,5,0,7755.7629611242,10086.8381507666,13681.6259970461,2166.7991148359,-5693.6182066624,-2845.0508711403,-5592.8575092716,-20469.4365082084,-8068.8621357721,-2400.8325955283,-4803.5755194579,852.2498208725,-20994.6916446612,10882.6298583806,13240.7416703636,18703.9402022900
561441565679,44730,5,0,7759.1334131441,10089.0526715883,13686.9432805577,2171.8730444110,-5692.4866108579,-2839.4415629049,-5590.9958516577,-20466.7109441201,-8066.9031365836,-2398.7397516748,-4803.9162149689,854.3791678165,-20994.7768185389,10887.0589000242,13245.6817552737,18706.6170955910
561441565679,44730,5,0,7755.4831040972,10083.1513386292,13681.0419475986,2163.7085198428,-5695.6015412446,-2853.1545572244,-5599.0995377418,-20468.2684093134,-8069.2880051609,-2399.8105089952,-4816.2299241537,853.5517644326,-20996.3221160354,10885.5379379213,13244.8665195866,18707.7608590924
561441565679,44730,5,0,7754.8868869529,10078.5032784429,13670.7115729959,2156.4322371427,-5698.2054283647,-2864.3123352110,-5602.1049588571,-20468.0615584674,-8070.0058992735,-2399.7496705111,-4821.1943444575,855.2795773814,-20994.1927690914,10887.2535831733,13245.5235752150,18710.0118830046
561441599352,44731,5,0,7757.1622462588,10081.3505194994,13673.1207769669,2159.3889874707,-5696.7574724427,-2856.8657047554,-5598.0287804214,-20467.5505152008,-8069.3731790387,-2397.9245159876,-4813.2975092194,855.5837698020,-20995.3000295023,10887.8376326208,13244.9030226771,18706.8726172243
561441599352,44731,5,0,7759.0239038727,10084.0882512846,13683.5728285378,2167.2493196183,-5698.1324221837,-2844.3938155119,-5594.8043407633,-20469.7650360226,-8071.4538551954,-2396.3427154007,-4803.8675441816,850.1691447158,-20998.6826492191,10882.5690198965,13240.4618133367,18700.4602409986
561441599352,44731,5,0,7756.1888305130,10079.1725017681,13686.6147527435,2165.8865375741,-5702.4276191622,-2842.7755118344,-5597.2378801279,-20474.3887608153,-8075.3475181787,-2398.6302424034,-4807.4570147444,845.6914322849,-21003.3063740118,10877.0692209325,13236.4951441724,18696.6760872867
561441599352,44731,5,0,7751.9301366249,10074.4149323104,13679.0707807133,2159.5228321357,-5705.0558416760,-2853.6412650973,-5601.9589464952,-20473.2815004044,-8076.3939401055,-2401.7695081837,-4817.7630539534,848.9402073367,-21001.9679273613,10880.4031698620,13240.3158009748,18700.0465393066
561441599352,44731,5,0,7753.1834093977,10075.9237267164,13674.9215960966,2157.5029944631,-5700.2009306436,-2861.5137649417,-5601.3505616541,-20466.6866087264,-8071.9527307651,-2397.3648019338,-4816.6557935425,856.2286577336,-20996.2126067640,10886.2193289434,13247.6772575527,18710.7662802077
561441599352,44731,5,0,7756.9918985033,10078.5884523206,13676.3208812313,2162.8081102779,-5698.5947946630,-2858.1189775281,-5595.6682472377,-20463.4500013715,-8068.7039557134,-2395.2719580802,-4807.9193872237,859.1245695775,-20994.8376570230,10886.4748505767,13247.7745991273,18712.9321302421
561441599352,44731,5,0,7760.4596920978,10085.3415240574,13685.8846909341,2168.0280522150,-5699.1788441105,-2847.1680503875,-5591.8962612226,-20464.7032741443,-8070.1762470290,-2396.3792184911,-4799.6088502936,858.1511538316,-20997.6605626860,10886.3653413053,13247.4947421003,18712.3237454010
561441599352,44731,5,0,7759.0847423568,10083.3946925657,13690.6179249982,2170.1208960685,-5702.5492961305,-2845.8417714338,-5594.2446267095,-20468.9863034260,-8072.8774757237,-2399.0561117922,-4802.4560913502,853.2232366183,-21002.5763122024,10882.3134982632,13242.9075203981,18708.5517593859
561441634963,44732,5,0,7755.7629611242,10077.9313966922,13686.2618895356,2162.8446133684,-5706.0414251187,-2856.5736800316,-5599.6835871893,-20471.1034826731,-8074.1550838901,-2402.7672593232,-4812.4214350481,852.5540132931,-21003.3185417086,10880.5005114366,13241.1675397524,18707.3593250972
561441634963,44732,5,0,7755.9089734860,10076.3739314988,13676.9657691629,2156.8824419252,-5702.0747559544,-2866.7823776661,-5599.4280655560,-20467.2463227803,-8072.2690908825,-2403.5459919198,-4817.4710292297,856.8005394843,-21000.5078037425,10882.7637030457,13245.3288920659,18710.2309015474
561441634963,44732,5,0,7757.6124510413,10078.2720922032,13675.8341733584,2158.9996211724,-5699.9332413135,-2864.0933166682,-5594.9260177315,-20465.4576713473,-8071.0279858066,-2402.0858683011,-4812.3849319577,857.5792720810,-21000.7389899822,10883.5667710360,13244.7448426184,18711.5693481980
561441634963,44732,5,0,7762.6742129196,10083.4433633530,13688.5737519320,2167.8577044595,-5699.2153472010,-2849.2852296347,-5590.3996345134,-20466.1512300662,-8070.8211349606,-2397.7785036258,-4803.2226562500,855.2430742909,-21001.7975796058,10881.6199395443,13240.9363535128,18709.9632122173
561441634963,44732,5,0,7764.4506966557,10086.3879459841,13698.2349032094,2172.6761124013,-5697.4753665553,-2841.3153882157,-5589.3653802835,-20467.8182045309,-8071.3321782272,-2399.3724719096,-4803.9040472721,852.8825411073,-21003.3915478896,10879.6366049622,13238.2837956054,18705.5463382706
561441634963,44732,5,0,7765.0347461032,10084.7453069130,13694.4750848911,2170.4859269732,-5697.9012359441,-2847.2045534780,-5592.7601676971,-20466.8569564819,-8072.0257369461,-2400.2850491713,-4811.0829883976,855.4134220465,-21002.1504428136,10880.3301636811,13240.4618133367,18707.3471574004
561441634963,44732,5,0,7763.3069331544,10081.8128919787,13685.3249768803,2163.8058614174,-5695.8448951810,-2860.3213306531,-5594.5123160396,-20461.4301636989,-8066.7692919186,-2397.0606095132,-4813.3096769162,861.1444072501,-20997.8917489256,10885.0390623516,13245.6939229705,18715.2196572449
561441634963,44732,5,0,7766.0203295459,10085.3171886637,13683.6214993251,2167.9550460340,-5690.9048102709,-2856.0748044619,-5588.5623122931,-20456.2467248523,-8063.8003738938,-2392.9114248966,-4807.7733748618,866.1331629475,-20994.0102536391,10887.2414154765,13249.0643749905,18719.9893943994
561441672612,44733,5,0,7768.3443596391,10087.8359019061,13692.9784581819,2173.9537205678,-5690.9048102709,-2844.1017907881,-5584.1576060432,-20458.7897734883,-8063.3258337177,-2391.3296243096,-4799.0613039366,863.0060648640,-20995.9205820403,10886.2071612466,13244.4771532883,18714.1002291371
561441672612,44733,5,0,7765.5214539762,10086.2175982286,13697.3709967350,2173.2358264552,-5693.2531757577,-2838.4438117654,-5588.5501445963,-20465.8835407361,-8067.1464905201,-2393.4346358600,-4801.4948433011,853.7342798849,-21000.0575989601,10880.5248468303,13237.4807276151,18706.7996110434
561441672612,44733,5,0,7761.7616356579,10080.6691284773,13692.8567812137,2166.5435932026,-5697.9864098219,-2847.3262304462,-5598.0409481182,-20471.5415197588,-8070.1519116353,-2399.2386272445,-4814.7576328381,850.1569770190,-21001.7245734248,10879.2594063607,13236.9696843485,18703.6238421726
561441672612,44733,5,0,7757.3325940143,10074.8286340023,13679.0586130164,2157.4178205854,-5697.8403974600,-2858.8733747312,-5601.5452448032,-20470.3612531669,-8068.8134649848,-2398.2895468923,-4819.5638730832,853.3449135866,-20996.6141407592,10883.5667710360,13241.5204029603,18709.1966473175
561441672612,44733,5,0,7759.1212454473,10076.8363039781,13676.2965458376,2157.6855099155,-5693.5817035720,-2858.6908592788,-5597.4812340644,-20466.8082856946,-8065.8080438696,-2393.0209341680,-4811.6913732388,857.6401105651,-20992.7569808663,10887.1684092956,13244.6961718311,18715.5238496654
561441672612,44733,5,0,7764.0491626606,10082.7133015436,13687.7098454576,2166.6044316867,-5691.0994934201,-2844.7345110229,-5591.0688578387,-20465.4455036505,-8062.3159148814,-2386.5720548518,-4801.4218371202,857.8834645015,-20990.8588201619,10889.8818056871,13245.3532274595,18714.3557507704
561441672612,44733,5,0,7766.4340312379,10085.3780271478,13694.5115879816,2170.9969702398,-5692.1459153469,-2833.7957515791,-5588.9760139851,-20467.1003104184,-8062.4740949401,-2386.5598871550,-4798.8909561810,854.4035032102,-20991.3820311253,10888.1783281319,13242.9683588822,18710.7419448140
561441672612,44733,5,0,7763.9518210860,10082.8106431182,13694.7184388276,2168.3809154228,-5697.4510311617,-2840.8408480396,-5596.0576135361,-20468.2927447070,-8066.3069194393,-2388.4215447689,-4809.1604922996,851.2033989457,-20993.3775334043,10882.4473429283,13237.8214231261,18705.7288537230
561441694903,44734,5,0,7760.0094873154,10079.9877374553,13683.7188408996,2160.7882726053,-5698.2054283647,-2855.0892210192,-5598.6980037467,-20467.2219873866,-8067.7548753612,-2390.9889287986,-4817.1668368091,855.8392914353,-20992.6596392917,10885.5987764054,13242.5181540998,18712.8226209707
561441694903,44734,5,0,7761.6642940833,10081.6547119200,13677.1726200089,2163.0757996080,-5695.1635041589,-2857.5835988679,-5593.8552604111,-20460.7852757673,-8065.0414789697,-2389.3097866370,-4809.3795108424,863.1642449227,-20989.3986965432,10889.2125823618,13245.4749044277,18716.6919485604
561441694903,44734,5,0,7764.9617399223,10088.4929575345,13688.0018701813,2170.7171132129,-5694.0805791417,-2847.2532242653,-5586.8223316475,-20456.9889543585,-8062.7661196638,-2387.3994582358,-4797.4795033496,863.1885803163,-20990.7128078001,10888.8597191540,13245.4140659436,18715.4873465750
561441694903,44734,5,0,7763.4651132131,10087.2153493681,13695.6918545734,2173.5278511790,-5697.3658572839,-2839.6240783573,-5586.8953378284,-20460.9921266133,-8067.7670430580,-2391.5729782461,-4797.3821617750,857.5184335968,-20996.0665944021,10884.6618637501,13235.4243868520,18704.5242517375
561441694903,44734,5,0,7755.9089734860,10079.3915203109,13687.5029946116,2165.7770283027,-5706.0900959059,-2848.8715279427,-5595.0963654871,-20466.1999008535,-8073.6562083204,-2399.4576457873,-4808.9901445441,851.5319267600,-21000.7998284663,10877.8844566197,13234.5969834680,18704.6459287057
561441694903,44734,5,0,7749.5939388349,10074.0377337088,13678.3650542975,2157.1622989521,-5707.0878470454,-2863.7039503699,-5601.5939155905,-20467.8425399246,-8074.5079470980,-2401.1367879489,-4816.5097811807,852.2984916598,-21001.6880703343,10878.9430462433,13235.4852253361,18707.0551326767
