timestamp,sequence,battery,flags,EEG-ch1,EEG-ch2,EEG-ch3,EEG-ch4,EEG-ch5,EEG-ch6,EEG-ch7,EEG-ch8,EEG-ch9,EEG-ch10,EEG-ch11,EEG-ch12,EEG-ch13,EEG-ch14,EEG-ch15,EEG-ch16
560668855842,28194,-2,0,2960.5344816868,5750.3683446446,11242.5868334937,-1257.2759450178,-8910.7207435578,-6466.4738057652,-9187.7913679130,-22461.2398073367,-12039.0599321299,-4873.6371177644,-6714.0742684153,-2516.1336906225,-24329.1516174138,5745.5986074900,8670.8346006935,11722.2131068604
560668855842,28194,-2,0,2958.1739485032,5748.7865440576,11246.2858133279,-1258.0181745240,-8916.3787225805,-6464.2349495498,-9193.0356452437,-22466.6909355134,-12045.8981777443,-4880.1103324742,-6717.2378695892,-2523.3126317481,-24334.4567332286,5739.7581130150,8665.8336772993,11715.7763952411
560668855842,28194,-2,0,2952.9540065661,5741.4129197829,11241.7837655034,-1264.5765631115,-8918.8487650355,-6474.0786162796,-9198.7787981442,-22469.9275428683,-12048.0518600820,-4881.0715805232,-6726.1202882700,-2525.0769477874,-24334.2985531699,5740.5976840958,8666.0770312358,11718.4046177549
560668855842,28194,-2,0,2949.1576851574,5736.3754932982,11233.1081976686,-1272.1327028386,-8915.0159405363,-6482.1944700605,-9197.7567116110,-22465.4011596502,-12041.2379498612,-4878.3095133444,-6727.8967720061,-2517.5816465445,-24327.3629659809,5748.6161963021,8672.2460535250,11728.0292659418
560668855842,28194,-2,0,2954.0125961897,5739.0037158120,11230.0054349788,-1269.1881202074,-8909.3579615137,-6481.0263711655,-9190.7237828474,-22458.0883738596,-12033.9738348579,-4875.0364028990,-6719.3550488364,-2512.0696798837,-24322.5810611294,5754.4323553835,8678.4150758142,11733.8210896295
560668855842,28194,-2,0,2957.1883650605,5744.3575024141,11238.8878536595,-1262.7149054976,-8908.5913966138,-6469.6252392424,-9186.6232690180,-22458.3073924024,-12034.9472506037,-4872.9557267423,-6711.1296857841,-2513.0309279327,-24324.6252341957,5750.1736614955,8676.2005549924,11730.7791654238
560668855842,28194,-2,0,2955.2658689625,5742.7391987366,11245.2393914011,-1260.9749248519,-8912.3147118416,-6462.4097950264,-9189.1784853509,-22463.0892972538,-12040.5078880518,-4875.0850736863,-6713.6727344201,-2521.1954525009,-24333.8240129938,5740.9262119100,8669.5083217398,11722.7484855207
560668855842,28194,-2,0,2953.3068697740,5742.3133293478,11242.9031936111,-1263.3597934292,-8913.5436492207,-6467.0335198191,-9193.9847255959,-22466.3867430928,-12042.6494026926,-4878.9178981855,-6722.9445193992,-2521.4144710437,-24334.7487579524,5737.7504430392,8665.9431865707,11719.8404059800
560668889425,28195,-2,0,2954.1342731580,5740.3786655530,11235.7972586665,-1266.9614316888,-8907.7396578362,-6476.0497831649,-9192.9626390628,-22461.7995213906,-12035.7259832004,-4873.9899809722,-6725.9256051208,-2515.5131380846,-24329.0056050520,5746.7423709914,8671.1752962046,11726.7394900786
560668889425,28195,-2,0,2957.6872406303,5744.7225333188,11234.8116752239,-1266.9735993857,-8900.5242136202,-6475.1372059032,-9186.8301198640,-22455.2776358935,-12026.8192291260,-4868.1129834067,-6718.1991176383,-2508.6748924701,-24320.4882172759,5754.1403306597,8676.9549521955,11733.5655679963
560668889425,28195,-2,0,2960.3397985377,5750.2223322828,11239.6544185594,-1258.8212425143,-8899.6359717521,-6463.7604093737,-9180.4664144256,-22453.3064690082,-12027.7561417813,-4868.1981572845,-6709.4140405321,-2508.0908430226,-24321.0966021170,5754.4201876867,8675.0202884006,11729.0026816876
560668889425,28195,-2,0,2960.1451153885,5752.8505547965,11248.6463465115,-1252.4210339854,-8903.6513117037,-6454.3182766391,-9180.2352281860,-22455.8373499473,-12033.4992946818,-4869.1715730303,-6707.5037121309,-2512.1183506710,-24325.9515131494,5749.0298979941,8671.6863394711,11723.8800813252
560668889425,28195,-2,0,2958.0157684445,5750.0763199209,11250.2281470985,-1254.0758407533,-8906.9000867554,-6457.5792193877,-9182.6809352474,-22456.3727286075,-12038.1960256554,-4870.6925351332,-6713.2468650313,-2513.4202942310,-24328.2512078489,5746.8032094755,8669.9463588254,11724.4884661663
560668889425,28195,-2,0,2955.6065644735,5745.8784645170,11240.8711882417,-1260.1110183775,-8907.2164468728,-6469.3818853059,-9183.5691771155,-22453.6471645192,-12036.1761879828,-4872.6880374122,-6721.0706940885,-2509.3927865826,-24323.8099985086,5747.1925757738,8669.7030048890,11726.9706763182
560668889425,28195,-2,0,2956.7624956717,5746.6571971136,11235.1158676444,-1263.5544765784,-8904.1258518798,-6473.9812747050,-9180.8801161176,-22450.5322341325,-12030.3600289015,-4869.3297530890,-6718.0896083669,-2504.8420679708,-24318.1885225764,5751.6094497206,8673.4019847232,11735.7070826371
560668889425,28195,-2,0,2957.4195513002,5749.4192642924,11240.3723126719,-1259.5513043237,-8904.6368951464,-6465.0623529338,-9180.4664144256,-22451.9315192672,-12031.3334446473,-4868.2833311623,-6712.9548403076,-2508.7113955605,-24323.8951723863,5749.4679350797,8672.4772397646,11733.0301893360
560668925843,28196,-2,0,2955.1806950847,5749.5409412607,11245.1420498265,-1256.5823862989,-8909.0902721835,-6457.0316730306,-9184.0193818979,-22457.6381690771,-12036.5047157970,-4871.5077708204,-6714.2932869581,-2514.8195793657,-24328.4337233013,5744.3575024141,8668.4497321162,11728.8810047194
560668925843,28196,-2,0,2953.7570745565,5746.5963586295,11245.7869377582,-1256.8865787194,-8909.5648123596,-6456.4962943704,-9187.9252125781,-22460.5705840114,-12038.6583981347,-4872.2013295393,-6719.0265210222,-2517.3139572144,-24328.0443570029,5746.2678308153,8670.0193650064,11729.9517620398
560668925843,28196,-2,0,2950.3987902333,5740.8410380323,11238.8026797818,-1264.5765631115,-8907.0947699046,-6467.2890414524,-9189.5313485587,-22459.2929758450,-12034.3145303689,-4869.6704486001,-6723.8084258736,-2514.3328714927,-24321.4981361122,5751.0375679699,8673.9130279897,11735.4515610038
560668925843,28196,-2,0,2951.1410197395,5738.9550450247,11228.3749636045,-1268.9569339678,-8903.3957900704,-6475.8185969253,-9187.0004676195,-22453.9513569398,-12029.0824207350,-4869.2932499986,-6721.2532095408,-2508.6627247732,-24317.3002807083,5755.8438082150,8678.0500449095,11739.7467579823
560668925843,28196,-2,0,2953.8422484342,5744.3331670204,11231.6480740499,-1265.1362771654,-8904.1988580607,-6467.8122524158,-9182.4375813109,-22451.9558546608,-12030.1531780555,-4869.5974424191,-6713.9160883566,-2507.2877750323,-24320.8410804838,5751.6824559015,8675.8841948750,11737.0090261971
560668925843,28196,-2,0,2955.0711858133,5746.8883833533,11243.4020691809,-1259.0645964507,-8906.9974283300,-6457.1290146052,-9181.4154947778,-22454.5232386904,-12035.3366169020,-4870.5708581650,-6709.4262082289,-2510.5487177808,-24328.3972202108,5744.8807133775,8671.0657869332,11733.0666924265
560668925843,28196,-2,0,2956.3731293734,5747.6549482531,11247.6242599784,-1256.5215478148,-8909.3944646041,-6457.0073376370,-9183.1068046362,-22454.9247726856,-12039.4614661250,-4874.4401857547,-6714.4636347136,-2512.7145678153,-24329.4801452280,5740.1353116165,8666.6124098960,11727.9684274577
560668925843,28196,-2,0,2954.3897947913,5745.1849057981,11240.7008404862,-1261.3886265439,-8906.1091864619,-6467.3863830270,-9184.0923880789,-22452.5034010178,-12035.2149399338,-4872.5420250503,-6719.3185457460,-2508.8939110129,-24327.8375061570,5746.7302032946,8671.7106748648,11735.6827472434
560668960799,28197,-2,0,2955.0225150260,5742.7513664335,11232.9743530036,-1265.3552957082,-8902.2276911754,-6474.1272870669,-9181.3181532032,-22449.0356074233,-12026.9409060942,-4866.9448845117,-6717.2500372861,-2502.5667086650,-24321.1817759948,5753.0452379457,8678.1960572714,11742.4358189802
560668960799,28197,-2,0,2956.5556448257,5746.8883833533,11236.1136187839,-1262.1065206565,-8901.4976293660,-6468.5423142251,-9177.8381919119,-22448.1473655552,-12027.2450985148,-4867.2612446291,-6709.5722205908,-2502.7978949046,-24322.0700178629,5751.8528036570,8676.9671198923,11738.3474728477
560668960799,28197,-2,0,2957.5777313589,5749.9424752558,11243.3899014840,-1256.7040632671,-8902.9090821975,-6455.5472140182,-9176.5240806550,-22450.7877557658,-12031.1144261045,-4868.6970328543,-6705.0823404631,-2509.1250972525,-24325.6594884256,5744.9780549521,8671.6498363807,11731.4848918395
560668960799,28197,-2,0,2957.0058496082,5749.5896120480,11248.8653650544,-1257.1664357464,-8907.4963038997,-6456.5693005514,-9182.6565998538,-22455.7156729791,-12037.4172930588,-4872.4690188694,-6711.9205860776,-2514.9899271212,-24329.5409837122,5742.4228386192,8667.4276455831,11728.3577937560
560668960799,28197,-2,0,2952.2604478472,5743.0068880667,11239.2163814738,-1264.3453768719,-8912.7527489273,-6470.8785120151,-9190.7846213315,-22459.7188452338,-12040.9824282279,-4877.8714762587,-6724.4533138053,-2516.4743861336,-24330.4413932771,5743.5544344238,8668.0116950306,11731.2780409935
560668960799,28197,-2,0,2951.9440877298,5741.5954352353,11227.1581939222,-1268.5919030631,-8912.4242211130,-6483.1678858063,-9191.2469938108,-22456.9689457519,-12036.9549205795,-4878.6745442491,-6726.6678346270,-2511.9845060059,-24327.1804505285,5748.9447241163,8671.5159917156,11738.2866343636
560668960799,28197,-2,0,2958.7701656475,5749.7842951971,11234.4344766223,-1262.2525330184,-8906.3647080952,-6474.7721749985,-9184.2870712280,-22452.2235439909,-12033.0125868089,-4872.8827205613,-6716.8241678973,-2507.8231536925,-24323.2016136674,5749.6747859257,8672.0026995885,11737.7512557033
560668960799,28197,-2,0,2964.3794738829,5756.5130315402,11247.3322352547,-1253.7716483328,-8905.9753417969,-6459.2826969429,-9181.2086439318,-22454.0000277271,-12034.3145303689,-4870.9115536760,-6710.7281517890,-2511.2544441965,-24326.6694072620,5747.2047434707,8668.9851107764,11734.3077975025
560668981923,28198,-2,0,2965.2068772669,5756.7685531735,11251.4449167808,-1250.9122395794,-8907.5814777775,-6454.5859659692,-9183.3623262695,-22457.4556536248,-12037.6241439047,-4873.4789377057,-6715.6073982150,-2517.5086403635,-24329.8938469200,5742.0091369273,8663.8016719299,11728.4551353306
560668981923,28198,-2,0,2962.5056485722,5750.5630277938,11248.5490049370,-1256.8865787194,-8910.4408865309,-6464.0159310070,-9189.1784853509,-22462.6147570777,-12037.7093177825,-4873.3572607374,-6724.5628230767,-2520.1368628773,-24330.4657286707,5742.8730434017,8663.1446163014,11728.8445016289
560668981923,28198,-2,0,2961.8485929437,5748.6040286053,11236.5029850822,-1263.2137810674,-8906.3282050047,-6474.8573488762,-9191.0279752679,-22459.3416466323,-12032.6110528137,-4871.7754601505,-6727.4465672237,-2515.3671257227,-24323.1407751833,5748.3606746688,8667.9021857592,11735.7070826371
560668981923,28198,-2,0,2967.3727273013,5753.8604736328,11238.9730275373,-1257.4827958638,-8901.4611262756,-6470.5743195946,-9185.2969900643,-22455.3141389839,-12028.5835451653,-4868.5266850987,-6718.5398131493,-2511.6316427980,-24319.2349445031,5752.1813314712,8671.3821470506,11738.4691498159
560668981923,28198,-2,0,2971.1690487101,5759.6766327142,11250.3863271572,-1250.0848361954,-8902.7387344420,-6459.5747216666,-9183.0094630616,-22455.0464496538,-12032.2216865154,-4866.2391580960,-6711.3243689333,-2514.0408467690,-24323.6396507530,5747.5941097690,8668.5227382972,11735.5854056689
560668981923,28198,-2,0,2970.5728315658,5756.8658947481,11256.8352064734,-1250.7905626111,-8906.4255465793,-6455.6202201992,-9187.0734738005,-22460.9477826130,-12036.0788464082,-4869.3297530890,-6715.1815288262,-2518.9565962855,-24329.7965053454,5740.5003425212,8661.8426727414,11727.8710858831
560668981923,28198,-2,0,2966.3384730714,5751.2200834222,11248.3664894846,-1258.0911807049,-8909.2727876359,-6464.3444588212,-9193.5101854198,-22464.8049425058,-12037.6241439047,-4873.4180992216,-6725.5849096098,-2520.6479061438,-24330.0885300692,5741.4494228734,8662.8890946681,11727.7007381276
560668981923,28198,-2,0,2964.1726230369,5748.1294884292,11239.0703691119,-1263.7978305149,-8905.6711493763,-6475.6117460793,-9192.0135587106,-22462.9189494983,-12030.3721965983,-4871.0575660379,-6727.7629273411,-2516.1945291066,-24322.3620425866,5747.7522898277,8668.8025953241,11734.2469590183
560669038380,28199,-2,0,2968.3339753503,5750.9158910017,11241.4430699924,-1263.1164394928,-8900.5242136202,-6473.1173682306,-9187.1951507687,-22459.3538143292,-12025.6876333214,-4868.8308775193,-6721.5574019614,-2513.2012756882,-24317.3489514956,5751.9258098380,8672.4285689773,11736.6074922020
560669038380,28199,-2,0,2971.4854088275,5753.5806166059,11248.5125018465,-1257.5192989542,-8900.7919029503,-6462.3124534518,-9184.7737791009,-22458.8914418499,-12029.1554269160,-4870.5830258618,-6713.8674175693,-2516.0120136543,-24320.3422049140,5747.6671159499,8670.6520852412,11732.6164876441
560669038380,28199,-2,0,2970.5119930817,5753.9091444201,11255.3750828546,-1255.9253306704,-8905.6589816795,-6456.2894435244,-9188.1563988177,-22465.1213026232,-12035.7016478067,-4873.4059315247,-6716.4713046894,-2522.8015884815,-24327.0344381666,5741.2182366338,8666.9044346197,11726.7759931691
560669038380,28199,-2,0,2967.3605596045,5750.6482016716,11252.0776370156,-1258.4562116096,-8909.2727876359,-6466.3399611002,-9195.5421907892,-22468.1875622226,-12039.6196461837,-4876.6912096669,-6726.0472820891,-2524.8700969414,-24329.6261575899,5740.1109762229,8664.4100567710,11726.7029869881
560669038380,28199,-2,0,2967.5430750569,5749.6017797448,11243.3168953031,-1262.9704271309,-8907.0947699046,-6479.7122599086,-9197.3916807063,-22466.7639416943,-12035.3001138116,-4879.1004136379,-6732.1067951069,-2520.9520985644,-24324.7225757703,5745.1362350108,8668.5957444781,11733.8210896295
560669038380,28199,-2,0,2970.8526885927,5754.1646660534,11241.6742562320,-1261.9848436883,-8904.0893487893,-6480.3571478402,-9193.6196946912,-22462.7607694396,-12031.9905002757,-4877.0319051780,-6726.1324559668,-2517.0584355811,-24321.5711422931,5747.7644575245,8670.2140481556,11736.7535045639
560669038380,28199,-2,0,2970.8891916832,5757.0119071100,11250.3863271572,-1255.6576413403,-8906.9730929364,-6470.9758535897,-9191.7702047741,-22465.0847995328,-12036.0545110146,-4877.0319051780,-6719.0995272032,-2520.0395213027,-24326.6450718683,5740.6341871863,8665.6389941501,11730.7426623333
560669038380,28199,-2,0,2969.7819312723,5754.0794921756,11252.3331586489,-1253.6256359709,-8911.8645070592,-6464.8920051783,-9194.5931104371,-22468.1997299194,-12042.3573779689,-4882.3978594769,-6721.5452342646,-2525.0282770001,-24334.0065284462,5733.8932831464,8660.3338783353,11722.7484855207
560669044495,28200,-2,0,2964.2091261274,5751.9136421411,11250.8365319397,-1257.3732865924,-8913.8600093381,-6470.5864872914,-9197.0023144080,-22468.5160900368,-12046.0320224094,-4883.5902937655,-6727.0206978349,-2526.2328789856,-24336.0750369061,5734.1244693860,8659.5064749514,11721.9332498335
560669044495,28200,-2,0,2960.4493078091,5748.5431901212,11243.1708829412,-1262.3377068961,-8910.3313772595,-6479.9434461482,-9196.4912711414,-22465.6566812834,-12038.7922427998,-4880.1225001710,-6730.1112928279,-2521.4996449214,-24330.7455856976,5738.5778464232,8663.8138396267,11730.7426623333
560669044495,28200,-2,0,2968.6868385582,5755.1015787088,11241.3092253273,-1259.9041675315,-8904.6977336305,-6478.4833225295,-9190.3465842459,-22459.4754912974,-12033.1099283834,-4876.1436633099,-6723.7719227832,-2514.8682501529,-24324.6982403766,5743.4205897587,8668.5227382972,11735.4515610038
560669044495,28200,-2,0,2975.1722209648,5761.3071040885,11249.6440976510,-1251.3259412714,-8902.6170574737,-6466.7049920049,-9185.7106917563,-22458.8062679721,-12034.2780272784,-4875.7908001020,-6715.5708951245,-2516.8029139478,-24327.3264628904,5741.7901183845,8666.7340868642,11730.0369359176
560669044495,28200,-2,0,2976.8756985201,5761.5261226313,11259.0740626888,-1246.4953656326,-8908.2020303155,-6458.6743121017,-9186.2825735070,-22462.7972725300,-12041.3717945262,-4876.5573650019,-6714.8651687088,-2522.8624269656,-24333.2156281527,5735.8644500317,8659.5916488291,11722.9431686698
560669044495,28200,-2,0,2973.4930788033,5759.2872664158,11258.4413424540,-1248.5882094862,-8910.5625634991,-6463.0060121707,-9189.6165224365,-22464.3182346329,-12045.1559482382,-4880.0981647773,-6723.9057674482,-2523.9818550733,-24334.7244225587,5735.0735497382,8658.6182330833,11719.7673997990
560669044495,28200,-2,0,2970.9743655609,5754.5175292613,11248.8897004480,-1255.9618337609,-8910.4895573182,-6474.7843426953,-9191.3930061726,-22461.0694595812,-12040.7634096851,-4878.2486748603,-6729.6610880455,-2519.2851240997,-24330.4413932771,5741.4250874798,8664.2275413187,11727.5790611594
560669044495,28200,-2,0,2973.5539172874,5757.8028074034,11246.0424593914,-1257.3854542892,-8906.2795342174,-6477.4003975122,-9187.0369707100,-22456.4213993948,-12032.7083943883,-4872.7975466836,-6723.9544382355,-2514.0651821626,-24324.3210417751,5748.3850100625,8671.6620040775,11736.4736475369
560669076270,28201,-2,0,2976.4863322217,5761.0637501520,11250.8121965460,-1251.6057982983,-8904.7707398114,-6467.4350538142,-9185.4551701230,-22456.1780454584,-12034.3510334594,-4873.2599191629,-6717.7367451590,-2514.9290886371,-24324.5887311052,5746.4016754803,8670.6764206348,11734.8918469500
560669076270,28201,-2,0,2974.4543268523,5759.9808251348,11255.8739584244,-1249.3061035987,-8910.5868988928,-6460.6333112902,-9189.7625347984,-22462.4565770190,-12041.8098316118,-4878.9787366696,-6718.9048440540,-2522.7650853910,-24331.8528461085,5738.5170079391,8664.2640444091,11727.9319243672
560669076270,28201,-2,0,2969.2587203089,5753.8604736328,11254.8518718912,-1255.2439396483,-8915.6243253775,-6466.9848490318,-9196.9658113175,-22467.9928790734,-12047.7598353583,-4882.8967350466,-6728.3956475759,-2529.0801200421,-24336.7199248377,5733.4674137576,8658.5695622960,11724.5128015600
560669076270,28201,-2,0,2965.5232373842,5746.1704892407,11245.4097391566,-1263.2137810674,-8915.1619528982,-6480.2598062656,-9200.6404557581,-22467.9563759830,-12044.8517558176,-4885.6588022254,-6736.3411536013,-2526.1477051078,-24333.8240129938,5737.7382753424,8662.3780514016,11729.9760974335
560669076270,28201,-2,0,2966.4723177364,5748.0808176419,11237.8901025201,-1264.3818799624,-8909.2362845454,-6485.6622636550,-9197.6106992491,-22462.1402169016,-12038.2081933523,-4882.6655488070,-6732.9585338845,-2518.9322608918,-24327.6428230078,5744.7955394997,8666.3447205659,11735.3055486419
560669076270,28201,-2,0,2968.2122983821,5752.0109837157,11243.0735413666,-1260.5247200695,-8907.3502915379,-6477.1813789694,-9192.8044590041,-22460.1568823195,-12037.8431624476,-4879.7331338727,-6722.6889977659,-2517.9101743587,-24326.9492642889,5743.6274406047,8665.5781556660,11739.5034040458
560669076270,28201,-2,0,2966.7278393697,5752.6923747378,11249.1087189908,-1256.1930200005,-8911.5359792450,-6467.6784077507,-9193.2181606961,-22462.5417508968,-12043.0874397782,-4882.8115611689,-6721.7764205042,-2523.2639609608,-24334.2377146858,5738.4805048486,8661.4046356557,11732.2636244362
560669076270,28201,-2,0,2964.9391879367,5752.5585300728,11250.5566749127,-1256.5215478148,-8915.1376175046,-6469.1141959758,-9197.6472023396,-22466.4962523642,-12049.0131081310,-4887.6178014139,-6729.9409450724,-2527.3888101838,-24338.7762656008,5733.6864323004,8657.0729355868,11727.5060549784
560669152304,28202,-2,0,2960.4493078091,5745.9271353043,11242.0514548335,-1265.4283018891,-8917.2669644486,-6483.1313827158,-9202.6481257338,-22468.6864377924,-12049.3781390357,-4888.6277202502,-6738.7138544817,-2527.3644747901,-24337.6690051899,5734.5625064716,8659.4334687704,11731.3997179618
560669152304,28202,-2,0,2961.6904128850,5746.9005510501,11236.1866249649,-1269.4314741439,-8913.1542829224,-6489.9696283303,-9199.9225616455,-22464.8901163836,-12041.8219993087,-4886.3401932475,-6737.9959603692,-2522.5582345450,-24331.6094921721,5740.2569885848,8665.6511618469,11737.0211938940
560669152304,28202,-2,0,2969.0640371597,5753.5684489091,11240.2871387942,-1261.4372973312,-8908.2993718901,-6480.8803588036,-9192.2690803439,-22459.5728328720,-12037.8796655380,-4882.4586979610,-6728.0792874585,-2520.0273536059,-24329.4314744408,5742.6296894652,8666.7827576515,11737.6417464319
560669152304,28202,-2,0,2972.4101537860,5758.0339936431,11251.9437923506,-1253.0780896139,-8909.5648123596,-6466.9726813350,-9191.5511862313,-22462.6512601682,-12040.8364158660,-4880.3171833202,-6721.7155820201,-2522.9962716307,-24333.3251374241,5738.0303000662,8663.9476842917,11732.7746677028
560669152304,28202,-2,0,2971.5705827052,5756.4643607529,11255.6427721847,-1253.0294188266,-8913.3367983748,-6466.1817810415,-9194.8242966767,-22466.3259046087,-12044.6570726684,-4881.5826237897,-6726.2784683287,-2526.1112020173,-24336.9511110773,5734.6111772589,8660.7110769368,11728.4064645433
560669152304,28202,-2,0,2969.2708880057,5752.4611884982,11246.4561610834,-1259.1619380253,-8911.8888424528,-6475.8307646221,-9197.1118236794,-22465.1578057137,-12043.0752720814,-4882.0814993595,-6732.9950369750,-2522.5947376355,-24331.0862812087,5736.6431826283,8662.0616912842,11731.0346870571
560669152304,28202,-2,0,2968.5529938932,5751.5242758428,11239.3988969261,-1263.8099982117,-8907.4476331125,-6483.2530596841,-9193.3885084516,-22459.9621991703,-12034.7769028482,-4875.8029677988,-6729.8557711946,-2516.3040383781,-24326.0001839367,5745.0510611330,8670.1897127619,11744.2974765941
560669152304,28202,-2,0,2971.2177194974,5752.9722317647,11243.3290629999,-1259.9406706220,-8904.2231934544,-6476.9988635171,-9189.1906530477,-22457.1514612042,-12031.5159600996,-4872.3838449916,-6721.0706940885,-2514.0165113753,-24324.6008988021,5744.9658872552,8672.4407366741,11746.0252895429
560669184837,28203,-2,0,2973.1645509891,5755.2597587675,11251.0190473920,-1255.7184798244,-8907.7639932298,-6465.3787130512,-9190.4560935173,-22461.1668011558,-12038.1473548681,-4876.1923340972,-6719.4037196237,-2520.7087446280,-24332.0962000450,5739.1618958707,8667.2816332212,11738.9558576888
560669184837,28203,-2,0,2972.3736506956,5754.5783677454,11255.1073935245,-1256.9109141131,-8913.3733014652,-6465.2083652956,-9197.2335006476,-22470.9009586141,-12045.8130038666,-4881.5582883961,-6727.5074057078,-2530.0900388784,-24339.3116442610,5733.8324446623,8661.6844926827,11730.0369359176
560669184837,28203,-2,0,2966.1072868317,5747.1925757738,11246.1519686628,-1266.0975252144,-8918.0091939548,-6479.2255520357,-9206.3471055680,-22475.5003480132,-12048.7454188009,-4887.1554289347,-6740.0157980418,-2533.7160125317,-24339.5184951070,5734.8545311954,8660.1878659734,11730.4506376096
560669184837,28203,-2,0,2966.0099452572,5746.0001414852,11234.0207749304,-1271.1957901832,-8916.1962071281,-6491.4054165554,-9207.4665336757,-22474.3200814214,-12044.3163771574,-4888.2626893455,-6742.7048590397,-2529.6641694896,-24333.0939511845,5741.4615905702,8665.2861309423,11736.9116846226
560669184837,28203,-2,0,2969.7697635755,5750.3075061605,11237.7927609455,-1267.8375058601,-8912.2052025702,-6486.7330209754,-9201.7842192594,-22469.5503442668,-12039.0842675235,-4882.8358965625,-6732.0459566228,-2525.3933079048,-24328.3242140299,5745.7324521551,8669.2649678034,11741.7544279581
560669184837,28203,-2,0,2973.2010540795,5753.8361382392,11247.7337692498,-1260.3422046172,-8913.3002952843,-6473.0686974433,-9198.4624380268,-22470.5845984967,-12041.2501175580,-4881.0350774327,-6724.3559722307,-2527.2793009123,-24330.3197163088,5744.3818378077,8668.1212043020,11739.2722178062
560669184837,28203,-2,0,2970.0252852087,5753.7509643614,11251.0920535730,-1260.1961922553,-8917.8023431088,-6470.8055058342,-9204.2420940177,-22474.5269322674,-12048.6237418327,-4886.2428516729,-6730.5493299135,-2532.3288950939,-24334.9069380111,5739.9649638610,8663.6921626585,11731.8012519569
560669184837,28203,-2,0,2966.0586160445,5748.0443145514,11244.6553419536,-1266.2070344858,-8920.7225903463,-6480.6005017767,-9210.3624455196,-22476.3155837003,-12050.1082008451,-4887.8124845631,-6739.4804193816,-2533.2901431429,-24334.8095964365,5739.5999329563,8662.8404238808,11733.3708848471
560669194924,28204,-2,0,2966.9346902157,5746.3895077835,11237.3668915567,-1270.9402685499,-8916.1597040377,-6490.0913052986,-9208.1235893042,-22471.7892004822,-12042.5520611180,-4883.6754676433,-6741.7679463843,-2526.6830837680,-24329.1881205043,5745.6837813678,8667.6101610354,11744.3339796846
560669194924,28204,-2,0,2971.0838748323,5751.4634373587,11236.7828421092,-1265.2336187400,-8910.5260604087,-6485.9786237724,-9200.5309464867,-22466.3745753960,-12035.9936725305,-4879.6966307822,-6732.8003538258,-2521.0494401390,-24325.9393454526,5748.7378732704,8671.0536192363,11745.1857184622
560669194924,28204,-2,0,2972.8238554780,5756.2210068165,11245.1663852202,-1257.6774790129,-8911.4264699736,-6472.4968156926,-9197.4646868873,-22464.4764146916,-12039.2059444917,-4879.2585936966,-6724.5019845925,-2523.7628365305,-24328.1782016680,5743.3962543651,8665.0792800963,11735.5975733657
560669194924,28204,-2,0,2969.2952233994,5755.7342989435,11251.1772274507,-1256.8257402353,-8918.2160448008,-6468.7248296775,-9200.7864681199,-22471.1686479442,-12047.5043137250,-4883.9553246702,-6728.4686537568,-2530.9782807465,-24335.6126644268,5737.1907289854,8661.7331634700,11729.3068741082
560669194924,28204,-2,0,2965.0365295113,5750.1371584050,11246.0667947851,-1261.9483405978,-8922.4869063856,-6479.8826076641,-9207.2840182234,-22475.7558696465,-12051.7143368257,-4889.9174961135,-6740.2469842814,-2533.3144785365,-24336.3670616298,5736.6675180220,8659.3726302863,11728.4064645433
560669194924,28204,-2,0,2962.2622946357,5745.8054583360,11233.2907131210,-1268.4823937917,-8922.1948816619,-6495.5424334752,-9211.1046750258,-22474.7459508102,-12049.4511452166,-4891.1099304021,-6746.9757206245,-2530.5889144482,-24332.0840323482,5740.4030009466,8661.7088280763,11736.8751815321
560669194924,28204,-2,0,2964.4524800638,5750.3196738573,11235.1280353413,-1267.5941519236,-8919.3719759989,-6496.1386506196,-9208.5251232993,-22472.6044361693,-12043.9513462527,-4888.9927511549,-6740.6241828829,-2529.3721447659,-24326.9735996825,5743.2745773969,8664.5925722234,11740.6228321536
560669194924,28204,-2,0,2968.5164908027,5755.7099635499,11243.3047276063,-1258.6265593651,-8917.4859829914,-6481.9997869113,-9202.8306411862,-22471.5823496362,-12044.5840664875,-4886.1941808856,-6732.2163043783,-2530.6984237196,-24327.7036614919,5742.8608757049,8664.4465598615,11735.0378593118
560669203338,28205,-2,0,2969.5750804263,5756.6590439021,11251.2258982380,-1253.6013005772,-8917.7658400183,-6472.7766727195,-9204.3151001986,-22474.3200814214,-12047.6138229964,-4886.0725039174,-6732.7760184321,-2536.1130488058,-24331.4878152038,5739.5755975627,8660.1878659734,11728.5768122988
560669203338,28205,-2,0,2966.1194545286,5751.4512696619,11251.8829538664,-1257.1664357464,-8918.7149203705,-6476.2079632236,-9207.0771673774,-22476.0357266734,-12047.5286491186,-4885.3181067144,-6739.5534255625,-2536.7092659501,-24331.2809643578,5738.4440017581,8658.6182330833,11728.3334583624
560669203338,28205,-2,0,2965.5840758684,5746.7058679009,11242.0027840462,-1266.5842330873,-8913.3002952843,-6486.3071515866,-9206.8703165314,-22470.7549462523,-12039.6561492742,-4882.8237288657,-6741.7801140811,-2529.8588526388,-24322.0943532565,5747.8131283118,8663.9841873822,11735.8044242117
560669203338,28205,-2,0,2968.9545278883,5749.8573013781,11238.9365244468,-1265.1849479527,-8906.3525403984,-6484.5306678505,-9200.1172447947,-22465.4376627406,-12032.1243449408,-4877.7497992905,-6733.5912541193,-2522.9719362370,-24313.2971084535,5755.1259141024,8672.2582212218,11744.4434889560
560669203338,28205,-2,0,2971.3880672529,5753.9213121169,11244.8135220123,-1260.0745152871,-8905.7684909509,-6471.7059153991,-9194.5566073466,-22463.4178250680,-12031.3456123441,-4873.8561363072,-6723.8327612673,-2521.6091541929,-24314.4408719549,5754.7243801072,8674.0225372611,11745.2343892495
560669203338,28205,-2,0,2971.3028933751,5756.3183483910,11254.5233440770,-1254.0393376629,-8908.7130735820,-6463.8090801610,-9196.5886127160,-22467.3358234450,-12038.3055349268,-4876.9954020875,-6723.3947241817,-2525.7583388095,-24319.5513046205,5751.7189589920,8670.9197745713,11740.9270245741
560669203338,28205,-2,0,2965.3285542351,5751.5121081460,11249.9726254652,-1257.8721621621,-8914.7969219935,-6470.5986549882,-9203.5850383892,-22470.5724307999,-12044.1216940082,-4883.1035858926,-6734.6863468333,-2529.7493433674,-24326.3773825382,5748.3485069720,8667.9995273338,11738.4083113318
560669203338,28205,-2,0,2960.7778356233,5744.4426762919,11238.7783443881,-1265.7689974002,-8916.4030579741,-6486.0516299533,-9207.6125460376,-22470.6454369808,-12043.1604459592,-4883.7119707338,-6741.2812385114,-2528.9097722866,-24325.2701221273,5747.7887929182,8666.2230435976,11741.4502355375
560669242315,28206,-2,0,2964.0387783718,5748.6040286053,11234.5561535906,-1265.6351527351,-8913.1542829224,-6489.9331252399,-9203.8162246289,-22466.3502400023,-12039.2424475822,-4883.4077783132,-6738.9693761150,-2523.5316502909,-24324.6252341957,5751.2079157254,8669.7395079795,11749.4444123502
560669242315,28206,-2,0,2967.9932798393,5753.3129272758,11238.8756859627,-1260.8532478837,-8913.5071461303,-6482.1092961827,-9200.4944433962,-22466.3624076992,-12042.6250672990,-4885.3059390176,-6731.6079195371,-2525.4298109953,-24329.1881205043,5744.1384838713,8666.6367452896,11743.6039178752
560669242315,28206,-2,0,2966.8130132475,5753.7022935741,11248.5855080274,-1256.7405663576,-8917.4616475977,-6472.0101078197,-9202.1005793768,-22471.4485049712,-12048.2952140185,-4886.2306839761,-6731.1698824515,-2532.6574229081,-24337.1701296201,5733.6620969067,8657.6691527311,11736.6683306861
560669242315,28206,-2,0,2963.4912320148,5749.9668106495,11248.2691479100,-1258.1520191890,-8919.6640007227,-6474.8816842699,-9206.2862670839,-22472.7261131376,-12051.3858090115,-4889.5768006024,-6738.2149789120,-2534.7259313680,-24338.8979425690,5730.6323403978,8655.9048366918,11734.9648531309
560669242315,28206,-2,0,2961.4713943422,5745.8662968201,11238.6323320263,-1265.2701218304,-8918.1673740135,-6486.7573563691,-9207.6125460376,-22471.3389956998,-12047.4678106345,-4889.2969435755,-6744.4448396853,-2530.3577282085,-24333.1791250622,5737.8599523106,8659.3239594990,11737.8729326716
560669242315,28206,-2,0,2963.7345859513,5747.1074018961,11236.0162772093,-1267.8740089506,-8911.3899668831,-6490.8578701984,-9203.5120322083,-22466.7761093912,-12039.5831430932,-4884.2351816971,-6740.3078227655,-2525.1134508779,-24324.9659297067,5742.8487080081,8664.6047399202,11744.9423645257
560669242315,28206,-2,0,2967.8229320838,5753.2642564885,11241.6620885352,-1261.8266636296,-8908.7982474598,-6481.3792343733,-9198.9369782028,-22464.6102593567,-12040.2036956312,-4883.3104367386,-6731.5592487498,-2524.1765382225,-24326.0610224208,5746.4503462676,8666.6732483801,11745.5872524573
560669242315,28206,-2,0,2970.5363284753,5754.7487155009,11250.9703766047,-1255.5846351594,-8911.2196191276,-6470.8663443183,-9197.7445439142,-22467.6886866529,-12044.1095263114,-4885.4641190763,-6729.7584296201,-2528.7394245311,-24328.1538662743,5740.5855163990,8661.1734494161,11737.8729326716
560669269956,28207,-2,0,2967.0076963966,5753.3129272758,11253.2822390011,-1257.2516096241,-8915.2106236855,-6473.0443620496,-9203.1591690004,-22473.2614917978,-12049.2686297643,-4888.3113601328,-6737.6309294645,-2534.2270557982,-24333.2156281527,5735.7792761539,8654.6393962222,11732.2271213457
560669269956,28207,-2,0,2965.6084112620,5748.1173207324,11245.7626023645,-1264.9050909258,-8914.3345495142,-6484.8956987552,-9205.9577392697,-22474.1010628786,-12047.2122890012,-4888.7128941280,-6745.4547585216,-2533.2536400524,-24330.2467101279,5736.6553503252,8656.1603583251,11735.2447101578
560669269956,28207,-2,0,2969.3317264898,5750.8915556080,11240.4574865497,-1263.5788119721,-8907.3502915379,-6487.9497906577,-9200.7621327263,-22465.4985012247,-12037.0887652445,-4883.0062443180,-6740.4173320370,-2525.4906494794,-24323.9073400831,5743.9803038126,8662.8769269713,11742.6548375230
560669269956,28207,-2,0,2975.5250841727,5758.3868568509,11247.3444029515,-1256.5580509052,-8901.7288156057,-6476.8406834584,-9193.4371792389,-22461.3614843049,-12031.8566556107,-4876.9223959066,-6726.8625177762,-2522.1932036404,-24322.7757442786,5745.5377690059,8666.4420621404,11746.2929788730
560669269956,28207,-2,0,2976.7418538550,5760.9420731838,11259.3904228062,-1249.6346314130,-8903.9555041243,-6463.5900616182,-9192.0257264074,-22462.6999309555,-12035.1784368433,-4876.1679987035,-6722.1901221962,-2525.2107924524,-24327.5941522205,5742.4715094065,8662.5483991571,11741.6814217772
560669269956,28207,-2,0,2974.8071900602,5759.0560801762,11259.8771306791,-1250.3038547382,-8906.9487575427,-6463.8820863419,-9196.6129481097,-22467.2263141736,-12040.4348818708,-4879.1490844252,-6728.2618029108,-2529.6276663992,-24330.7455856976,5739.6486037436,8661.6358218954,11736.6561629893
560669269956,28207,-2,0,2970.5484961721,5752.4976915886,11252.4913387076,-1258.6022239715,-8907.9708440758,-6475.5752429888,-9201.5286976261,-22468.1267237385,-12039.0477644330,-4878.7353827332,-6736.6818491123,-2528.0215304185,-24328.8230895996,5743.2015712159,8662.9742685459,11742.1802973469
560669269956,28207,-2,0,2973.0307063240,5753.9456475106,11246.9915397436,-1261.3034526662,-8903.9433364274,-6483.2530596841,-9200.2024186724,-22463.8315267600,-12032.2581896058,-4874.0264840627,-6735.2460608872,-2522.0836943689,-24320.7437389092,5750.7698786398,8668.5714090845,11750.1623064627
560669302084,28208,-2,0,2979.5890949116,5760.4431976140,11252.0898047124,-1253.5282943963,-8898.4800405539,-6474.8573488762,-9192.3785896153,-22459.0739573022,-12027.3059369989,-4868.8430452161,-6725.3293879765,-2518.8957578013,-24313.8446548106,5753.6171196964,8673.8886925961,11752.0848025608
560669302084,28208,-2,0,2981.0857216208,5766.5757168128,11263.1259057308,-1244.5485341410,-8898.0176680747,-6460.9983421949,-9189.5556839524,-22458.9522803340,-12029.4352839429,-4867.2247415387,-6718.0409375796,-2521.2927940755,-24317.2394422242,5749.0420656909,8670.6399175444,11746.6458420809
560669302084,28208,-2,0,2977.5327541485,5766.1255120303,11267.2142518634,-1243.4534414269,-8902.1425172976,-6458.5648028303,-9192.7679559136,-22464.0627129996,-12035.1784368433,-4871.7632924536,-6723.2243764261,-2526.0503635332,-24323.1286074865,5745.2822473726,8666.9166023165,11741.8396018359
560669302084,28208,-2,0,2972.8603585685,5758.6788815747,11256.3363309036,-1252.9564126456,-8905.9631741001,-6472.2534617561,-9198.3164256649,-22467.3358234450,-12037.6363116016,-4877.4091037795,-6734.7715207111,-2527.3401393965,-24323.2259490611,5745.8176260328,8666.9044346197,11740.3673105203
560669302084,28208,-2,0,2973.6877619524,5754.4445230803,11246.2979810247,-1260.1231860743,-8900.5607167107,-6481.1967189210,-9197.6958731269,-22463.8071913664,-12030.3965319919,-4875.4987753783,-6734.7106822270,-2521.0129370485,-24316.4850450211,5752.8140517060,8671.7228425616,11748.0329595187
560669302084,28208,-2,0,2978.0559651119,5757.6567950416,11248.7923588734,-1256.4728770275,-8896.1803458544,-6476.1592924363,-9191.4781800504,-22459.3051435419,-12025.6754656246,-4873.3572607374,-6725.8891020304,-2517.5086403635,-24313.6743070550,5754.9312309532,8673.6940094469,11750.5273373674
560669302084,28208,-2,0,2979.5039210338,5761.3801102694,11256.3850016909,-1250.6932210366,-8897.7864818350,-6464.1011048848,-9189.5313485587,-22459.9378637767,-12030.4817058697,-4876.3991849432,-6720.3893030664,-2521.0494401390,-24315.9618340578,5750.8672202144,8669.1189554415,11743.7012594498
560669302084,28208,-2,0,2977.3867417866,5759.9564897411,11261.5806082343,-1248.7950603322,-8902.0086726326,-6461.8257455789,-9192.7801236104,-22464.5737562662,-12036.2978649510,-4881.1445867041,-6726.1811267541,-2525.9651896555,-24321.1087698139,5746.7302032946,8663.5826533870,11738.8220130238
560669332336,28209,-2,0,2972.9455324462,5755.2232556770,11256.2024862386,-1254.7937348659,-8905.0019260510,-6471.6572446118,-9197.9148916697,-22464.9509548677,-12035.6773124131,-4881.8989839071,-6734.1266327795,-2525.4176432984,-24320.4760495791,5748.4336808498,8666.1622051135,11743.6647563593
560669332336,28209,-2,0,2973.4809111065,5755.7221312467,11247.6485953721,-1258.7847394238,-8899.0762576983,-6482.5838363588,-9196.3817618700,-22462.0063722366,-12028.9120729795,-4879.9764878091,-6735.7814395474,-2519.7839996694,-24312.4453696759,5755.4179388261,8674.1563819262,11754.0316340524
560669332336,28209,-2,0,2978.7373561340,5759.7861419856,11248.0988001545,-1256.4485416338,-8895.8761534338,-6479.9434461482,-9192.1109002852,-22458.9279449404,-12024.6047083042,-4876.0706571290,-6726.8381823825,-2517.8493358746,-24309.8536502526,5757.6567950416,8676.4560766257,11755.4795899744
560669332336,28209,-2,0,2979.6742687893,5761.5626257217,11256.6161879306,-1252.4818724695,-8899.8793256886,-6469.7347485138,-9193.0843160310,-22463.1136326474,-12030.4695381729,-4876.7763835447,-6722.4456438295,-2523.8966811956,-24319.7216523761,5749.1150718719,8669.9341911286,11749.8581140422
560669332336,28209,-2,0,2975.9631212583,5759.3724402936,11257.7356160383,-1251.3746120586,-8905.6711493763,-6467.2768737555,-9196.6737865938,-22467.7738605306,-12038.1838579586,-4879.7331338727,-6726.0959528763,-2529.5059894309,-24327.8861769442,5740.9748826973,8663.5583179934,11743.4092347260
560669332336,28209,-2,0,2971.3637318593,5754.9677340437,11251.0677181793,-1255.9009952768,-8908.5427258265,-6475.0276966318,-9200.6282880612,-22468.0780529512,-12039.1086029171,-4880.9377358581,-6734.2239743541,-2529.0436169517,-24327.7401645824,5741.0113857878,8666.4663975341,11747.2663946189
560669332336,28209,-2,0,2971.2420548910,5753.8848090265,11244.9838697678,-1261.9970113851,-8904.9167521733,-6483.5815874983,-9201.2975113865,-22465.4619981343,-12032.1486803344,-4874.3306764833,-6734.2726451414,-2523.2761286576,-24320.1840248553,5750.2344999796,8672.0392026790,11757.4264214660
560669332336,28209,-2,0,2974.4421591555,5756.6225408116,11243.5845846332,-1259.5513043237,-8899.1005930919,-6479.7609306959,-9196.7346250779,-22462.1402169016,-12026.5637074927,-4868.9647221844,-6727.8846043093,-2519.3337948870,-24313.9419963852,5756.8172239608,8676.2613934766,11761.4539291144
560669375811,28210,-2,0,2975.7684381092,5761.9276566264,11251.1650597539,-1253.4674559122,-8899.5994686617,-6466.9240105477,-9195.4205138210,-22465.0239610486,-12030.0315010872,-4869.3054176954,-6720.8030047584,-2522.8015884815,-24315.0614244929,5753.6292873932,8674.3875681658,11756.4530057202
560669375811,28210,-2,0,2975.3912395077,5760.8812346997,11258.2831623953,-1250.9122395794,-8904.8315782955,-6460.5481374125,-9200.8473066041,-22470.4994246190,-12037.9040009317,-4871.8241309377,-6722.6768300691,-2530.7714299005,-24322.3377071930,5745.3430858568,8667.0991177689,11749.2132261106
560669375811,28210,-2,0,2970.7188439276,5756.5617023275,11255.8617907275,-1255.8766598831,-8908.9320921249,-6469.2723760345,-9206.3106024776,-22473.0789763454,-12041.0919374993,-4876.1436633099,-6732.3014782560,-2532.2315535193,-24325.0146004940,5741.7901183845,8666.7705899547,11748.0572949124
560669375811,28210,-2,0,2971.4367380402,5755.6247896721,11248.5125018465,-1261.5833096931,-8906.6202297285,-6479.2985582166,-9206.6391302918,-22468.8202824574,-12034.5578843054,-4876.2775079749,-6735.2095577967,-2525.8678480809,-24318.0668456081,5749.4435996861,8672.7327613979,11756.0393040282
560669375811,28210,-2,0,2974.8923639379,5759.9686574379,11248.6341788147,-1258.8699133016,-8900.6823936789,-6479.5540798499,-9200.5187787898,-22463.0162910729,-12027.0625830624,-4870.1936595635,-6727.3857287396,-2520.6600738407,-24313.4066177249,5755.4787773103,8677.2834800097,11761.7094507477
560669375811,28210,-2,0,2977.2042263343,5761.7694765677,11255.1682320086,-1253.2484373694,-8901.1325984613,-6467.7270785380,-9197.1483267699,-22463.3569865839,-12029.0702530382,-4868.6240266733,-6719.8904274966,-2522.4608929705,-24317.6774793098,5753.6779581805,8673.9860341707,11756.8302043217
560669375811,28210,-2,0,2976.5958414931,5763.4851218198,11263.0042287626,-1247.4566136817,-8904.2961996353,-6458.9176660382,-9195.3110045496,-22464.6102593567,-12034.2050210975,-4870.1693241698,-6718.4546392715,-2524.7484199732,-24323.7613277213,5749.5166058670,8669.7030048890,11750.6125112452
560669375811,28210,-2,0,2973.8094389207,5761.3436071789,11265.0484018289,-1249.0140788750,-8905.3426215621,-6463.7969124642,-9197.5863638555,-22463.9775391219,-12035.0810952688,-4870.5951935586,-6724.1977921720,-2524.5780722177,-24324.6374018925,5747.2412465611,8667.6831672164,11748.7143505408
560669393658,28211,-2,0,2975.0383762998,5758.6667138779,11257.2854112558,-1254.5017101421,-8900.9014122217,-6475.0520320254,-9197.5498607650,-22459.7796837180,-12028.3766943193,-4870.2301626539,-6729.3812310185,-2518.5185591998,-24319.1741060190,5754.8947278628,8675.7138471195,11758.8257066007
560669393658,28211,-2,0,2976.5958414931,5759.6279619269,11251.2624013285,-1255.6454736435,-8896.1195073703,-6479.3837320944,-9193.6683654785,-22456.6769210281,-12023.0472431109,-4871.8241309377,-6726.2541329350,-2513.6028096834,-24314.1610149280,5759.3602725968,8679.9968764012,11763.8144622981
560669393658,28211,-2,0,2976.8513631264,5761.4287810567,11256.3484986005,-1252.6400525282,-8897.6039663827,-6473.5067345289,-9192.4880988867,-22458.6724233071,-12027.3667754830,-4877.8228054715,-6721.8007558978,-2516.9610940065,-24317.0690944687,5755.6247896721,8676.2248903861,11760.5048487622
560669393658,28211,-2,0,2976.0117920456,5762.0371658978,11263.0285641563,-1249.9874946208,-8905.0262614447,-6468.2624571982,-9197.1848298603,-22463.6246759140,-12035.2757784179,-4885.6588022254,-6723.3947241817,-2523.8845134987,-24323.1651105769,5748.6283639989,8669.4961540430,11754.0316340524
560669393658,28211,-2,0,2972.1546321528,5756.7442177799,11258.8307087523,-1253.5039590027,-8910.3922157436,-6473.7379207685,-9203.0131566385,-22467.1776433863,-12041.4934714944,-4892.0225076638,-6732.8855277035,-2526.8899346140,-24323.9073400831,5747.1074018961,8669.3258062875,11750.9897098467
560669393658,28211,-2,0,2969.2830557025,5752.8992255838,11248.3908248783,-1260.8532478837,-8908.3845457678,-6487.4874181785,-9205.1668389762,-22468.0537175576,-12035.8963309559,-4890.7083964070,-6738.4583328485,-2523.3856379290,-24317.9086655494,5752.6072008600,8674.6917605864,11754.7008573777
560669393658,28211,-2,0,2972.1911352432,5754.1646660534,11242.9640320952,-1261.6441481772,-8902.2398588722,-6490.3833300223,-9200.7499650295,-22462.9189494983,-12028.9120729795,-4885.5249575604,-6732.8855277035,-2516.4987215272,-24309.5007870448,5759.3359372031,8680.2402303377,11759.5070976228
560669393658,28211,-2,0,2974.6246746078,5756.6955469926,11244.3998203203,-1257.4949635606,-8900.9744184026,-6479.5905829404,-9195.5178553956,-22460.9356149161,-12027.5614586322,-4883.3347721323,-6724.9035185877,-2515.3914611163,-24309.1965946242,5758.6058753938,8681.0798014184,11757.6454400089
560669432192,28212,-2,0,2974.2353083095,5758.8492293302,11252.7955311282,-1252.0560030807,-8904.1866903639,-6469.1750344599,-9195.7977124225,-22463.8558621536,-12032.3798665741,-4882.9940766212,-6721.6669112328,-2521.0494401390,-24313.8811579010,5751.8284682634,8674.6187544055,11749.9311202231
560669432192,28212,-2,0,2971.0230363482,5755.2475910706,11253.5499283312,-1254.6233871104,-8908.8590859439,-6471.3043814039,-9201.0298220564,-22467.3479911418,-12036.8575790049,-4883.8579830956,-6728.7606784806,-2524.5172337335,-24317.9938394272,5750.6603693684,8673.9130279897,11748.2519780615
560669432192,28212,-2,0,2969.1492110375,5750.1493261018,11246.2736456311,-1261.6806512677,-8908.6644027947,-6482.6568425397,-9204.0230754748,-22465.3159857724,-12035.1662691465,-4882.5317041419,-6736.2194766330,-2521.5118126183,-24316.2051879942,5754.7852185914,8678.1960572714,11753.6544354509
560669432192,28212,-2,0,2970.2808068420,5747.9834760673,11240.9441944226,-1265.8906743684,-8903.8338271560,-6488.3878277434,-9202.9888212449,-22463.4178250680,-12028.0359988083,-4877.7254638969,-6733.0193723686,-2516.8029139478,-24311.1312584191,5759.6036265332,8682.0167140738,11760.1519855544
560669432192,28212,-2,0,2972.0086197909,5750.1979968891,11245.7504346677,-1262.6418993167,-8901.6193063343,-6477.4247329059,-9199.5210276504,-22464.0870483933,-12024.8115591502,-4872.2134972361,-6722.0927806216,-2516.3527091653,-24309.2939361988,5758.5815400001,8679.3276530759,11756.9518812899
560669432192,28212,-2,0,2973.7607681334,5749.9181398622,11256.4215047814,-1256.3268646656,-8900.0253380505,-6461.5580562488,-9198.1095748189,-22465.4011596502,-12027.4519493608,-4869.6461132064,-6715.5100566404,-2519.1756148283,-24309.3669423797,5754.2985107184,8678.3420696333,11752.2673180131
560669432192,28212,-2,0,2969.8062666659,5746.0488122725,11257.2854112558,-1259.3079503872,-8902.6900636547,-6457.3236977544,-9201.0784928437,-22467.5426742910,-12028.4253651066,-4868.1859895877,-6720.0364398585,-2522.0471912785,-24312.3966988886,5754.8095539850,8678.8409452030,11753.3137399399
560669432192,28212,-2,0,2966.5331562206,5739.4539205944,11251.7612768982,-1265.0146001972,-8900.3903689551,-6465.6342346845,-9202.8549765798,-22464.7684394154,-12025.8214779865,-4864.7425313868,-6726.0107789986,-2519.1756148283,-24309.3426069861,5759.2750987190,8681.9437078929,11758.7527004197
560669445458,28213,-2,0,2968.1392922012,5741.6441060226,11244.5823357727,-1266.8519224174,-8895.2434331990,-6471.2435429198,-9198.1947486967,-22460.4975778305,-12017.8881396579,-4861.0313838558,-6724.2464629593,-2512.4833815756,-24303.5386156015,5765.7604811256,8687.1879852236,11766.1019893008
560669445458,28213,-2,0,2970.4024838102,5744.5156824728,11248.1353032450,-1262.0700175660,-8893.9171542453,-6466.9726813350,-9193.5223531166,-22456.4213993948,-12017.1824132422,-4860.4960051956,-6715.9967645133,-2511.1327672283,-24303.3561001492,5764.7870653798,8686.7012773506,11764.8000457407
560669445458,28213,-2,0,2969.4412357612,5746.2191600280,11257.3827528304,-1256.7162309639,-8897.5309602018,-6455.1335123263,-9192.6219435517,-22459.3538143292,-12022.7308829935,-4861.8831226334,-6711.8110768062,-2516.8029139478,-24310.3525258224,5758.0339936431,8681.2501491740,11757.9496324294
560669445458,28213,-2,0,2966.0464483476,5744.4913470791,11260.7045340631,-1254.7328963818,-8902.2398588722,-6454.9388291771,-9195.1163214004,-22461.4223227891,-12026.1500058007,-4866.3730027611,-6717.1040249242,-2519.3946333711,-24315.2804430357,5751.4269342682,8678.0987156968,11754.3966649571
560669445458,28213,-2,0,2965.4623989001,5741.2547397242,11254.2921578374,-1259.1619380253,-8902.6413928674,-6466.7171597017,-9197.1483267699,-22459.7431806275,-12024.8237268470,-4866.6163566975,-6724.5141522894,-2516.3527091653,-24313.5404623900,5753.3250949726,8680.0090440980,11758.6188557547
560669445458,28213,-2,0,2967.5674104505,5742.7757018271,11249.4007437146,-1262.4107130771,-8899.3804501188,-6477.3152236345,-9194.8729674640,-22456.6039148472,-12020.2608405384,-4865.8132887072,-6725.5484065193,-2511.9845060059,-24309.0870853528,5762.1953459565,8684.6084334971,11767.0267342593
560669445458,28213,-2,0,2969.4655711549,5743.9924715094,11249.5832591669,-1260.2935338299,-8897.1902646907,-6475.8672677125,-9191.6850308964,-22454.6327479619,-12018.1193258976,-4867.8331263798,-6719.1847010809,-2511.2544441965,-24306.1668381153,5764.7505622893,8684.6206011939,11764.2159962932
560669445458,28213,-2,0,2970.5849992626,5745.9027999106,11255.9104615148,-1253.8081514232,-8899.4534562998,-6464.6851543323,-9190.5899381823,-22458.6602556102,-12022.4266905729,-4870.0476472016,-6717.1283603178,-2516.7177400700,-24309.7806440717,5759.6522973205,8677.5390016430,11757.2925768010
560669517317,28214,-2,0,2965.8882682889,5743.1163973382,11259.9136337696,-1256.5093801179,-8904.1380195766,-6464.5391419704,-9195.9072216939,-22463.9045329409,-12026.4541982213,-4873.5641115834,-6723.3095503039,-2523.9940227702,-24314.3556980771,5753.9334798138,8674.4970774372,11752.8026966733
560669517317,28214,-2,0,2960.9116802884,5735.8401146380,11249.3034021400,-1261.7658251454,-8905.4399631367,-6475.8429323189,-9202.2344240419,-22466.4110784865,-12027.3546077862,-4876.5938680923,-6734.1631358700,-2523.1301162957,-24311.7396432602,5755.6126219753,8675.0446237943,11757.3412475883
560669517317,28214,-2,0,2963.4912320148,5737.4705860123,11242.5990011905,-1264.4183830528,-8899.9158287791,-6483.8127737379,-9199.0343197774,-22461.4953289700,-12018.9710646752,-4874.3306764833,-6734.7228499238,-2516.0241813511,-24304.7067144965,5763.8014819372,8681.5300062009,11766.1628277849
560669517317,28214,-2,0,2967.6039135410,5742.6053540716,11244.3146464426,-1260.6342293409,-8897.3849478399,-6478.5076579231,-9194.2524149260,-22458.9887834245,-12015.6371157457,-4870.4856842872,-6726.3879776001,-2512.1791891551,-24302.9058953667,5766.6730583874,8682.9292913355,11767.8419699465
560669517317,28214,-2,0,2972.3493153019,5749.7477921067,11254.2069839596,-1251.7153075697,-8897.7134756541,-6466.1574456478,-9190.0302241285,-22456.0807038838,-12019.6524556973,-4870.3640073190,-6719.3793842301,-2513.1769402946,-24305.5949563646,5763.0105816437,8680.9094536629,11762.6585310999
560669517317,28214,-2,0,2973.4930788033,5751.2687542095,11260.8870495154,-1246.7752226596,-8900.3295304710,-6459.2705292461,-9190.9306336934,-22455.8738530378,-12024.5925406074,-4872.5055219598,-6721.0220233012,-2516.1336906225,-24310.2916873383,5758.2408444891,8676.5777535940,11759.3732529577
560669517317,28214,-2,0,2970.0252852087,5748.2511653974,11257.2854112558,-1250.3768609192,-8901.3272816105,-6465.1840299020,-9194.2889180165,-22458.0031999818,-12024.5803729106,-4870.9480567665,-6727.0937040158,-2514.0530144658,-24311.2042646000,5757.2795964401,8676.5290828067,11762.2083263175
560669517317,28214,-2,0,2972.1911352432,5747.8496314023,11249.5224206828,-1253.8446545137,-8897.2511031748,-6473.7257530717,-9193.3033345738,-22454.0243631207,-12018.3748475309,-4867.5532693529,-6728.3469767886,-2507.4459550909,-24305.9478195725,5761.5382903281,8681.8341986215,11770.4580247634
560669543364,28215,-2,0,2974.4421591555,5750.5995308843,11246.8211919881,-1252.6035494378,-8892.7855584408,-6470.9515181961,-9188.3997527542,-22450.1307001374,-12013.5199364985,-4863.6231032791,-6720.7178308806,-2505.1219249978,-24303.2952616651,5763.4851218198,8685.1803152478,11771.8208068076
560669543364,28215,-2,0,2975.0383762998,5754.0551567820,11253.6594376026,-1247.2254274420,-8895.3042716832,-6458.4552935589,-9188.1929019082,-22452.7954257416,-12017.5231087533,-4861.4937563351,-6713.9647591439,-2509.5387989445,-24308.2961850593,5758.6667138779,8681.3109876581,11765.8951384548
560669543364,28215,-2,0,2971.2177194974,5753.3494303662,11258.0276407620,-1246.5927072072,-8899.4047855125,-6452.6147990839,-9190.7724536347,-22457.7720137422,-12023.1080815950,-4863.1972338903,-6714.8530010119,-2515.7564920210,-24314.3678657740,5753.7144612709,8675.8720271782,11758.8743773880
560669543364,28215,-2,0,2965.7909267144,5745.6351105805,11253.5255929375,-1251.0095811540,-8901.6679771216,-6458.5891382240,-9192.6706143390,-22459.6945098402,-12023.1080815950,-4863.2580723744,-6722.8471778246,-2516.3162060749,-24313.3336115440,5753.9821506010,8675.2271392466,11756.9032105027
560669543364,28215,-2,0,2967.6282489346,5745.9636383947,11248.3786571814,-1255.8644921863,-8897.5917986859,-6468.4571403474,-9192.2569126471,-22454.3650586317,-12015.7222896235,-4859.2670678165,-6723.7354196927,-2511.7654874631,-24307.5539555531,5760.5770422791,8679.5953424060,11765.6882876088
560669543364,28215,-2,0,2968.6138323773,5746.6328617200,11244.7891866187,-1255.9131629736,-8893.3209371010,-6467.9826001713,-9187.8157033067,-22450.9094327340,-12010.0034721167,-4857.2715655375,-6718.2477884255,-2507.5676320592,-24303.9644849903,5764.3125252037,8682.1505587389,11769.4724413208
560669543364,28215,-2,0,2969.0640371597,5750.1979968891,11250.7148549714,-1251.7396429633,-8896.4115320940,-6459.8789140872,-9187.9130448813,-22452.3452209591,-12017.3162579073,-4862.5036751714,-6712.5411386156,-2511.9601706123,-24309.9023210399,5758.5937076969,8677.8066909731,11762.4030094666
560669543364,28215,-2,0,2968.8936894042,5749.4314319893,11258.5021809381,-1248.7707249385,-8903.6026409164,-6455.3281954754,-9192.0013910138,-22458.6724233071,-12026.2838504658,-4867.3585862037,-6714.3784608359,-2519.7839996694,-24318.2615287573,5750.1736614955,8672.1122088599,11755.9906332409
560669557139,28216,-2,0,2966.0707837413,5744.3940055046,11256.6283556274,-1254.2096854184,-8909.2119491518,-6464.5878127577,-9197.3795130095,-22461.8725275715,-12029.7881471508,-4871.9336402092,-6722.2996314676,-2521.0372724422,-24322.1065209533,5747.9104698864,8671.2969731728,11756.6476888694
560669557139,28216,-2,0,2967.5795781473,5745.4769305218,11250.3376563699,-1258.9915902698,-8906.3282050047,-6478.6780056786,-9196.9049728334,-22457.5164921089,-12025.6876333214,-4872.5785281408,-6726.8625177762,-2514.9290886371,-24317.1542683464,5753.9821506010,8675.2149715498,11766.3696786309
560669557139,28216,-2,0,2969.5385773358,5747.8374637055,11248.5368372401,-1257.8599944653,-8903.1767715276,-6482.2918116351,-9192.4515957962,-22452.2357116877,-12021.7087964603,-4871.0697337347,-6720.2311230077,-2511.4977981330,-24315.4751261848,5756.1480006355,8678.6827651443,11772.1980054091
560669557139,28216,-2,0,2972.7873523875,5752.4003500141,11256.6040202337,-1252.2750216235,-8905.8901679191,-6472.8496789005,-9189.1054791699,-22453.7931768811,-12026.5272044022,-4872.6028635344,-6713.8917529629,-2513.4324619278,-24319.6608138919,5750.2710030700,8675.1784684593,11767.0389019562
560669557139,28216,-2,0,2972.1789675464,5751.4269342682,11263.4300981514,-1247.6026260435,-8908.6400674011,-6464.0646017943,-9189.9328825539,-22456.4579024853,-12032.5745497232,-4876.5451973050,-6714.6218147723,-2518.9200931950,-24324.2845386847,5744.7103656220,8672.1487119504,11757.9496324294
560669557139,28216,-2,0,2967.8716028711,5748.3120038816,11261.7022852026,-1251.1677612127,-8910.6842404674,-6467.9339293840,-9195.0068121290,-22459.9987022608,-12034.6187227895,-4878.8448920046,-6722.9323517024,-2520.3437137233,-24323.3476260293,5747.1804080770,8673.4263201168,11757.4142537692
560669557139,28216,-2,0,2966.5088208269,5744.9780549521,11254.6936918325,-1257.8964975557,-8907.5084715966,-6478.2399685930,-9194.9094705545,-22457.3826474438,-12027.6101294195,-4874.5861981166,-6726.5704930524,-2515.8416658988,-24315.8523247864,5757.2552610464,8679.1816407141,11763.3642575156
560669557139,28216,-2,0,2968.6138323773,5744.9415518616,11248.1231355482,-1258.9794225730,-8901.0595922804,-6479.8096014832,-9188.8012867493,-22452.0045254481,-12018.9710646752,-4870.8507151919,-6721.1802033599,-2508.8695756192,-24307.3227693135,5766.2471889986,8685.5453461525,11770.4580247634
560669582325,28217,-2,0,2968.5894969836,5746.7545386882,11250.0334639494,-1256.2051876974,-8902.1060142072,-6471.5720707340,-9186.3434119911,-22452.5277364115,-12021.3194301620,-4871.3130876712,-6715.6439013054,-2510.7312332331,-24311.7639786538,5762.3778614089,8681.5178385041,11766.7347095356
560669582325,28217,-2,0,2966.3628084650,5746.9005510501,11258.5995225127,-1252.7860648901,-8909.0416013963,-6466.2791226161,-9191.4416769599,-22459.9135283830,-12030.5790474443,-4876.6790419701,-6716.7024909290,-2518.6889069553,-24322.2525333152,5751.9988160189,8674.2902265912,11758.6675265420
560669582325,28217,-2,0,2962.4934808753,5742.0334723209,11253.7689468740,-1257.0325910813,-8916.1475363409,-6472.6306603576,-9198.9613135965,-22464.4885823884,-12038.3907088046,-4884.7827280542,-6727.9819458839,-2524.1278674352,-24328.2147047585,5746.4503462676,8671.2483023855,11753.3624107272
560669582325,28217,-2,0,2961.4713943422,5738.7603618755,11244.6675096504,-1263.2259487642,-8917.2669644486,-6487.0250456992,-9202.8549765798,-22464.2087253615,-12038.2568641395,-4887.5082921425,-6737.6187617677,-2520.6722415375,-24325.2579544305,5747.9591406737,8673.7548479310,11757.3047444978
560669582325,28217,-2,0,2963.8319275259,5741.8752922622,11239.6787539530,-1265.1606125590,-8911.7793331814,-6491.0647210444,-9199.0099843838,-22459.2564727546,-12031.2847738600,-4882.2396794182,-6731.8999442609,-2514.9169209402,-24319.5148015301,5753.7874674519,8676.8576106209,11761.1984074812
560669582325,28217,-2,0,2967.7864289933,5746.8762156564,11242.6598396747,-1258.6508947588,-8909.7838309025,-6479.6514214245,-9193.0843160310,-22457.1636289010,-12030.3600289015,-4878.9544012760,-6723.2487118198,-2514.3693745832,-24316.7040635640,5749.7599598035,8677.4903308557,11759.7991223465
560669582325,28217,-2,0,2969.9522790278,5749.8207982876,11253.6959406931,-1251.1190904254,-8909.7229924183,-6465.9262594082,-9192.8896328818,-22459.3781497228,-12033.8399901928,-4878.5163641904,-6719.6714089538,-2519.8935089408,-24322.8609181564,5747.1925757738,8674.6309221023,11757.4750922533
560669582325,28217,-2,0,2966.3628084650,5746.7788740819,11254.3164932310,-1255.3169458293,-8912.6675750495,-6464.9650113592,-9196.4304326573,-22462.4687447158,-12037.9161686285,-4878.5893703713,-6724.8548478004,-2524.9309354255,-24326.0610224208,5745.8176260328,8670.8346006935,11755.0902236760
560669611129,28218,-2,0,2962.3474685135,5742.0091369273,11244.7770189218,-1262.3377068961,-8912.3633826289,-6475.9889446808,-9200.3727664280,-22462.6147570777,-12035.8963309559,-4878.2000040730,-6733.4330740606,-2523.3004640512,-24325.3431283083,5750.6847047620,8672.5989167328,11759.3489175641
560669611129,28218,-2,0,2961.4835620390,5739.1253927802,11236.7706744124,-1266.1096929112,-8909.8446693866,-6483.2895627745,-9198.3285933617,-22458.5142432484,-12030.5668797474,-4875.3527630164,-6732.3136459529,-2518.2143667793,-24321.2791175694,5755.1259141024,8677.4659954620,11767.5256098291
560669611129,28218,-2,0,2962.7490025086,5745.5499367027,11241.5525792638,-1263.1407748864,-8907.9708440758,-6476.3661432823,-9194.2767503197,-22456.3118901234,-12027.5979617226,-4869.4635977541,-6720.1216137363,-2516.1458583194,-24321.4007945376,5754.5175292613,8677.9648710318,11771.8938129885
560669611129,28218,-2,0,2967.7255905092,5748.9082210259,11256.3363309036,-1254.2583562057,-8906.9730929364,-6460.8888329235,-9192.7801236104,-22457.2731381724,-12030.1045072682,-4869.1837407272,-6715.3883796722,-2518.9930993759,-24322.8852535500,5750.8915556080,8675.3001454275,11767.5012744354
560669611129,28218,-2,0,2968.1757952916,5747.6062774658,11260.3395031584,-1254.1488469343,-8911.4386376704,-6460.5481374125,-9197.0144821048,-22461.9090306620,-12034.7769028482,-4872.9922298328,-6721.7034143233,-2525.4298109953,-24324.7712465576,5749.1029041750,8670.7129237253,11759.0325574467
560669611129,28218,-2,0,2968.4556523186,5742.7635341303,11256.6405233242,-1260.4638815854,-8912.0348548147,-6474.4071440938,-9203.6458768733,-22463.4786635521,-12035.1175983592,-4876.2288371877,-6731.0968762706,-2527.1819593378,-24322.5932288263,5749.5166058670,8674.4727420436,11764.7027041662
560669611129,28218,-2,0,2968.3948138345,5742.6418571621,11248.5125018465,-1263.5301411848,-8908.6765704916,-6485.2120588726,-9204.7409695874,-22463.3569865839,-12029.4961224270,-4877.3239299017,-6734.2239743541,-2523.3126317481,-24318.1276840922,5754.7000447136,8677.2469769192,11767.8541376433
560669611129,28218,-2,0,2971.5705827052,5747.8496314023,11247.7216015530,-1260.0866829839,-8906.4742173666,-6479.7487629991,-9200.5796172739,-22461.2154719431,-12026.3690243435,-4877.0197374811,-6728.3104736981,-2522.3027129118,-24316.6553927767,5754.6513739263,8677.7823555794,11767.0389019562
560669652117,28219,-2,0,2972.2154706369,5750.9037233048,11258.8793795396,-1255.1709334674,-8907.0582668141,-6468.4814757410,-9199.8617231614,-22462.6025893809,-12029.2527684906,-4876.8737251193,-6723.2608795166,-2525.8556803841,-24321.0600990266,5750.8550525175,8673.9373633834,11758.5701849674
560669652117,28219,-2,0,2967.0441994871,5747.3264204389,11259.2565781412,-1256.9474172036,-8912.4607242035,-6469.0655251885,-9204.9599881302,-22468.0902206480,-12035.2879461147,-4883.6024614624,-6730.2451374930,-2531.5501624972,-24324.2237002005,5748.2146623070,8668.9607753828,11750.8436974848
560669652117,28219,-2,0,2963.9901075846,5740.2204854943,11251.2502336317,-1264.6860723829,-8915.1132821109,-6482.2066377573,-9210.8613210893,-22470.8036170395,-12036.9184174890,-4889.1022604263,-6742.3519958318,-2531.1121254116,-24322.3255394962,5750.5386924001,8670.6155821507,11752.2551503163
560669652117,28219,-2,0,2965.1825418732,5738.6143495137,11243.3777337872,-1268.3728845203,-8912.3025441448,-6492.4761738759,-9209.4377005610,-22468.2484007067,-12030.3965319919,-4888.2261862551,-6744.7490321059,-2526.7439222521,-24313.8203194169,5756.8537270513,8674.6552574959,11760.2006563417
560669652117,28219,-2,0,2968.9910309788,5741.4980936607,11242.3678149509,-1266.1218606081,-8909.5404769660,-6490.3468269318,-9204.5827895287,-22466.3137369119,-12025.9796580452,-4887.3014412965,-6738.7016867849,-2524.4198921590,-24309.6711348003,5758.8857324207,8676.0423749337,11758.6431911483
560669652117,28219,-2,0,2972.0207874877,5748.9933949036,11252.1141401061,-1258.4318762160,-8909.8690047802,-6477.5950806614,-9203.9865723844,-22466.3867430928,-12029.6056316984,-4887.9463292281,-6734.5038313810,-2528.7637599247,-24313.1754314853,5753.6292873932,8671.3699793537,11751.7319393529
560669652117,28219,-2,0,2969.2952233994,5746.0366445757,11254.8032011040,-1258.5292177905,-8913.1299475288,-6471.8397600642,-9208.7684772358,-22473.0424732550,-12033.2072699580,-4887.7638137758,-6737.7526064327,-2535.7115148106,-24319.8676647379,5748.8352148449,8664.2518767123,11745.6237555478
560669652117,28219,-2,0,2965.0852002986,5739.5147590786,11249.4737498955,-1265.0632709845,-8914.7969219935,-6481.0628742559,-9212.5526309477,-22474.9162985657,-12033.4019531072,-4888.9684157613,-6746.1604849374,-2534.6529251870,-24320.2083602490,5748.3363392752,8664.2762121060,11750.3813250056
560669675775,28220,-2,0,2966.5939947047,5739.2957405358,11239.3988969261,-1269.7113311708,-8910.6720727705,-6490.1886468731,-9210.0582530990,-22470.0248844429,-12026.8313968228,-4885.4884544699,-6746.8662113531,-2527.6078287266,-24314.1245118375,5754.7730508945,8670.7372591189,11760.3831717940
560669675775,28220,-2,0,2968.7598447391,5743.1650681254,11238.9608598405,-1267.9956859188,-8908.1290241345,-6487.7429398117,-9206.3471055680,-22466.3867430928,-12023.7042987393,-4882.0571639658,-6738.3731589707,-2524.5902399145,-24313.2727730599,5757.0605778972,8674.3632327722,11765.6152814279
560669675775,28220,-2,0,2970.4876576880,5745.5256013091,11249.6440976510,-1262.8244147690,-8910.1245264135,-6473.5919084067,-9203.7918892352,-22467.7860282275,-12026.9409060942,-4883.9188215798,-6732.5935029798,-2527.9728596313,-24318.2371933636,5753.4954427281,8673.4263201168,11757.5115953438
560669675775,28220,-2,0,2967.6525843283,5745.6594459742,11252.9780465805,-1261.1087695170,-8914.1033632746,-6469.0533574917,-9208.0262477296,-22472.5314299884,-12034.6673935768,-4888.2870247392,-6734.4794959874,-2533.7160125317,-24322.9095889437,5746.7910417787,8670.1532096714,11748.1668041838
560669675775,28220,-2,0,2962.2014561516,5737.6652691615,11246.1519686628,-1268.3850522171,-8918.1795417103,-6478.4103163485,-9214.8401579504,-22476.0478943702,-12037.7093177825,-4890.4650424705,-6744.2136534457,-2537.0377937643,-24323.7369923276,5745.6229428837,8666.9531054070,11744.4921597433
560669675775,28220,-2,0,2960.4128047186,5735.2195621001,11237.7562578550,-1275.3936455871,-8916.0136916758,-6491.3080749809,-9215.0226734028,-22473.6751934898,-12031.9905002757,-4888.4330371011,-6747.9856394608,-2530.9296099592,-24317.8964978526,5750.3683446446,8673.2559723613,11754.1898141111
560669675775,28220,-2,0,2962.7855055991,5736.1078039681,11234.1911226859,-1273.8848511811,-8912.9352643796,-6490.6510193524,-9210.2772716418,-22469.3434934208,-12027.0017445783,-4885.2816036239,-6740.6971890639,-2526.1598728046,-24310.8392336953,5756.2818453006,8675.5313316672,11758.1321478818
560669675775,28220,-2,0,2965.5597404747,5741.7292799003,11243.3777337872,-1266.2800406668,-8912.1321963893,-6477.5464098741,-9206.9919934996,-22470.1952321984,-12028.4862035907,-4882.4221948705,-6732.4596583147,-2528.5325736851,-24312.6765559156,5752.9357286743,8671.8080164394,11752.6080135242
560669709635,28221,-2,0,2963.0410272324,5739.9771315578,11249.6927684383,-1265.6716558256,-8917.2669644486,-6472.4724802989,-9209.0970050500,-22474.5999384483,-12035.6043062321,-4885.1477589589,-6734.1753035668,-2534.3609004633,-24321.1209375107,5746.3773400867,8666.7219191674,11746.9743698951
560669709635,28221,-2,0,2960.5466493837,5735.2682328874,11244.3876526235,-1271.0741132150,-8921.6108322144,-6481.0750419528,-9214.6333071044,-22476.2547452162,-12040.2158633280,-4890.4163716832,-6743.4227531522,-2535.2856454218,-24323.8465015990,5745.3917566440,8666.3447205659,11746.2078049953
560669709635,28221,-2,0,2958.9891841903,5733.9054508432,11238.3646426962,-1275.9168565505,-8917.7780077151,-6493.4617573185,-9214.8158225568,-22474.6972800229,-12035.9328340464,-4889.8931607198,-6746.8905467468,-2531.4163178321,-24319.7459877697,5751.0740710604,8670.2870543365,11752.1456410449
560669709635,28221,-2,0,2962.4204746944,5734.7693573176,11235.7364201824,-1276.9024399932,-8914.4318910888,-6495.5059303848,-9211.5913828987,-22469.9640459588,-12030.6642213220,-4886.8269011204,-6741.1838969368,-2527.0116115822,-24315.3291138230,5754.7730508945,8674.2415558039,11755.0658882824
560669709635,28221,-2,0,2965.1217033891,5740.2083177975,11242.5990011905,-1270.2588775279,-8916.2327102186,-6485.5405866868,-9208.1600923946,-22470.0857229270,-12034.4727104276,-4889.0535896390,-6734.3821544128,-2528.8489338025,-24316.2660264783,5752.6072008600,8673.4263201168,11749.7972755581
560669709635,28221,-2,0,2961.4592266454,5739.4904236849,11247.6120922816,-1267.8375058601,-8920.0046962337,-6478.9943657960,-9210.3502778228,-22474.6364415388,-12040.1063540566,-4891.9251660892,-6735.0513777380,-2535.5533347519,-24321.0235959361,5746.6085263263,8666.9531054070,11741.2677200852
560669709635,28221,-2,0,2956.6043156130,5734.1974755669,11243.5845846332,-1272.7654230734,-8925.7843522246,-6487.1953934547,-9216.8843310167,-22477.6783657445,-12044.0851909177,-4895.0522641727,-6743.8364548442,-2539.3739915543,-24325.4404698828,5743.7369498761,8664.3857213774,11742.1681296501
560669709635,28221,-2,0,2954.4749686690,5731.8734454738,11234.2641288668,-1277.5959987121,-8924.7622656915,-6499.1075686444,-9218.7824917211,-22477.3985087176,-12040.9702605311,-4896.4272139137,-6751.7454577791,-2535.6750117202,-24322.2647010120,5747.1195695929,8667.0261115879,11748.9577044773
560669740861,28222,-2,0,2955.2415335689,5733.7351030877,11227.4867217364,-1278.9101099690,-8920.6860872558,-6501.9913127914,-9216.1055984200,-22472.1907344774,-12034.8985798164,-4893.1419357715,-6747.5476023752,-2530.6254175387,-24318.9185843857,5750.9645617890,8671.4673209283,11756.9032105027
560669740861,28222,-2,0,2957.7359114176,5740.4395040371,11236.0771156934,-1272.5585722274,-8921.1727951287,-6493.2305710789,-9211.2871904781,-22470.9861324919,-12036.6385604621,-4891.0369242212,-6738.7868606627,-2532.0247026733,-24322.0335147724,5748.4215131530,8667.4884840672,11754.7008573777
560669740861,28222,-2,0,2954.9738442388,5740.2083177975,11240.8833559385,-1267.1926179285,-8924.6527564201,-6482.0727930922,-9211.1898489036,-22474.0645597881,-12043.7566631035,-4893.3852897080,-6737.0955508043,-2535.7115148106,-24327.9470154284,5743.6882790888,8662.4510575825,11747.4245746776
560669740861,28222,-2,0,2950.9706719840,5735.4264129461,11238.3889780898,-1271.8650135085,-8929.0939657605,-6484.5550032441,-9215.0105057060,-22475.3665033481,-12047.3339659695,-4895.1252703537,-6743.3132438808,-2536.6970982533,-24328.7744188123,5742.7513664335,8661.1004432352,11746.5728359000
560669740861,28222,-2,0,2950.1189332064,5732.4939980117,11230.7598321818,-1276.7929307218,-8926.0033707674,-6494.6055208199,-9216.2272753882,-22472.5922684725,-12043.1361105655,-4892.3875385685,-6747.2190745610,-2529.7980141547,-24322.6175642199,5749.0664010846,8665.8823480866,11755.5647638521
560669740861,28222,-2,0,2953.7935776469,5732.4088241340,11224.5421391053,-1279.1899669959,-8920.2237147765,-6496.7835385512,-9210.0217500086,-22465.3159857724,-12033.8764932833,-4888.1166769837,-6741.2204000273,-2521.5118126183,-24315.4021200039,5754.8582247723,8673.7305125374,11762.0623139556
560669740861,28222,-2,0,2957.7237437207,5737.3002382568,11229.3362116535,-1273.0817831908,-8916.4395610646,-6484.8105248774,-9203.2443428782,-22461.9698691461,-12032.3676988772,-4884.3690263622,-6731.8391057768,-2520.5140614788,-24318.0425102145,5754.9799017405,8676.0180395401,11760.3101656131
560669740861,28222,-2,0,2958.2712900778,5740.5003425212,11242.2826410731,-1267.1074440507,-8917.5589891723,-6471.3895552817,-9204.4246094700,-22466.8977863594,-12035.7259832004,-4883.0670828021,-6728.3956475759,-2525.9530219586,-24321.1087698139,5748.4093454561,8671.6620040775,11753.6422677541
560669763625,28223,-2,0,2954.2072793389,5736.6066795379,11241.8689393812,-1269.4314741439,-8922.3530617206,-6474.7113365144,-9210.4111163069,-22471.4363372743,-12041.1162728929,-4886.7052241522,-6736.9252030488,-2530.6740883259,-24322.7392411881,5746.3773400867,8667.3181363117,11749.6147601057
560669763625,28223,-2,0,2955.1563596911,5736.1929778459,11235.4443954587,-1274.0551989366,-8922.8154341998,-6487.9741260514,-9213.8424068110,-22471.1078094601,-12039.1329383108,-4887.6056337171,-6745.0045537392,-2528.7759276216,-24317.9330009431,5750.9523940921,8669.7760110699,11753.8126155096
560669763625,28223,-2,0,2955.5092228990,5736.1321393618,11229.9202611010,-1275.7343410982,-8921.4039813684,-6496.0169736513,-9210.9951657544,-22466.3259046087,-12036.9305851858,-4885.5979637413,-6742.3398281350,-2524.4685629462,-24316.1200141165,5755.6126219753,8672.1852150409,11760.7847057892
560669763625,28223,-2,0,2960.8873448947,5741.2669074211,11235.4322277618,-1268.9204308773,-8919.6031622386,-6488.1444738069,-9205.5927083650,-22464.2330607552,-12037.1374360318,-4883.8823184893,-6734.4064898064,-2523.3734702322,-24319.8798324347,5754.1524983566,8672.8787737598,11758.9473835689
560669763625,28223,-2,0,2963.9536044941,5747.2534142580,11245.3489006725,-1260.1353537712,-8919.9803608401,-6475.3197213555,-9203.6458768733,-22465.1213026232,-12041.0797698025,-4883.4807844941,-6729.2717217471,-2527.9485242376,-24326.0123516335,5748.0564822483,8668.4132290258,11749.5052508343
560669763625,28223,-2,0,2959.2082027331,5743.4449251524,11248.6585142084,-1261.4859681185,-8923.0952912268,-6474.9790258445,-9206.5417887172,-22467.9320405893,-12044.4380541256,-4884.3811940590,-6734.4429928969,-2531.6840071623,-24331.7676722308,5743.7004467857,8664.3978890742,11745.3804016113
560669763625,28223,-2,0,2961.0941957407,5742.4593417097,11244.6188388632,-1264.1020229354,-8921.0146150700,-6484.7861894838,-9208.8049803263,-22466.2650661246,-12041.1892790739,-4884.3811940590,-6741.8896233525,-2527.9363565408,-24329.0786112329,5745.0388934362,8666.2230435976,11749.2253938074
560669763625,28223,-2,0,2963.7589213449,5744.1141484776,11237.2938853757,-1267.7644996791,-8916.0136916758,-6493.4739250153,-9204.0474108685,-22460.8626087352,-12033.6818101341,-4883.1279212863,-6740.6606859734,-2521.3171294691,-24322.0091793788,5748.2268300038,8669.4718186494,11755.8324531822
560669807109,28224,-2,0,2968.7963478296,5747.2412465611,11243.4872430586,-1261.9970113851,-8912.2173702670,-6487.0250456992,-9198.5841149950,-22457.7111752581,-12030.9197429553,-4881.0472451295,-6731.3158948134,-2520.4532229947,-24322.4228810707,5751.1349095445,8672.5989167328,11758.3755018182
560669807109,28224,-2,0,2973.6025880747,5754.1281629629,11257.0177219257,-1254.8910764405,-8910.9154267070,-6471.1948721325,-9195.1771598846,-22459.9865345639,-12032.2946926963,-4880.0859970805,-6726.0229466954,-2523.8480104083,-24325.1606128559,5745.2457442822,8668.5349059940,11753.5692615732
560669807109,28224,-2,0,2974.5273330332,5754.6148708358,11260.3760062489,-1251.9221584157,-8912.1930348734,-6467.6419046602,-9197.9270593665,-22462.2010553857,-12035.7989893813,-4882.4221948705,-6730.2938082803,-2526.0868666237,-24326.1948670859,5742.6783602525,8666.1622051135,11749.1037168391
560669807109,28224,-2,0,2973.0307063240,5751.6094497206,11256.7865356861,-1257.0569264750,-8912.1200286925,-6476.8528511552,-9201.2123375087,-22462.5052478063,-12034.5335489117,-4883.5659583719,-6737.5092524963,-2525.1134508779,-24323.8708369927,5746.9248864437,8669.3988124684,11755.0537205856
560669807109,28224,-2,0,2972.6656754193,5750.6847047620,11249.0357128099,-1261.8388313264,-8906.6689005158,-6484.7375186965,-9198.9978166870,-22459.5728328720,-12027.0990861529,-4880.2563448360,-6737.3024016503,-2519.9908505154,-24316.4972127180,5756.0384913641,8674.1320465325,11763.5711083616
560669807109,28224,-2,0,2974.6611776983,5753.6292873932,11248.3421540910,-1257.3124481082,-8901.9600018453,-6478.4468194390,-9192.0865648915,-22455.3993128617,-12023.5339509838,-4879.0639105474,-6728.4443183632,-2516.2553675908,-24314.1366795343,5758.9830739953,8675.5069962735,11763.4494313934
560669807109,28224,-2,0,2975.5494195664,5757.6081242543,11260.1204846156,-1248.7342218481,-8901.6679771216,-6462.2151118772,-9187.6210201575,-22454.9491080793,-12026.1378381039,-4876.0828248258,-6719.4280550174,-2518.6402361681,-24317.0812621655,5752.2056668649,8670.7007560285,11755.8446208791
560669807109,28224,-2,0,2973.8946127984,5755.8438082150,11262.8947194912,-1246.9090673246,-8904.1866903639,-6457.9320825955,-9190.3709196395,-22456.4700701821,-12029.0580853414,-4876.3505141559,-6721.2775449345,-2521.6821603738,-24321.8388316232,5748.7743763608,8669.0581169574,11752.7175227956
560669877455,28225,5,0,2972.1789675464,5753.6292873932,11258.4048393635,-1252.3236924108,-8904.4665473908,-6467.0091844254,-9193.4493469357,-22456.9446103582,-12029.6177993953,-4878.7597181268,-6731.2793917229,-2520.8547569898,-24320.8045773933,5748.0078114610,8670.7980976031,11756.2339871774
560669877455,28225,5,0,2971.2055518006,5750.7942140334,11249.8996192843,-1257.8113236780,-8902.3128650532,-6477.6802545392,-9194.8729674640,-22455.6183314045,-12023.8381434044,-4876.4235203368,-6732.5326644957,-2517.7884973905,-24316.9352498036,5754.5053615644,8674.5335805277,11762.6828664936
560669877455,28225,5,0,2973.2618925636,5753.1304118234,11249.4007437146,-1256.8257402353,-8898.8329037618,-6474.9668581476,-9190.7359505442,-22453.8053445779,-12020.7353807145,-4874.2576703023,-6725.5605742161,-2515.5374734782,-24315.5724677594,5757.4499441956,8677.8918648508,11763.3885929093
560669877455,28225,5,0,2975.5859226568,5758.3746891541,11258.8672118428,-1247.4931167721,-8899.5142947839,-6460.8036590457,-9187.3654985242,-22454.3285555413,-12023.5217832870,-4873.7222916421,-6719.0508564159,-2518.6645715617,-24317.7991562780,5753.7996351487,8674.9837853101,11756.7328627471
560669877455,28225,5,0,2974.6490100015,5756.9510686258,11265.9366436969,-1244.2200063268,-8903.1767715276,-6454.7198106343,-9189.4826777714,-22457.7476783485,-12030.2748550237,-4875.3527630164,-6721.6060727487,-2524.8457615478,-24321.0600990266,5748.2876684879,8668.5105706003,11750.4178280960
560669877455,28225,5,0,2974.7828546665,5755.0772433151,11265.0484018289,-1247.0064088992,-8903.5296347355,-6461.8744163662,-9192.7801236104,-22458.4777401579,-12030.7858982903,-4876.1071602194,-6731.2550563293,-2525.2837986334,-24318.9307520826,5748.6648670894,8667.1234531625,11751.5372562037
560669877455,28225,5,0,2975.5007487791,5755.3571003420,11255.5210952165,-1252.0194999903,-8900.5728844075,-6474.2854671256,-9192.6462789454,-22455.9711946124,-12025.1035838739,-4875.9976509480,-6734.9540361634,-2519.4433041584,-24312.0560033776,5754.5540323517,8672.0635380726,11759.5192653196
560669877455,28225,5,0,2977.8004434786,5758.8979001175,11252.3818294362,-1252.0073322934,-8899.8671579918,-6476.3783109791,-9191.3321676885,-22454.7909280206,-12023.6799633457,-4875.6447877402,-6731.2428886325,-2518.3847145348,-24309.7076378908,5755.4909450071,8672.3312274027,11761.8676308064
560669889836,28226,5,0,2977.8126111754,5762.0128305042,11260.4368447330,-1248.1015016133,-8902.9942560753,-6467.9947678681,-9192.0500618011,-22458.6115848230,-12028.7052221335,-4876.5695326987,-6725.3415556733,-2523.7628365305,-24317.5558023416,5752.3516792268,8671.3943147474,11760.2371594321
560669889836,28226,5,0,2973.5052465001,5759.0195770857,11262.6513655548,-1248.4300294275,-8909.1024398804,-6464.4904711831,-9196.6859542906,-22462.0915461143,-12034.8985798164,-4881.6069591834,-6727.9576104903,-2528.7759276216,-24322.6297319167,5743.7369498761,8665.7363357247,11753.1798952748
560669889836,28226,5,0,2967.6039135410,5753.9456475106,11257.4314236177,-1254.2705239025,-8910.1488618071,-6472.0344432133,-9201.8207223499,-22463.4056573712,-12035.8841632591,-4883.9674923670,-6735.9274519093,-2528.4960705946,-24322.1916948311,5747.7887929182,8668.5227382972,11756.0271363314
560669889836,28226,5,0,2966.0829514381,5750.2953384637,11248.8045265702,-1259.5999751110,-8907.3624592347,-6483.4112397428,-9203.4390260273,-22461.8481921779,-12029.8976564222,-4882.0814993595,-6738.8233637531,-2523.4221410195,-24315.1465983706,5755.7099635499,8673.4141524200,11763.5589406648
560669889836,28226,5,0,2968.2853045631,5752.9357286743,11244.4971618949,-1256.9474172036,-8903.2619454054,-6484.0682953712,-9197.1118236794,-22457.2244673851,-12024.3491866709,-4880.5727049534,-6732.7395153417,-2519.4068010679,-24310.0605010986,5760.6987192473,8676.2613934766,11766.3088401468
560669889836,28226,5,0,2975.0505439966,5758.8613970270,11255.1438966150,-1248.8802342099,-8900.8527414344,-6470.7081642596,-9192.6341112486,-22455.6791698886,-12024.9575715121,-4878.9544012760,-6723.9057674482,-2520.3680491169,-24312.4697050696,5756.7442177799,8674.0833757452,11760.5413518527
560669889836,28226,5,0,2976.3159844662,5760.8203962155,11265.5107743081,-1244.4511925664,-8903.2497777085,-6460.7063174712,-9191.2713292044,-22456.3362255171,-12027.8778187496,-4877.6037869286,-6721.3992219027,-2523.2274578703,-24316.6553927767,5748.2633330943,8669.1432908351,11755.8811239695
560669889836,28226,5,0,2974.1988052190,5757.1457517750,11263.7464582688,-1247.7851414959,-8906.1943603397,-6466.5346442493,-9195.8098801194,-22458.8306033658,-12030.6520536252,-4881.3392698533,-6731.2307209356,-2524.7849230636,-24319.9650063125,5748.4336808498,8667.4519809767,11756.4773411139
560669902235,28227,5,0,2973.4809111065,5756.6103731148,11254.1583131723,-1252.9929157361,-8904.5760566622,-6479.2133843389,-9196.7224573811,-22456.5795794535,-12026.6732167641,-4881.2540959755,-6737.0225446233,-2519.0296024664,-24317.1664360432,5755.5761188848,8673.0734569089,11760.4683456718
560669902235,28227,5,0,2976.1821398011,5757.9488197653,11250.0577993430,-1254.4530393549,-8901.0717599772,-6481.5130790384,-9194.2645826228,-22454.4867356000,-12021.2220885874,-4876.5817003955,-6731.1090439674,-2517.0097647938,-24311.0825876318,5762.2561844406,8678.1473864841,11764.0456485377
560669902235,28227,5,0,2981.1343924081,5763.8866558149,11257.6991129478,-1246.9090673246,-8900.9744184026,-6469.8807608757,-9191.4781800504,-22453.9391892429,-12022.3050136047,-4875.8029677988,-6724.9035185877,-2518.7497454395,-24310.2916873383,5762.3291906216,8677.6850140048,11759.3610852609
560669902235,28227,5,0,2982.9230438411,5766.0281704558,11265.8027990319,-1241.3727652702,-8903.6513117037,-6458.4187904684,-9191.6606955027,-22456.3727286075,-12026.7462229450,-4876.8250543320,-6722.2631283771,-2522.3027129118,-24312.5548789473,5758.3503537605,8675.4339900926,11756.0636394219
560669902235,28227,5,0,2980.4530013860,5763.9353266022,11268.7838847535,-1241.7742992653,-8904.9775906574,-6461.2416961314,-9195.8342155130,-22457.7841814390,-12028.1941788670,-4876.6547065765,-6728.2739706077,-2523.3734702322,-24314.2218534121,5757.1944225623,8674.9472822197,11757.4507568597
560669902235,28227,5,0,2979.4552502465,5761.5139549344,11260.3395031584,-1247.8824830705,-8903.4931316450,-6474.1759578542,-9197.8053823983,-22455.5331575268,-12024.2883481868,-4876.6182034860,-6734.3821544128,-2518.2873729602,-24311.4719539301,5761.3436071789,8678.5245850856,11764.2890024742
560669902235,28227,5,0,2981.0127154399,5761.5261226313,11252.1993139838,-1250.9122395794,-8900.7310644662,-6477.9236084756,-9194.8242966767,-22450.7512526753,-12018.9954000688,-4874.1846641214,-6730.2086344025,-2513.5176358056,-24307.2740985262,5765.9551642748,8683.2943222402,11769.6792921667
560669902235,28227,5,0,2983.6896087409,5765.6023010670,11258.2466593048,-1245.2785959504,-8898.0785065588,-6468.3719664696,-9189.5556839524,-22450.0576939564,-12017.2919225136,-4869.8407963556,-6720.2067876140,-2514.2111945245,-24308.0284957292,5763.8866558149,8680.5322550614,11765.9559769389
560669927230,28228,5,0,2983.3610809267,5767.4396232872,11267.4454381030,-1240.2655048593,-8898.0663388620,-6454.0749227027,-9188.4119204510,-22453.3429720986,-12020.7962191986,-4868.5388527956,-6716.8120002004,-2519.0782732537,-24311.2164322968,5759.6766327142,8675.0081207038,11758.3755018182
560669927230,28228,5,0,2982.6310191173,5766.7460645683,11267.1777487729,-1242.3705164097,-8898.3826989794,-6455.7175617738,-9192.5489373708,-22456.2145485488,-12022.4145228761,-4869.3662561795,-6723.1635379420,-2521.3658002564,-24312.9320775488,5758.6910492715,8673.9008602929,11756.8180366249
560669927230,28228,5,0,2982.7405283887,5763.6311341816,11264.6833709242,-1246.9820735056,-8897.2876062653,-6467.3377122397,-9194.0698994737,-22454.2068785731,-12018.1314935944,-4867.5289339592,-6728.9796970234,-2517.1679448525,-24308.9654083846,5763.6189664848,8678.2447280587,11764.9825611931
560669927230,28228,5,0,2985.2957447215,5764.6167176243,11258.5386840286,-1248.8072280290,-8893.8198126708,-6473.6284114971,-9190.7237828474,-22449.7535015359,-12010.0886459944,-4864.3288296948,-6725.1347048273,-2511.0110902601,-24302.2975105256,5769.8731626518,8684.9369613113,11773.1349180645
560669927230,28228,5,0,2991.7446240377,5770.3963736152,11264.2575015354,-1242.6138703461,-8889.5976218732,-6463.3467076817,-9185.5160086071,-22447.6849930760,-12007.7037774171,-4862.8443706824,-6715.0111810706,-2508.3828677463,-24301.3119270829,5770.3963736152,8682.1870618293,11767.4282682545
560669927230,28228,5,0,2992.4625181502,5774.0710180557,11276.0236643632,-1236.7612081743,-8892.4205275361,-6451.9942465459,-9186.3190765975,-22451.3474698197,-12013.0697317161,-4861.5910979097,-6711.3122012365,-2513.3716234437,-24306.7265521691,5764.8114007735,8681.0311306311,11764.7757103471
560669927230,28228,5,0,2989.9194695142,5769.8731626518,11276.9484093217,-1239.2190829325,-8896.9712461479,-6454.0627550058,-9190.5169320014,-22455.8738530378,-12019.3725986703,-4866.2999965801,-6719.6470735602,-2519.6258196107,-24311.0339168445,5757.8636458876,8674.3023942881,11757.1587321359
560669927230,28228,5,0,2987.8631287512,5766.5392137223,11268.3580153647,-1244.5485341410,-8897.5309602018,-6466.3642964938,-9193.6805331753,-22454.9491080793,-12018.7277107387,-4870.4005104095,-6728.6390015123,-2517.9223420555,-24309.9753272209,5760.7230546410,8678.4150758142,11762.3300032857
560669951056,28229,5,0,2987.5467686338,5767.5613002554,11260.5585217012,-1248.1015016133,-8894.9149053848,-6474.8816842699,-9189.3123300159,-22448.0135208902,-12013.5929426794,-4868.8430452161,-6726.2176298446,-2511.5221335266,-24304.8040560711,5762.0006628074,8680.0333794917,11769.7888014381
560669951056,28229,5,0,2990.7590405950,5774.1805273271,11264.8172155892,-1241.6282869035,-8893.2357632233,-6467.1673644841,-9184.7372760105,-22446.9792666602,-12010.5266830801,-4865.4239224089,-6716.3617954180,-2510.2080222698,-24306.6292105946,5761.1489240298,8682.6494343086,11769.1195781129
560669951056,28229,5,0,2992.5111889375,5778.1836995819,11273.4927834240,-1232.8188744037,-8893.6981357025,-6455.9365803166,-9181.3546562937,-22446.5412295746,-12013.5442718921,-4867.5776047465,-6711.0080088159,-2512.7875739962,-24309.9874949177,5757.3160995305,8678.7679390221,11762.0258108651
560669951056,28229,5,0,2991.2214130743,5778.2080349755,11277.4716202851,-1231.3344153913,-8896.6183829400,-6452.9676622918,-9184.7981144946,-22451.4813144847,-12018.6060337705,-4867.8574617735,-6715.2788704008,-2516.4865538304,-24314.5138781358,5755.9776528800,8676.3465673543,11758.0469740040
560669951056,28229,5,0,2991.7202886440,5776.6749051758,11275.5004533998,-1235.0942337096,-8896.4602028813,-6463.6752354960,-9187.6940263385,-22449.7169984454,-12017.2189163327,-4868.8552129129,-6723.4555626658,-2516.4987215272,-24312.0803387712,5760.6987192473,8677.4051569779,11762.4881833444
560669951056,28229,5,0,2993.8131324976,5775.9448433665,11266.4233515699,-1238.9878966929,-8892.1041674187,-6472.0101078197,-9186.3190765975,-22446.7115773301,-12011.0255586498,-4868.0156418322,-6725.0373632528,-2511.9723383091,-24305.6922979392,5766.8555738397,8681.8828694088,11768.3895163035
560669951056,28229,5,0,2996.5508642827,5778.6947428484,11267.6036181617,-1237.5156053773,-8890.3885221667,-6467.2768737555,-9183.2771523917,-22447.2104528999,-12009.2855780041,-4865.9106302818,-6718.2234530319,-2511.3274503775,-24305.5462855773,5766.6973937810,8681.7246893501,11768.1704977607
560669951056,28229,5,0,2995.4314361750,5779.2301215086,11277.3986141042,-1233.3542530639,-8895.1460916245,-6457.4210393290,-9183.8855372329,-22450.1793709247,-12016.0994882250,-4867.6871140179,-6714.8286656183,-2517.7154912095,-24312.8834067616,5760.4066945236,8676.1275488115,11761.6364445668
560669982491,28230,5,0,2991.1970776807,5775.0079307111,11276.4982045393,-1234.5466873525,-8902.4832128087,-6456.2772758276,-9189.3731685000,-22455.5088221331,-12023.9111495853,-4873.8439686104,-6720.7421662743,-2523.1179485989,-24318.7117335397,5753.9943182979,8672.2947243123,11756.2948256615
560669982491,28230,5,0,2987.3764208783,5771.0777646373,11271.0105732721,-1241.1050759401,-8905.1236030193,-6468.9438482203,-9194.7999612830,-22457.2974735661,-12027.2937693021,-4876.6182034860,-6731.3402302070,-2523.1544516894,-24320.3665403077,5753.1669149139,8671.4916563220,11757.8279554612
560669982491,28230,5,0,2985.2957447215,5767.2327724412,11259.9866399505,-1248.0284954323,-8905.2087768970,-6481.1115450432,-9194.0698994737,-22452.9657734971,-12021.9278150032,-4874.7565458721,-6733.4574094542,-2520.3193783296,-24315.4507907912,5756.9754040195,8673.6575063564,11765.2259151295
560669982491,28230,5,0,2987.8266256607,5768.8875792091,11258.3318331826,-1246.3615209676,-8901.8018217866,-6477.5342421773,-9190.2370749744,-22450.7999234626,-12019.1900832180,-4873.8804717008,-6727.1302071063,-2515.9268397765,-24311.8613202284,5758.7762231493,8674.2293881071,11768.3043424258
560669982491,28230,5,0,2987.1330669418,5770.4207090088,11264.9632279511,-1242.0054855050,-8902.4588774150,-6464.5999804545,-9188.3024111796,-22453.5133198541,-12022.4266905729,-4874.5983658134,-6720.7299985774,-2519.8083350631,-24314.5017104390,5755.9533174864,8672.4042335837,11764.2038285964
560669982491,28230,5,0,2983.7504472250,5766.6487229937,11267.6887920394,-1243.9888200871,-8905.7198201636,-6458.4674612557,-9190.6021058791,-22457.4313182311,-12025.9066518643,-4873.7101239453,-6722.5186500104,-2523.9088488924,-24317.0934298623,5752.0353191094,8670.5547436666,11761.3322521462
560669982491,28230,5,0,2981.9131250047,5762.9375754627,11263.9168060243,-1248.0649985228,-8901.8018217866,-6464.8068313005,-9191.7702047741,-22455.4844867395,-12021.1612501033,-4872.7367081995,-6728.5903307251,-2520.1125274836,-24313.7473132360,5755.1380817992,8674.4240712563,11765.8586353643
560669982491,28230,5,0,2977.7274372977,5760.6013776727,11254.5111763802,-1251.1920966063,-8891.7756396045,-6469.0046867044,-9185.4551701230,-22446.8697573888,-12009.5897704247,-4863.8177864283,-6724.6845000449,-2507.6406382401,-24304.6823791029,5765.3589471305,8684.9734644018,11778.9024063585
560670014758,28231,5,0,2975.8536119869,5760.6865515505,11254.2921578374,-1251.3624443618,-8883.5502765522,-6462.7383228406,-9176.9499500438,-22439.8854994124,-12001.1697242232,-4854.8988646570,-6712.2369461950,-2502.6762179364,-24299.6936234055,5771.4427955420,8690.8991327546,11782.7108954641
560670014758,28231,5,0,2980.4651690828,5763.4486187293,11264.7928801956,-1243.1735844000,-8884.3290091489,-6448.9036515529,-9175.1369632172,-22442.5137219262,-12004.0047975830,-4856.2373113076,-6706.8831595929,-2507.2269365481,-24304.6702114061,5766.0525058494,8686.7377804411,11771.9668191695
560670014758,28231,5,0,2986.5246821006,5764.0691712673,11271.6554612037,-1241.0807405464,-8890.9847393110,-6446.9324846676,-9182.8147799125,-22452.5155687147,-12014.1039859460,-4864.3775004821,-6713.8309144788,-2518.5185591998,-24312.8104005806,5757.0119071100,8677.4659954620,11760.6143580337
560670014758,28231,5,0,2989.2502461890,5763.5702956975,11271.2417595117,-1246.9577381119,-8898.7720652777,-6461.7284040043,-9195.2623337623,-22461.2884781240,-12021.4532748271,-4872.2743357202,-6729.4177341090,-2527.4009778806,-24317.6531439161,5752.5098592855,8670.6764206348,11757.5967692216
560670014758,28231,5,0,2988.9217183748,5762.6090476485,11261.1790742392,-1252.3601955013,-8897.2754385685,-6476.0984539522,-9197.9757301538,-22459.7796837180,-12018.1801643817,-4873.6614531580,-6735.6110917919,-2521.7916696452,-24312.8225682774,5757.3039318337,8674.1198788357,11763.9604746600
560670014758,28231,5,0,2993.1682445660,5766.7460645683,11260.1204846156,-1248.8072280290,-8889.9991558684,-6473.7257530717,-9189.5678516492,-22450.3983894675,-12009.4437580628,-4869.0012252748,-6724.2951337466,-2513.1161018104,-24302.8328891858,5763.8866558149,8679.6075101029,11769.0222365383
560670014758,28231,5,0,2997.3295968794,5770.7979076103,11271.8379766561,-1240.5453618862,-8887.0545732372,-6458.6499767081,-9181.9995442253,-22445.6043169192,-12008.9692178867,-4863.0512215284,-6712.4803001315,-2512.1305183678,-24303.9401495967,5766.5027106318,8681.6516831691,11771.1880865728
560670014758,28231,5,0,2995.2245853290,5769.5081317471,11276.9362416249,-1239.6936231086,-8893.4182786756,-6452.3227743602,-9185.8810395118,-22452.9414381035,-12016.7200407629,-4869.4027592700,-6716.4469692958,-2518.8835901045,-24310.9609106635,5759.8226450761,8675.0202884006,11761.0645628161
560670048436,28232,5,0,2987.8022902671,5761.3071040885,11269.8911451644,-1248.4543648211,-8900.7675675567,-6464.7094897259,-9197.0631528921,-22460.2420561972,-12025.2617639326,-4878.2608425571,-6731.4132363880,-2525.9773573523,-24316.6310573830,5752.4976915886,8670.0193650064,11756.4165026297
560670048436,28232,5,0,2980.3191567209,5752.4368531045,11255.7279460625,-1258.9794225730,-8903.2254423149,-6480.4179863243,-9200.7743004231,-22461.1546334590,-12022.6822122062,-4878.9422335792,-6737.5700909804,-2524.3225505844,-24314.1001764439,5756.7563854767,8673.7183448406,11764.4958533202
560670048436,28232,5,0,2980.1244735718,5752.4976915886,11250.8000288492,-1259.4052919618,-8898.9910838205,-6481.6834267939,-9194.3132534101,-22455.1559589252,-12016.4645191297,-4875.7299616179,-6729.6245849550,-2517.5086403635,-24307.7973094896,5766.7338968715,8680.2158949440,11772.8672287344
560670048436,28232,5,0,2983.4097517140,5760.1390051935,11257.5287651923,-1251.2651027872,-8894.8297315071,-6466.9970167286,-9188.4727589351,-22451.3109667292,-12016.0873205281,-4873.2477514660,-6719.7322474379,-2516.2797029844,-24307.9433218514,5765.5657979765,8680.4470811836,11767.8541376433
560670048436,28232,5,0,2983.2029008680,5761.1124209393,11266.5206931444,-1247.1402535643,-8897.6769725636,-6456.9708345465,-9189.7016963142,-22454.4502325095,-12020.0661573892,-4871.8971371187,-6717.5542297066,-2521.3414648627,-24312.4332019791,5759.9199866506,8675.7625179068,11760.7847057892
560670048436,28232,5,0,2981.7062741588,5759.3846079904,11267.7252951299,-1248.2961847624,-8898.9667484269,-6460.6089758966,-9193.5953592976,-22457.3583120502,-12022.5970383284,-4874.2333349087,-6726.1446236636,-2523.1666193862,-24313.7594809328,5757.2430933496,8672.8301029725,11754.7251927713
560670048436,28232,5,0,2980.5746783542,5755.4909450071,11257.2854112558,-1253.9298283915,-8896.7278922114,-6473.3850575607,-9196.1140725399,-22455.6061637077,-12019.5064433354,-4875.6326200433,-6733.3965709701,-2519.9665151218,-24307.3106016166,5758.5207015160,8671.0292838427,11756.5138442043
560670048436,28232,5,0,2982.1443112444,5756.1966714228,11253.2092328201,-1255.9009952768,-8894.2335143627,-6477.9722792629,-9192.7679559136,-22451.9558546608,-12012.9602224446,-4873.0895714073,-6730.6953422754,-2516.9854294001,-24305.6679625456,5763.2661032769,8676.1518842051,11765.1042381613
560670076243,28233,5,0,2984.6873598804,5761.1610917266,11258.9888888110,-1250.8270657016,-8894.3673590278,-6469.7712516043,-9190.5534350918,-22453.6714999128,-12015.0408986014,-4872.8705528645,-6722.3483022549,-2518.3603791411,-24309.9874949177,5759.7374711983,8674.8621083419,11761.7824569287
560670076243,28233,5,0,2982.3146589999,5758.0826644304,11264.9145571638,-1247.9433215546,-8900.4998782266,-6461.2295284345,-9192.7922913073,-22458.1248769500,-12023.9233172821,-4877.7254638969,-6721.9954390470,-2524.0183581638,-24317.6774793098,5752.2908407427,8669.5204894366,11753.6666031478
560670076243,28233,5,0,2977.6179280263,5754.1768337502,11262.5296885865,-1252.7495617996,-8906.1578572492,-6464.9893467528,-9198.8031335378,-22462.2983969603,-12029.0215822509,-4880.5240341662,-6729.4664048963,-2528.2162135677,-24320.7315712124,5748.5431901212,8665.9066834802,11753.5205907859
560670076243,28233,5,0,2975.9874566520,5749.7842951971,11255.0587227372,-1260.4638815854,-8903.9920072147,-6476.6216649156,-9200.4822756994,-22459.0131188181,-12024.6412113947,-4877.6889608064,-6735.4894148237,-2522.2905452149,-24314.8545736469,5753.7509643614,8669.8976880382,11762.0988170461
560670076243,28233,5,0,2978.0194620214,5752.4611884982,11250.7270226683,-1261.5833096931,-8898.0420034683,-6479.7487629991,-9196.0410663590,-22451.6394945434,-12017.0242331835,-4874.3306764833,-6729.8922742851,-2514.3207037959,-24306.6778813819,5762.3535260152,8677.3078154033,11770.1781677365
560670076243,28233,5,0,2984.3953351566,5760.4188622204,11259.9258014664,-1252.4940401664,-8895.5111225291,-6470.4283072327,-9190.9062982997,-22451.1406189737,-12016.6835376725,-4871.8606340282,-6721.5330665677,-2514.5883931260,-24303.7454664475,5760.8203962155,8675.5921701513,11765.8342999707
560670076243,28233,5,0,2985.3809185993,5760.0173282252,11270.3291822500,-1248.5152033053,-8901.3637847010,-6461.7405717011,-9194.0820671705,-22456.7620949059,-12024.3491866709,-4874.8173843562,-6720.6934954870,-2522.2662098213,-24311.1799292063,5754.7243801072,8670.1897127619,11756.1609809965
560670076243,28233,5,0,2983.3245778362,5758.2408444891,11269.8546420739,-1250.9365749730,-8906.9852606332,-6466.0236009828,-9199.7522138900,-22461.9211983588,-12031.3091092536,-4880.0129908996,-6730.3424790676,-2526.7074191617,-24317.9816717304,5752.8627224933,8669.7760110699,11754.6765219841
560670111201,28234,5,0,2977.8612819627,5753.3615980631,11260.3030000679,-1257.2272742305,-8908.5548935233,-6480.2598062656,-9206.1524224189,-22464.0627129996,-12030.4208673856,-4882.1788409341,-6738.6286806040,-2525.3446371175,-24318.4927149969,5755.7951374277,8674.3510650754,11760.3710040972
560670111201,28234,5,0,2976.5106676154,5752.2300022585,11251.9802954410,-1261.6441481772,-8906.0483479778,-6489.4099142765,-9204.9964912207,-22460.3150623782,-12024.1545035218,-4879.0030720633,-6736.2559797235,-2519.8083350631,-24312.6278851283,5762.9375754627,8680.7999443915,11768.3043424258
560670111201,28234,5,0,2982.7526960855,5757.1092486845,11252.9172080964,-1256.8744110226,-8905.1722738066,-6483.1435504127,-9200.8351389072,-22458.7819325785,-12024.6655467883,-4880.3780218043,-6729.2717217471,-2520.6844092343,-24312.9564129425,5762.3291906216,8679.1694730172,11767.1362435307
560670111201,28234,5,0,2982.8257022665,5758.9709062984,11260.2056584933,-1251.7153075697,-8910.5382281055,-6473.4337283480,-9202.2222563450,-22463.6976820949,-12031.5281277965,-4884.5028710273,-6727.2032132872,-2528.0702012058,-24320.5125526695,5755.6126219753,8669.5448248303,11759.0203897498
560670111201,28234,5,0,2978.8468654054,5756.3061806942,11262.1403222882,-1252.5548786505,-8917.1696228740,-6476.2322986172,-9208.6833033580,-22469.1244748780,-12038.1230194745,-4888.2505216487,-6734.9175330730,-2533.8133541063,-24324.7104080735,5750.3926800383,8661.1491140225,11753.6787708446
560670111201,28234,5,0,2973.2497248668,5749.2367488401,11252.0898047124,-1262.0943529597,-8917.0357782089,-6487.2562319388,-9213.6355559650,-22469.0879717875,-12037.8796655380,-4891.5966382750,-6744.3718335044,-2532.1342119447,-24318.2736964541,5752.0474868062,8657.0486001931,11755.0172174951
560670111201,28234,5,0,2972.8481908717,5745.9636383947,11241.1997160559,-1268.3363814298,-8914.8090896903,-6497.2459110305,-9213.5625497840,-22467.1898110831,-12031.6498047647,-4889.6011359961,-6746.1361495437,-2527.8025118757,-24313.5404623900,5759.2629310222,8658.2897052691,11763.4007606061
560670111201,28234,5,0,2974.6611776983,5749.2854196274,11245.2515590979,-1266.5964007841,-8913.9330155191,-6493.4739250153,-9209.8270668594,-22467.1289725990,-12031.7714817329,-4889.1630989104,-6739.9792949513,-2528.4717352010,-24314.0271702629,5757.9853228558,8653.5929742954,11763.1452389728
560670148670,28235,5,0,2974.2596437031,5751.3782634809,11253.2214005170,-1262.0335144755,-8916.0258593726,-6482.1701346668,-9209.7783960721,-22468.9541271225,-12037.1496037287,-4892.9959234097,-6735.5380856110,-2532.1950504288,-24320.2205279458,5751.1227418477,8648.3973677520,11758.0713093977
560670148670,28235,5,0,2974.1501344317,5750.9402263953,11255.8982938180,-1260.5855585536,-8920.3210563511,-6479.7609306959,-9212.8203202778,-22471.8378712695,-12042.4790549371,-4895.9526737376,-6741.2325677241,-2536.1982226836,-24324.6860726798,5748.2998361847,8646.3775300794,11753.9829632651
560670148670,28235,5,0,2970.7188439276,5744.6738625315,11250.8730350301,-1266.7789162365,-8922.2800555396,-6491.2959072840,-9217.7117344006,-22473.0668086486,-12043.3916321988,-4897.3397911755,-6749.3849245955,-2537.1351353389,-24323.1651105769,5746.2191600280,8648.0323368473,11755.5160930648
560670148670,28235,5,0,2967.5430750569,5739.9162930737,11238.9851952341,-1273.3616402177,-8920.1750439892,-6503.5974487720,-9219.0136779607,-22470.5237600126,-12038.4758826824,-4897.3276234786,-6752.3903457107,-2533.7160125317,-24318.6022242683,5749.8694690749,8652.5708877623,11760.1033147671
560670148670,28235,5,0,2968.5651615900,5745.0753965266,11237.3668915567,-1270.5387345548,-8917.4616475977,-6500.3851768108,-9214.8279902536,-22470.1343937143,-12035.2514430243,-4895.5511397425,-6747.0487268055,-2533.1076276905,-24316.3998711434,5752.8505547965,8654.9192532491,11761.4295937208
560670148670,28235,5,0,2969.2222172184,5748.9447241163,11247.0645459246,-1263.7491597276,-8919.0069450942,-6488.3513246529,-9213.3922020285,-22471.8013681790,-12039.3641245504,-4894.3465377570,-6740.5268413084,-2536.8917814025,-24321.7658254423,5749.1759103560,8651.2081057181,11758.1929863659
560670148670,28235,5,0,2969.1978818248,5751.4512696619,11252.2601524680,-1262.6418993167,-8920.7225903463,-6481.9511161240,-9215.7770706058,-22475.4273418323,-12043.9270108590,-4895.5754751361,-6745.5277647026,-2541.1869783810,-24325.9271777558,5743.4449251524,8645.6474682700,11749.9554556168
560670148670,28235,5,0,2968.2731368662,5748.5310224244,11247.2835644674,-1265.0876063781,-8921.7081737889,-6491.7826151570,-9219.1961934130,-22475.6706957687,-12044.2555386733,-4897.4127973564,-6753.0474013392,-2540.4934196621,-24326.8519227143,5743.0190557636,8647.5334612776,11752.4011626782
560670172413,28236,5,0,2968.6868385582,5745.2579119790,11240.8955236353,-1269.5288157185,-8917.7901754120,-6500.9448908646,-9217.6752313102,-22473.0181378613,-12038.1230194745,-4894.1275192142,-6754.4831895643,-2534.8841114267,-24322.3377071930,5747.6914513436,8649.4194542851,11758.8865450848
560670172413,28236,5,0,2975.5494195664,5751.8528036570,11246.0059563010,-1264.7955816544,-8911.8280039687,-6495.1895702674,-9210.7761472116,-22466.7396063007,-12032.0878418503,-4889.5159621183,-6744.5543489568,-2528.4230644137,-24317.1177652559,5749.8816367717,8652.0841798894,11758.9960543562
560670172413,28236,5,0,2980.2583182368,5755.9046466991,11255.3629151578,-1255.9983368514,-8911.0006005847,-6479.7244276054,-9204.9234850397,-22464.8901163836,-12033.5357977722,-4888.7128941280,-6735.5502533078,-2529.3478093722,-24318.6022242683,5746.1461538471,8650.5753854833,11753.6909385414
560670172413,28236,5,0,2981.1830631954,5755.6004542785,11265.7054574573,-1252.2385185331,-8913.3246306779,-6472.9835235655,-9206.6878010791,-22467.1898110831,-12036.0666787114,-4887.6421368076,-6735.1243839190,-2534.4947451283,-24323.0556013055,5742.8365403112,8647.6429705490,11748.4223258171
560670172413,28236,5,0,2979.8202811512,5755.1989202833,11263.9533091148,-1255.1709334674,-8912.5337303844,-6478.1182916248,-9209.0483342627,-22465.9365383104,-12035.6164739290,-4888.8102357026,-6743.0698899444,-2532.3410627907,-24321.5833099900,5744.6738625315,8651.2932795959,11752.4863365559
560670172413,28236,5,0,2978.0803005055,5751.2565865127,11252.2601524680,-1260.8897509742,-8910.4652219245,-6489.2760696114,-9208.6224648739,-22462.4200739285,-12029.4839547302,-4886.9607457855,-6744.7368644091,-2527.1332885505,-24315.6333062435,5750.1736614955,8657.1824448582,11760.4805133686
560670172413,28236,5,0,2978.7251884371,5753.2764241853,11248.9018681448,-1261.2182787884,-8905.6468139827,-6488.3756600465,-9203.1226659099,-22460.4854101337,-12024.3248512773,-4882.9454058339,-6737.1563892884,-2523.7628365305,-24312.6400528251,5752.4368531045,8659.4699718609,11763.2547482442
560670172413,28236,5,0,2979.8324488480,5757.2430933496,11257.2732435590,-1254.8789087437,-8905.7319878604,-6475.0885351159,-9201.1514990246,-22461.8603598747,-12025.9918257420,-4880.1711709583,-6729.7462619232,-2525.6853326285,-24316.3146972656,5749.1880780528,8655.9778428727,11758.6918619356
560670247428,28237,5,0,2980.7815292002,5754.5540323517,11262.1768253787,-1253.6378036677,-8909.5648123596,-6468.2867925919,-9201.9545670149,-22464.7927748090,-12031.8323202170,-4884.1621755162,-6731.2550563293,-2531.1242931084,-24324.2602032910,5743.9438007221,8647.7281444268,11752.0482994703
560670247428,28237,5,0,2976.7418538550,5750.0641522241,11261.0817326646,-1257.4462927733,-8912.7162458368,-6477.6924222360,-9208.7806449326,-22468.0902206480,-12034.2171887943,-4886.1576777952,-6740.9527106972,-2534.0445403459,-24328.3363817267,5740.5855163990,8645.0512511257,11751.8171132307
560670247428,28237,5,0,2975.2208917521,5746.4625139645,11250.7513580619,-1264.6982400798,-8910.7207435578,-6490.8822055921,-9208.8171480231,-22466.5327554547,-12031.7471463393,-4886.3036901570,-6745.6372739740,-2529.2869708881,-24323.1894459706,5746.1218184534,8648.7867340504,11758.8743773880
560670247428,28237,5,0,2978.6765176498,5749.3949288988,11246.1763040565,-1263.5788119721,-8907.9951794695,-6493.3644157439,-9205.6048760618,-22461.3614843049,-12028.1698434733,-4886.8634042109,-6741.7557786875,-2525.6731649317,-24317.2272745273,5749.6626182289,8651.7191489847,11763.8509653886
560670247428,28237,5,0,2979.5890949116,5754.0794921756,11250.8486996365,-1257.7139821034,-8910.3192095627,-6485.2363942662,-9204.9843235239,-22464.1357191806,-12032.8179036597,-4889.9174961135,-6737.0712154106,-2530.3090574213,-24322.0578501661,5744.1141484776,8644.7592264020,11756.8058689281
560670247428,28237,5,0,2978.6400145594,5753.2277533980,11257.7477837351,-1256.7283986607,-8917.1452874803,-6480.3449801434,-9209.3525266833,-22468.9662948193,-12040.7877450787,-4895.2834504124,-6737.7282710391,-2536.9891229771,-24326.4868918096,5737.5192567996,8636.4000186846,11748.9942075677
560670247428,28237,5,0,2979.4552502465,5754.4688584740,11258.9645534174,-1256.5458832084,-8917.2912998422,-6483.2773950777,-9212.7959848842,-22471.8135358758,-12043.0752720814,-4897.9481760166,-6746.7323666881,-2538.8872836814,-24327.8861769442,5737.7139399488,8634.0394855009,11747.4732454649
560670247428,28237,5,0,2978.4574991070,5751.4025988746,11248.4029925751,-1262.5932285294,-8915.0646113236,-6495.5424334752,-9213.3313635444,-22470.3290768635,-12037.6728146920,-4895.4903012584,-6752.7675443122,-2534.2513911919,-24324.3575448656,5743.0190557636,8634.8303857944,11753.9342924779
560670256151,28238,5,0,2978.0924682023,5751.3660957841,11245.7991054550,-1263.6639858498,-8910.2705387754,-6497.4405941796,-9209.5350421356,-22466.5814262420,-12030.6885567157,-4891.0612596148,-6746.1118141501,-2528.6542506533,-24319.4296276523,5746.8762156564,8636.3391802005,11759.9694701020
560670256151,28238,5,0,2981.0005477430,5756.6103731148,11252.3818294362,-1256.6310570862,-8907.7274901394,-6484.4576616695,-9204.2785971081,-22464.4155762075,-12030.2261842364,-4889.7714837516,-6737.5214201931,-2528.2770520518,-24319.7581554665,5744.9902226489,8632.9687281805,11758.2781602436
560670256151,28238,5,0,2982.0104665793,5757.9974905526,11261.8969683517,-1251.1555935158,-8911.2682899149,-6473.8961008272,-9205.2641805508,-22468.8689532447,-12034.2901949753,-4889.5524652088,-6736.9008676551,-2534.4825774315,-24324.8929235258,5740.9870503941,8627.4324261261,11752.3524918909
560670256151,28238,5,0,2980.6233491415,5754.7365478041,11264.4278492909,-1254.0150022692,-8916.9262689375,-6479.5784152435,-9210.8978241798,-22473.5535165215,-12040.2888695090,-4894.8332456299,-6747.6936147371,-2540.6881028112,-24326.8640904111,5740.0866408292,8621.9691302526,11749.0307106582
560670256151,28238,5,0,2978.6765176498,5753.1182441266,11252.4670033139,-1261.3764588471,-8917.6684984437,-6494.6663593040,-9215.7770706058,-22473.0059701645,-12039.0112613426,-4897.5588097183,-6757.8536415842,-2538.9846252560,-24323.6031476626,5744.0533099935,8622.9303783016,11753.8126155096
560670256151,28238,5,0,2980.6476845352,5755.3205972516,11247.3565706483,-1261.3277880598,-8914.8090896903,-6501.3585925566,-9213.4408728158,-22469.9397105651,-12034.5092135181,-4896.3420400360,-6753.8261339358,-2533.8255218031,-24317.9208332463,5748.5553578180,8627.1769044928,11759.7869546497
560670256151,28238,5,0,2984.9793846041,5760.0294959220,11253.9271269327,-1255.6576413403,-8913.2516244970,-6490.1886468731,-9210.6423025465,-22469.3921642081,-12033.7548163151,-4894.3222023634,-6745.4790939153,-2535.6385086297,-24320.3908757013,5746.0001414852,8627.5176000038,11755.5769315490
560670256151,28238,5,0,2984.0546396456,5761.0394147583,11260.3760062489,-1252.8834064647,-8918.0335293484,-6481.2088866178,-9212.2849416176,-22474.8554600816,-12042.6980734799,-4898.5565608578,-6745.7711186390,-2542.8904559362,-24326.3773825382,5740.2326531911,8623.8064524729,11747.0230406824
560670267485,28239,5,0,2982.0591373666,5759.0317447826,11261.6414467184,-1252.7860648901,-8921.8906892413,-6483.8614445252,-9219.0501810512,-22481.5598610310,-12047.5773199059,-4902.1460314205,-6755.6269530656,-2549.3636706460,-24330.8064241818,5737.9694615821,8621.3485777146,11741.8396018359
560670267485,28239,5,0,2979.6255980020,5754.5053615644,11253.9271269327,-1260.6707324314,-8924.1173777599,-6498.8398793143,-9223.8564212962,-22485.0398223224,-12046.8472580965,-4902.9004286235,-6763.9983284798,-2548.3415841129,-24329.9790207978,5739.9771315578,8622.3949996414,11747.1933884379
560670267485,28239,5,0,2981.2073985890,5755.0042371342,11248.7801911766,-1265.6108173415,-8920.5644102876,-6506.2378389826,-9223.3818811201,-22481.6450349088,-12042.9414274164,-4902.1095283301,-6764.2051793258,-2544.6304365819,-24324.3940479561,5746.0244768788,8626.3860041993,11750.6976851230
560670267485,28239,5,0,2985.2714093279,5760.0051605284,11253.3674128788,-1260.2691984362,-8917.9726908643,-6499.8254627569,-9219.0988518385,-22480.2944205614,-12040.5930619295,-4900.6615724081,-6755.1889159800,-2546.0662248070,-24321.2547821757,5747.0465634120,8625.8262901455,11747.7774378854
560670267485,28239,5,0,2985.0645584819,5761.4652841472,11262.2498315596,-1255.5724674626,-8920.9537765859,-6488.5703431957,-9218.7459886306,-22483.5675310068,-12046.5187302823,-4900.8562555573,-6750.5773588841,-2550.3979248759,-24324.2358678974,5740.4030009466,8620.1683111228,11739.9292734347
560670267485,28239,5,0,2984.2371550979,5760.6987192473,11265.7176251541,-1253.6499713645,-8921.3188074906,-6485.8812821978,-9222.8586701568,-22486.2565920047,-12048.4047232899,-4904.4213907264,-6757.0384058971,-2551.7607069201,-24326.9492642889,5739.2714051421,8619.6816032499,11737.9946096398
560670267485,28239,5,0,2982.0348019730,5758.0704967336,11257.2489081654,-1259.4296273554,-8919.1164543657,-6495.9926382577,-9224.8906755262,-22485.2588408652,-12044.3893833383,-4904.6647446629,-6762.8910680689,-2548.6944473207,-24322.4107133739,5743.7491175729,8623.0642229667,11742.8495206722
560670267485,28239,5,0,2981.9252927016,5754.9068955596,11250.3984948540,-1264.6495692925,-8914.3832203015,-6503.7677965276,-9221.7392420490,-22480.6959545566,-12036.3100326479,-4900.4668892590,-6761.0294104550,-2543.2919899313,-24317.5679700384,5750.1736614955,8629.0507298035,11751.2087283895
560670295118,28240,5,0,2984.4075028535,5758.7640554525,11252.4548356171,-1260.2813661330,-8909.3336261200,-6496.3698368592,-9215.0105057060,-22476.9848070256,-12033.4992946818,-4897.9360083198,-6751.8671347473,-2539.7998609432,-24316.9230821068,5750.7577109430,8630.3405056668,11752.0604671671
560670295118,28240,5,0,2984.7603660613,5763.1079232182,11261.7509559899,-1252.8955741615,-8911.5724823354,-6483.0462088381,-9210.5206255783,-22476.5102668495,-12037.8553301444,-4897.3154557818,-6745.0167214360,-2542.3794126696,-24322.8000796723,5746.4138431772,8625.8749609328,11746.1469665112
560670295118,28240,5,0,2985.0037199978,5762.5847122549,11266.8857240491,-1253.4309528217,-8913.8235062477,-6480.3206447497,-9213.6720590554,-22478.6761168840,-12040.8120804724,-4897.1086049358,-6748.4236765464,-2546.5407649831,-24327.0952766508,5742.5931863748,8624.1106448934,11743.1050423054
560670295118,28240,5,0,2983.3854163203,5758.1191675208,11259.8162921950,-1260.0501798934,-8915.3323006537,-6492.2571553330,-9217.8820821562,-22478.5179368253,-12040.1550248439,-4898.3375423149,-6755.3105929482,-2543.7056916233,-24323.0312659119,5743.5666021206,8625.3030791821,11744.5164951369
560670295118,28240,5,0,2984.0789750392,5756.2818453006,11249.6319299542,-1264.1993645100,-8910.8910913133,-6501.5776110994,-9216.7626540485,-22473.2614917978,-12032.0148356694,-4894.5412209062,-6754.6535373198,-2536.5267504978,-24315.7671509086,5750.3196738573,8631.1800767476,11751.6467654751
560670295118,28240,5,0,2987.1939054259,5760.8568993060,11253.0023819742,-1258.8942486952,-8904.4178766035,-6492.6708570250,-9209.9609115244,-22468.7594439733,-12026.4663659181,-4887.0824227537,-6743.0455545507,-2532.5235782430,-24313.9541640820,5751.5851143269,8633.1147405424,11754.9563790110
560670295118,28240,5,0,2988.5323520764,5763.3026063674,11262.6026947675,-1251.9951645966,-8905.2696153811,-6477.7410930233,-9207.4300305853,-22470.4994246190,-12028.7417252240,-4883.4199460100,-6737.3024016503,-2535.3099808155,-24315.9496663609,5746.6571971136,8624.8893774901,11747.5949224331
560670295118,28240,5,0,2988.7148675288,5765.5779656733,11267.9078105823,-1248.7828926354,-8905.6346462858,-6470.4283072327,-9207.7098876122,-22472.7017777439,-12032.6475559042,-4883.3347721323,-6739.4439162911,-2538.3154019308,-24320.4760495791,5743.5300990301,8604.2286282847,11747.1812207411
560670332466,28241,5,0,2986.7071975530,5761.5139549344,11265.4256004304,-1252.5183755600,-8905.2696153811,-6476.8650188520,-9210.5814640624,-22471.8257035727,-12030.8832398648,-4881.2662636723,-6746.7567020817,-2537.0864645516,-24317.7626531876,5745.6229428837,8569.7697108822,11752.4985042527
560670332466,28241,5,0,2986.3421666483,5761.8911535360,11260.3516708552,-1256.6188893893,-8901.4002877914,-6486.2219777089,-9208.6224648739,-22467.8103636211,-12025.6146271405,-4878.2243394666,-6745.9658017882,-2531.4893240131,-24312.2020157395,5750.6238662779,8539.3383011280,11762.3300032857
560670332466,28241,5,0,2990.0411464825,5767.2936109253,11263.9654768116,-1251.3502766650,-8897.1659292971,-6481.4887436447,-9202.4169394942,-22462.7486017428,-12020.3825175066,-4874.4158503610,-6736.9495384424,-2526.7195868585,-24308.4665328148,5753.6779581805,8518.7262227099,11764.5931948948
560670332466,28241,5,0,2992.7910459645,5771.4792986324,11272.9330693701,-1246.2033409089,-8896.3871967004,-6466.5224765525,-9199.5088599535,-22463.4664958553,-12022.0738273650,-4872.9070559550,-6727.7629273411,-2530.0778711816,-24312.6278851283,5751.7554620824,8504.9523899064,11760.2614948258
560670332466,28241,5,0,2993.2655861406,5772.0511803831,11280.7447307305,-1243.1370813095,-8901.0474245836,-6463.0668506548,-9202.2830948292,-22466.7639416943,-12028.2185142606,-4874.7930489625,-6729.8922742851,-2535.3221485123,-24317.3124484051,5746.5598555390,8496.2038158907,11752.9852121257
560670332466,28241,5,0,2991.0997361061,5765.2616055559,11272.9209016733,-1249.1722589337,-8903.2132746181,-6471.8275923673,-9207.1380058615,-22468.7107731860,-12029.1554269160,-4878.2486748603,-6739.6385994403,-2535.6141732361,-24318.0668456081,5751.2200834222,8498.5035105902,11753.7639447223
560670332466,28241,5,0,2989.2502461890,5762.4265321962,11261.5441051439,-1257.2029388368,-8900.1226796250,-6485.2728973567,-9207.7707260963,-22468.8324501542,-12024.1788389154,-4878.0296563174,-6743.9094610251,-2531.7083425559,-24312.1046741649,5757.0484102004,8503.4557631971,11760.5413518527
560670332466,28241,5,0,2989.0798984335,5761.9763274137,11259.9379691632,-1256.2660261815,-8899.8671579918,-6487.2805673325,-9205.3980252158,-22467.9685436798,-12021.2220885874,-4876.8007189383,-6740.3199904624,-2530.2482189371,-24309.0384145655,5757.8514781907,8503.2245769575,11761.1010659066
560670363791,28242,5,0,2988.4471781987,5764.9817485290,11264.2088307481,-1250.5350409779,-8902.0695111167,-6477.4490682995,-9202.9279827608,-22467.8833698020,-12026.9287383974,-4881.7164684548,-6736.6453460218,-2533.7160125317,-24313.2606053631,5750.6725370652,8495.8874557733,11754.2506525953
560670363791,28242,5,0,2987.9726380226,5766.1863505145,11274.1255036588,-1246.6413779945,-8904.7220690241,-6470.6108226850,-9204.6071249223,-22470.6332692840,-12031.4672893123,-4885.7683114968,-6737.6187617677,-2538.4614142926,-24320.6585650314,5745.3795889472,8488.7450177382,11747.0108729856
560670363791,28242,5,0,2985.9893034404,5762.5482091644,11273.4319449399,-1248.4300294275,-8905.5373047112,-6476.4026463728,-9206.6634656854,-22469.5625119636,-12032.6962266915,-4887.8733230472,-6744.9437152551,-2537.7921909674,-24319.5148015301,5745.7932906392,8488.2826452589,11747.0838791665
560670363791,28242,5,0,2987.2669116068,5762.6942215263,11262.8460487039,-1252.5548786505,-8901.2056046423,-6486.7330209754,-9203.6215414797,-22464.9631225645,-12025.3469378104,-4890.0026699912,-6747.2312422578,-2528.7759276216,-24311.5936308983,5754.3471815057,8496.2889897684,11756.1488132996
560670363791,28242,5,0,2989.2502461890,5764.4828729592,11260.4125093393,-1250.2916870414,-8894.5742098738,-6486.0151268629,-9196.3452587796,-22458.7575971848,-12017.7421272961,-4887.0945904505,-6737.8377803105,-2523.4464764131,-24305.4367763059,5760.0051605284,8502.1903227275,11761.7702892318
560670363791,28242,5,0,2989.6274447905,5766.1011766367,11265.5716127923,-1247.1037504738,-8895.3651101673,-6475.2102120841,-9194.5809427402,-22460.5705840114,-12020.0539896924,-4886.3888640348,-6730.9386962119,-2525.4541463889,-24309.2330977147,5756.2088391196,8502.1903227275,11756.5138442043
560670363791,28242,5,0,2983.8112857091,5761.4774518440,11266.3868484794,-1247.6269614372,-8900.5242136202,-6468.1407802300,-9198.7179596600,-22467.2628172641,-12028.5957128621,-4892.0103399670,-6735.1852224031,-2532.6695906049,-24315.1465983706,5749.0664010846,8498.9293799790,11749.9797910104
560670363791,28242,5,0,2979.6742687893,5753.9334798138,11262.8338810071,-1253.4674559122,-8905.0749322320,-6476.2079632236,-9206.3836086585,-22470.5602631031,-12031.7958171266,-4895.4172950774,-6745.6859447613,-2536.6362597692,-24317.4097899797,5746.4990170549,8499.5986033043,11751.0748837245
560670394930,28243,5,0,2978.3479898356,5748.5796932117,11254.8032011040,-1260.3787077076,-8904.3448704226,-6490.1034729954,-9208.8049803263,-22468.3822453718,-12027.2937693021,-4893.6529790381,-6752.1591594711,-2532.7669321795,-24313.2727730599,5750.8550525175,8509.1502453103,11759.8964639211
560670394930,28243,5,0,2980.4408336892,5749.2245811433,11249.4007437146,-1261.4494650280,-8899.1370961824,-6493.2549064725,-9206.1889255093,-22465.7418551612,-12021.7209641572,-4890.1608500499,-6748.1559872163,-2527.2306301251,-24306.6170428977,5756.0506590609,8518.1786763529,11764.2281639901
560670394930,28243,5,0,2982.4120005745,5753.0574056425,11253.8541207518,-1256.7162309639,-8898.5165436444,-6480.0772908133,-9202.2709271323,-22465.4254950438,-12021.3437655557,-4885.5006221667,-6738.4705005453,-2529.1044554358,-24307.9433218514,5755.7586343372,8523.5689660455,11761.6242768700
560670394930,28243,5,0,2982.8987084474,5754.6148708358,11264.6955386210,-1252.0803384744,-8901.4002877914,-6468.3597987728,-9202.3074302228,-22466.5692585452,-12025.5537886564,-4883.2495982545,-6734.6376760461,-2534.0445403459,-24313.3092761504,5751.5364435396,8524.4085371262,11755.6499377299
560670394930,28243,5,0,2982.2659882126,5752.8627224933,11265.2795880685,-1252.4575370759,-8903.3349515863,-6470.2822948708,-9205.2155097635,-22469.0393010002,-12028.9729114636,-4885.0382496875,-6740.3564935528,-2535.4073223901,-24314.5990520136,5751.3782634809,8528.7767402857,11752.3768272845
560670394930,28243,5,0,2978.6886853467,5748.3606746688,11256.1781508449,-1259.5634720205,-8901.8748279675,-6478.9943657960,-9205.8238946046,-22465.5715074057,-12023.5704540743,-4881.2054251882,-6745.1749014947,-2530.2482189371,-24309.9266564336,5756.2940129974,8536.0043521985,11757.9009616421
560670394930,28243,5,0,2979.8202811512,5749.1394072655,11254.0488039009,-1260.1110183775,-8895.6206318006,-6480.9168618941,-9200.0320709169,-22461.0572918844,-12014.2134952174,-4871.9701432996,-6737.0590477138,-2523.6411595623,-24300.4966913958,5760.1755082839,8543.4631503510,11762.0988170461
560670394930,28243,5,0,2983.6166025600,5753.3372626694,11261.4224281756,-1252.2263508363,-8892.2745151742,-6467.6297369634,-9193.3276699675,-22454.4989032968,-12011.4027572513,-4866.0079718564,-6725.2807171892,-2520.0273536059,-24299.0000646866,5761.8668181423,8551.3113148018,11764.8000457407
560670436192,28244,5,0,2984.9185461200,5754.6635416231,11273.4562803335,-1243.8184723316,-8890.5832053159,-6450.7166383795,-9188.5701005097,-22453.2821336145,-12009.7236150897,-4861.2260670050,-6716.6903232322,-2518.9930993759,-24298.8905554152,5762.0980043819,8554.2315620393,11763.0844004887
560670436192,28244,5,0,2980.8545353812,5751.2687542095,11275.7194719426,-1245.3029313440,-8891.5566210617,-6450.5949614113,-9191.4416769599,-22455.3871451649,-12012.6073592368,-4861.0313838558,-6721.9224328661,-2519.7839996694,-24300.6548714545,5762.4021968025,8556.0688842595,11762.5368541317
560670436192,28244,5,0,2975.6102580505,5744.6251917442,11262.4445147088,-1254.9640826214,-8896.7157245146,-6468.2137864109,-9198.6814565696,-22458.3195600992,-12016.3063390710,-4869.5487716319,-6735.0270423444,-2522.8259238751,-24302.9545661540,5760.8812346997,8556.4339151642,11760.5535195495
560670436192,28244,5,0,2974.2353083095,5744.5156824728,11252.1628108934,-1258.9794225730,-8900.3416981679,-6481.7320975812,-9202.1735855578,-22460.7530994638,-12016.5375253106,-4874.0751548500,-6739.0180469023,-2524.5294014304,-24303.2709262714,5761.6477995995,8558.1130573258,11760.8942150606
560670436192,28244,5,0,2976.8391954296,5749.6139474416,11257.7964545224,-1256.2903615751,-8903.0064237721,-6478.0939562311,-9202.2587594355,-22464.7197686281,-12019.0927416434,-4877.0805759653,-6735.7814395474,-2530.6984237196,-24306.6292105946,5757.4377764988,8555.9837103818,11754.8225343459
