timestamp,sequence,battery,flags,EEG-ch1,EEG-ch2,EEG-ch3,EEG-ch4,EEG-ch5,EEG-ch6,EEG-ch7,EEG-ch8,EEG-ch9,EEG-ch10,EEG-ch11,EEG-ch12,EEG-ch13,EEG-ch14,EEG-ch15,EEG-ch16
561656183095,48275,-2,0,9046.4879047082,11755.8567885759,16419.4551237826,3239.6614468051,-4735.7892804573,-1803.7028739425,-4565.0521586377,-20191.6723251343,-6877.3647597792,-1464.2971387633,-4331.3228703658,1809.8353931412,-20624.9396736056,12026.8070614292,14890.3406640435,19389.7846014119
561656183095,48275,-2,0,9046.4635693146,11759.2637436863,16426.1960278225,3243.2995881552,-4736.7018577190,-1796.6821128756,-4561.8642220701,-20194.4830631004,-6881.2097519752,-1465.8424362598,-4323.9979168784,1807.6208723194,-20628.2492871414,12024.1058327345,14886.9458766299,19386.0977892746
561656183095,48275,-2,0,9041.5356521013,11755.9297947568,16430.0896908059,3245.3680966151,-4743.8807988445,-1794.6744428998,-4561.8398866765,-20200.3600606659,-6885.9186506457,-1469.1520497957,-4321.1506758219,1801.1111545192,-20635.1362035432,12016.8173823375,14880.4726619201,19379.8070900171
561656183095,48275,-2,0,9040.6717456268,11751.9752932894,16428.6295671871,3242.3261724094,-4745.8641334267,-1799.7118693845,-4566.0134066867,-20201.1996317466,-6888.7415563086,-1471.2813967397,-4327.9645860427,1799.9430556242,-20638.8230156806,12015.7222896235,14879.0733767855,19376.1567809702
561656183095,48275,-2,0,9041.6816644631,11750.3813250056,16420.8665766141,3240.0994838908,-4740.0723097389,-1803.8245509107,-4567.4126918214,-20196.3568884111,-6883.2174219510,-1467.5945846023,-4333.9875959701,1805.5036930722,-20631.8509254010,12021.8304734286,14885.0112128351,19381.0360273962
561656183095,48275,-2,0,9046.6460847669,11752.2308149226,16419.7593162032,3240.5496886732,-4733.4409149704,-1801.0989868223,-4564.1030782855,-20190.2973753933,-6875.1745743510,-1460.7928420783,-4330.7509886152,1812.4392802613,-20624.7449904564,12027.5006201481,14889.5254283564,19385.5989137048
561656183095,48275,-2,0,9051.6105050707,11757.9009616421,16428.3253747665,3246.6822078720,-4731.1290525741,-1792.5572636526,-4558.7006208962,-20189.7619967331,-6873.1182335880,-1460.1722895403,-4323.2435196754,1811.8065600265,-20624.7328227596,12025.3591055072,14888.6980249724,19384.4308148098
561656183095,48275,-2,0,9050.2355553297,11757.2195706201,16433.0342734370,3247.8138036765,-4736.2394852397,-1788.8461161216,-4558.8831363485,-20195.5416527240,-6878.8857218820,-1464.9785297854,-4321.1141727314,1804.4207680550,-20628.7359950144,12019.1900832180,14882.4924995927,19379.4055560220
561656211757,48276,-2,0,9044.8939364244,11751.1722252990,16430.1140261995,3241.8272968396,-4743.2967493970,-1798.2274103721,-4566.4879468628,-20201.5646626513,-6885.5779551346,-1470.6730118985,-4330.1304360772,1799.8092109591,-20633.2380428388,12016.9512270026,14878.8178551522,19377.4587245303
561656211757,48276,-2,0,9041.0489442284,11745.5385816700,16421.8278246631,3234.4780079586,-4743.8564634509,-1808.3387664320,-4571.6227149221,-20198.8512662598,-6884.9087318094,-1470.7946888668,-4338.9520162738,1804.1530787249,-20629.3200444619,12022.4023551792,14884.5245049621,19383.4817344576
561656211757,48276,-2,0,9042.4360616662,11746.4389912349,16414.8192312931,3232.8840396748,-4737.5049257093,-1806.7813012387,-4568.4834491418,-20191.6479897406,-6878.8127157011,-1465.8546039566,-4336.1656137014,1812.2324294153,-20624.1366056153,12029.2162654001,14891.2410736084,19391.0257064879
561656211757,48276,-2,0,9048.0453699015,11753.3867461208,16422.7890727121,3238.2743293673,-4735.9961313032,-1798.5802735800,-4561.6087004368,-20188.8737548650,-6877.0727350554,-1461.0726991052,-4324.9104941402,1813.6073791563,-20625.9860955324,12028.0238311114,14888.8075342438,19392.1451345956
561656211757,48276,-2,0,9048.7510963173,11755.7351116077,16431.1361127326,3243.6524513631,-4737.2007332887,-1790.9997984593,-4557.7393728471,-20190.4312200583,-6879.4941067232,-1460.8415128656,-4317.1961743544,1810.5897903442,-20629.9527646966,12022.5240321475,14882.7723566196,19389.3708997200
561656211757,48276,-2,0,9045.1007872704,11752.8635351574,16431.9878515103,3242.7398741013,-4739.9506327707,-1793.6280209731,-4559.6740366420,-20192.7795855452,-6882.0128199655,-1462.4963196335,-4320.2380985601,1808.7768035176,-20630.3299632982,12017.4622702691,14879.0490413918,19382.9950265847
561656211757,48276,-2,0,9042.9106018423,11751.0018775435,16425.5998106782,3237.3495844088,-4738.5878507265,-1802.4617688665,-4563.4825257476,-20190.9787664154,-6879.4089328454,-1459.7585878484,-4328.0010891332,1810.4681133760,-20627.3367098797,12022.7795537808,14885.1207221065,19389.4195705072
561656211757,48276,-2,0,9042.3630554852,11749.8702817390,16420.6840611617,3234.1129770539,-4734.4995045940,-1804.9074759279,-4563.9935690141,-20186.0386815053,-6873.2642459498,-1455.3052108112,-4328.8163248203,1817.3550297778,-20623.0780159917,12031.1995999822,14892.7377003176,19398.5210077308
561656240560,48277,-2,0,9046.0255322289,11753.4110815145,16423.0324266486,3237.7632861008,-4732.9177040070,-1797.9840564357,-4559.6010304611,-20183.7024837153,-6872.4003394754,-1455.0010183906,-4321.8320668439,1818.1459300713,-20622.7129850870,12030.3600289015,14891.1680674275,19397.8152813151
561656240560,48277,-2,0,9047.6681713000,11757.8279554612,16434.2267077257,3244.0053145709,-4737.3832487411,-1792.9953007383,-4557.6663666662,-20190.7840832662,-6877.2552505078,-1457.5318993298,-4316.5634541196,1810.0300762904,-20628.9185104667,12024.0814973408,14884.0743001797,19391.5124143608
561656240560,48277,-2,0,9043.7380052262,11755.0415528887,16437.3781412028,3241.6934521746,-4742.3841721353,-1796.2927465773,-4562.5334453954,-20195.9918575064,-6883.5094466747,-1463.9564432523,-4322.0754207804,1804.1530787249,-20632.4836456358,12018.6912076483,14879.3532338124,19385.9882800032
561656240560,48277,-2,0,9043.8596821945,11751.6467654751,16428.1671947079,3234.8065357728,-4742.3233336512,-1805.6862085246,-4568.7024676846,-20195.5781558144,-6883.4242727970,-1466.6455042501,-4333.4278819162,1805.9660655515,-20628.5291441684,12021.5262810080,14882.3343195340,19386.8400187808
561656240560,48277,-2,0,9045.3928119941,11750.1623064627,16424.0545131817,3231.9836301099,-4737.9429627949,-1808.4117726129,-4569.2256786480,-20192.0495237358,-6879.0560696376,-1464.5891634871,-4336.6401538775,1810.6749642220,-20623.1996929599,12027.9508249305,14887.7732800139,19392.3641531384
561656240560,48277,-2,0,9047.5829974223,11752.3403241941,16426.6462326050,3234.9403804378,-4735.8987897287,-1803.1796629791,-4564.7479662172,-20191.8305051930,-6878.6788710360,-1464.9298589981,-4330.2642807422,1811.8917339043,-20623.7837424074,12026.4907013118,14887.2865721409,19392.9725379795
561656240560,48277,-2,0,9046.0011968353,11755.7472793045,16431.6714913929,3240.2819993431,-4739.4639248978,-1797.1931561422,-4561.5600296495,-20195.3713049685,-6884.9939056871,-1469.4319068226,-4323.3408612500,1805.7105439182,-20629.1375290095,12018.9710646752,14879.1342152696,19385.6110814017
561656240560,48277,-2,0,9047.2788050017,11756.7450304440,16437.6214951393,3242.0706507761,-4742.2259920766,-1798.6654474578,-4562.4117684272,-20199.0946201963,-6888.2791838293,-1471.4639121920,-4325.8717421892,1801.5005208175,-20633.6274091372,12015.5154387775,14875.6542539782,19386.1707954555
561656270569,48278,-2,0,9046.6339170701,11752.7783612797,16431.3916343659,3238.5906894847,-4742.0799797147,-1806.0390717325,-4566.7678038898,-20199.0824524994,-6885.6874644061,-1469.0912113115,-4333.9510928796,1803.7758801234,-20630.1839509363,12018.1679966849,14878.9882029077,19392.2911469575
561656270569,48278,-2,0,9049.7975182440,11754.6765219841,16423.9571716071,3237.6051060421,-4734.7671939241,-1808.3022633415,-4564.6627923394,-20191.5871512565,-6878.6058648551,-1463.4088968952,-4335.9830982490,1812.3784417772,-20621.1555198937,12025.5416209596,14886.6173488157,19400.4313361320
561656270569,48278,-2,0,9053.3261503227,11758.9230481753,16425.8188292210,3241.6082782968,-4730.7153508821,-1800.8312974922,-4559.9052228816,-20187.4379666399,-6874.5418541162,-1458.1524518677,-4328.9501694854,1814.3496086625,-20617.9919187197,12028.4010297130,14887.4569198965,19401.3925841810
561656270569,48278,-2,0,9051.8781944008,11762.1353201365,16435.8815144936,3246.1468292118,-4733.3557410927,-1791.6568540877,-4554.7582871255,-20191.2099526550,-6878.6180325519,-1459.7099170611,-4321.1750112155,1808.9714866668,-20624.0635994343,12023.2297585632,14880.1563018027,19397.0852195057
561656270569,48278,-2,0,9046.4514016177,11758.1199801849,16435.4434774080,3244.5528609280,-4739.6221049565,-1792.8127852859,-4557.6785343630,-20195.2739633939,-6886.0524953107,-1467.1200444262,-4324.5697986291,1801.2571668810,-20630.0987770585,12016.0021466504,14875.3500615576,19390.7701848546
561656270569,48278,-2,0,9042.5577386344,11752.6201812210,16427.0477666001,3238.5420186974,-4742.3720044385,-1802.5104396538,-4564.9548170631,-20197.5006519125,-6887.7194697755,-1469.6874284559,-4332.6369816227,1801.2815022747,-20631.4615591027,12016.4766868265,14875.6055831909,19394.0676306936
561656270569,48278,-2,0,9043.0079434168,11750.7950266975,16419.6254715381,3232.6285180415,-4739.4274218073,-1809.5433684175,-4565.7943881439,-20191.8305051930,-6881.1489134911,-1463.9077724650,-4337.0173524790,1807.6695431067,-20623.4795499868,12020.2000020543,14879.3288984187,19398.5940139117
561656270569,48278,-2,0,9048.4834069872,11755.3457453093,16421.2559429124,3238.6150248784,-4732.5283377087,-1801.3666761524,-4558.9683102263,-20187.6083143954,-6875.2597482288,-1458.8825136771,-4329.4003742678,1811.5875414837,-20620.0969302701,12026.8557322164,14885.6439330698,19402.7918693157
561656301869,48279,-2,0,9050.6249216280,11759.3245821704,16434.1658692416,3246.4388539355,-4732.5891761928,-1792.1313942638,-4553.9795545289,-20189.1049411046,-6876.6103625761,-1456.6558251585,-4319.1430058461,1808.6794619430,-20622.7129850870,12022.9377338395,14882.1518040817,19399.6526035353
561656301869,48279,-2,0,9047.2666373049,11758.1321478818,16438.7895940343,3247.8138036765,-4738.5270122424,-1792.7884498923,-4555.5491874190,-20194.1545352862,-6881.1854165816,-1460.6589974132,-4319.6175460222,1803.2405014632,-20629.3687152491,12017.0485685772,14874.6565028387,19392.9603702827
561656301869,48279,-2,0,9042.4969001503,11755.5769315490,16432.0973607817,3242.4113462871,-4741.1674024530,-1802.0480671745,-4561.7547127987,-20195.2131249098,-6885.2737627141,-1465.3678960837,-4330.3981254073,1802.1940795364,-20630.6828265060,12015.6249480489,14875.5812477973,19393.0577118573
561656301869,48279,-2,0,9044.1882100087,11751.7806101402,16421.8521600567,3235.5974360663,-4738.4296706678,-1809.8962316253,-4565.6240403884,-20192.8647594229,-6881.3435966403,-1464.0294494332,-4334.9975148064,1808.1684186765,-20626.0834371070,12020.3703498098,14883.1738906148,19400.7720316430
561656301869,48279,-2,0,9048.2035499602,11756.1366456028,16422.9594204676,3237.0210565946,-4735.4607526430,-1808.1805863733,-4564.2369229506,-20189.4578043125,-6878.3503432218,-1461.9731086701,-4331.9069198133,1810.9669889457,-20625.7305738991,12022.8525599617,14886.1063055491,19404.6291915359
561656301869,48279,-2,0,9050.7222632026,11759.5922715005,16434.0928630606,3242.2653339252,-4738.8555400566,-1801.3423407588,-4562.2170852780,-20193.1202810562,-6883.5702851589,-1465.9276101376,-4325.5432143749,1805.6618731309,-20630.5003110537,12018.1436612912,14878.6475073967,19396.7445239947
561656301869,48279,-2,0,9047.7898482683,11757.4142537692,16439.1667926358,3243.6402836662,-4744.7568730158,-1802.3279242015,-4564.8331400949,-20201.3699795022,-6891.0655864018,-1474.1286377962,-4328.0984307078,1796.8281252375,-20638.6161648346,12014.6515323030,14872.8191806185,19390.1618000134
561656301869,48279,-2,0,9045.4779858719,11754.8468697396,16439.0694510612,3239.6127760178,-4747.2025800772,-1809.7745546571,-4572.3284413379,-20206.6385922265,-6893.3166103140,-1477.2435681829,-4338.6234884596,1793.1413131001,-20640.3683131771,12011.7556204592,14871.8822679631,19389.9549491675
561656333051,48280,-2,0,9046.0985384099,11751.1235545118,16428.8364180331,3232.4094994987,-4744.4770159888,-1816.5641294843,-4576.7574829814,-20204.0468728032,-6889.7514751449,-1475.4670844468,-4347.0557023579,1797.2418269295,-20634.8076757290,12016.9512270026,14877.4185700175,19396.4159961804
561656333051,48280,-2,0,9049.2864749775,11755.3579130061,16424.4682148737,3233.4437537286,-4738.7581984821,-1815.2743536211,-4573.8372357439,-20198.9729432280,-6884.5923716920,-1470.1863040256,-4343.3567225237,1802.0967379618,-20629.2713736746,12020.8692253796,14882.1639717785,19402.6215215601
561656333051,48280,-2,0,9051.7200143421,11759.4949299259,16435.8328437063,3240.0873161939,-4740.2669928881,-1805.7227116151,-4567.9480704816,-20199.8611850961,-6885.1764211395,-1471.0988812873,-4334.4378007525,1799.9917264115,-20632.3498009708,12019.1292447339,14879.9494509567,19401.2830749096
561656333051,48280,-2,0,9048.3738977158,11759.7382838624,16440.0793698975,3242.8493833727,-4745.3287547664,-1803.0336506172,-4567.7290519388,-20203.4993264462,-6891.4062819128,-1476.8176987941,-4332.4666338672,1794.7109459903,-20638.4336493822,12013.3252533493,14874.4618196896,19396.7810270851
561656333051,48280,-2,0,9042.7280863899,11752.8635351574,16433.2532919798,3237.4104228929,-4749.8429702878,-1811.2103428822,-4573.5087079297,-20207.6850141533,-6895.6771434977,-1481.7577837042,-4341.6045741812,1792.9101268605,-20640.5873317199,12010.4901799896,14872.6975036502,19395.8441144298
561656333051,48280,-2,0,9040.5500686586,11749.4687477438,16425.2226120767,3230.7425250339,-4747.9326418866,-1818.6934764283,-4578.4366251430,-20205.9450335076,-6892.4892069301,-1479.7501137284,-4349.1485462115,1796.6334420883,-20636.3651409223,12013.1670732906,14875.3622292545,19399.6161004449
561656333051,48280,-2,0,9043.5798251675,11751.3182376609,16420.8300735236,3230.3531587356,-4743.1142339447,-1818.6813087315,-4576.3072781990,-20200.8346008420,-6886.3810231250,-1474.8100288183,-4346.4716529104,1801.8168809349,-20630.8166711711,12020.8448899859,14882.3221518372,19404.9333839565
561656333051,48280,-2,0,9049.0187856474,11755.4674222775,16427.6926545318,3235.7677838218,-4741.4959302672,-1809.5677038111,-4571.5618764380,-20202.2703890671,-6885.5049489537,-1475.0047119675,-4337.8204204693,1800.3567573161,-20631.5710683741,12019.5916172131,14880.0467925313,19400.5651807971
561656364551,48281,-2,0,9045.8673521702,11754.8955405269,16435.0906142001,3236.9480504136,-4747.3120893486,-1807.9494001337,-4572.3771121251,-20208.5610883245,-6892.2945237809,-1479.0322196159,-4335.3017072269,1792.2165681416,-20637.5332398173,12011.5852727037,14871.8822679631,19392.4736624098
561656364551,48281,-2,0,9040.3675532063,11748.6900151472,16431.6593236960,3231.3630775719,-4753.7122978774,-1815.5055398607,-4580.2739473632,-20213.3673285696,-6898.3418691019,-1484.3251677339,-4344.5369891156,1789.1746439359,-20641.7067598276,12007.2535726347,14868.1346173416,19389.9062783802
561656364551,48281,-2,0,9037.5568152402,11743.3970670292,16418.6885588828,3223.7460993607,-4753.9921549044,-1825.9819268253,-4584.6178151290,-20211.0919692637,-6897.5144657180,-1486.1503222573,-4354.5753389945,1791.3283262735,-20639.3462266440,12010.1373167817,14872.6975036502,19394.7733571093
561656364551,48281,-2,0,9038.1165292940,11744.3461473814,16413.5416231267,3221.8357709595,-4750.6217028844,-1827.3812119599,-4583.1576915103,-20206.5655860456,-6893.4139518886,-1481.1737342567,-4352.8961968329,1796.1345665186,-20635.8054268685,12015.0408986014,14877.7227624381,19400.8815409145
561656364551,48281,-2,0,9039.7713360619,11749.5052508343,16419.3091114207,3227.6519300409,-4750.0011503465,-1819.1680166044,-4578.1202650256,-20205.8841950235,-6893.1827656490,-1478.6063502271,-4342.3711390811,1796.4265912423,-20637.1073704285,12014.6515323030,14876.6276697240,19400.2853237701
561656364551,48281,-2,0,9041.0854473188,11752.6810197051,16427.2667851430,3234.7578649855,-4751.6559571144,-1812.1472555376,-4574.0197511962,-20207.0036231312,-6896.7357331213,-1478.3994993811,-4334.2431176033,1793.6523563667,-20639.8937730010,12009.3220810946,14870.8723491268,19393.5930905175
561656364551,48281,-2,0,9037.9948523258,11751.0262129372,16429.1162750600,3234.5510141395,-4754.8073905915,-1814.1427578165,-4575.2486885754,-20209.6926841291,-6897.7699873512,-1479.0443873127,-4337.3702156868,1791.5230094227,-20643.8969452557,12009.0787271581,14869.5217347794,19393.8972829381
561656364551,48281,-2,0,9036.5590641007,11746.0982957239,16423.2027744041,3227.6762654345,-4752.7632175253,-1822.4654624434,-4580.3226181505,-20208.7314360800,-6896.0300067056,-1478.0344684764,-4345.7415911010,1795.0759768950,-20640.3561454803,12010.8308755006,14873.2693854009,19398.8373678482
561656418344,48282,-2,0,9040.4405593872,11747.7409347950,16416.8877397530,3227.0678805934,-4746.3386736027,-1822.5506363212,-4579.2396931333,-20204.6430899475,-6889.3377734529,-1474.7978611215,-4348.1386273751,1800.2350803479,-20635.1727066337,12018.7398784355,14879.2193891473,19405.7121165532
561656418344,48282,-2,0,9044.0543653436,11753.2772368494,16424.8089103847,3232.4094994987,-4745.5721087029,-1814.4834533276,-4573.8129003503,-20203.1707986320,-6888.0479975897,-1473.5324206519,-4339.1223640293,1798.8114598196,-20634.5278187021,12018.8372200101,14878.3311472793,19404.1668190566
561656418344,48282,-2,0,9043.9813591627,11757.5724338279,16435.3704712270,3237.1062304723,-4749.4657716862,-1808.9714866668,-4571.2455163206,-20207.4173248232,-6893.8154858838,-1476.4526678894,-4335.3260426206,1792.8249529827,-20640.1614623311,12011.9381359115,14872.5271558947,19400.8085347335
561656418344,48282,-2,0,9039.1994543113,11753.0460506098,16431.1604481263,3234.4658402617,-4756.5838743277,-1814.5442918117,-4575.2973593627,-20211.9923788286,-6900.1061851412,-1482.2931623644,-4341.4342264257,1788.3959113392,-20645.2353919063,12005.6231012604,14867.3315493513,19395.1992264981
561656418344,48282,-2,0,9032.0205131857,11745.2830600367,16418.7737327605,3227.7371039186,-4758.8348982399,-1826.3591254268,-4582.5249712755,-20211.4326647747,-6903.3549601930,-1485.0065587560,-4352.2269735077,1789.5761779310,-20644.5661685810,12004.8200332701,14866.3946366960,19395.8076113393
561656418344,48282,-2,0,9033.8213323155,11747.1203822570,16414.4907034789,3225.4495769159,-4753.5906209092,-1828.5128077644,-4581.4055431678,-20205.2393070919,-6898.1958567400,-1483.2057396262,-4353.2247246471,1794.6379398094,-20638.4701524727,12007.2049018474,14868.9863561192,19397.2312318676
561656418344,48282,-2,0,9040.5257332650,11754.8468697396,16421.3654521838,3233.1882320953,-4751.5342801461,-1821.2121896707,-4573.4965402329,-20200.7494269642,-6894.6428892677,-1482.0984792153,-4344.1111197268,1797.5825224405,-20639.1758788884,12011.3297510704,14872.1499572932,19400.8328701272
561656418344,48282,-2,0,9041.9128507028,11757.0735582582,16433.4358074322,3240.7322041255,-4750.5243613098,-1810.2490948332,-4569.5298710686,-20203.6453388081,-6897.2589440847,-1480.7843679584,-4336.0804398236,1794.6014367189,-20642.7166786639,12007.9958021409,14866.0174380944,19396.9148717502
561656453136,48283,-2,0,9041.0124411379,11758.4363403023,16439.0086125771,3243.3239235488,-4754.1016641758,-1811.7700569361,-4571.8295657681,-20206.6629276201,-6900.4833837428,-1482.9623856897,-4338.1124451930,1791.8393695401,-20645.2962303904,12004.4063315781,14863.1458616442,19393.5809228207
561656453136,48283,-2,0,9038.7005787415,11753.3380753335,16428.7025733681,3237.8362922817,-4753.3350992759,-1819.9102461106,-4574.4456205850,-20203.3289786907,-6898.6460615225,-1482.3174977581,-4346.6663360596,1795.4045047092,-20641.4025674070,12008.6771931630,14867.5749032878,19398.2411507039
561656453136,48283,-2,0,9041.6208259790,11756.0758071187,16423.2514451914,3235.6704422472,-4746.7280399011,-1821.0053388247,-4571.7200564967,-20196.3812238048,-6890.0434998687,-1476.3918294053,-4346.7636776342,1803.8367186075,-20632.0577762470,12017.8759719611,14877.2968930493,19406.5516876339
561656453136,48283,-2,0,9046.0863707131,11764.3620086551,16430.2722062582,3242.7763771918,-4741.0700608784,-1812.1837586280,-4564.6871277330,-20191.1004433836,-6884.6167070856,-1470.6851795954,-4336.8470047235,1807.5843692290,-20629.6850753665,12020.0783250861,14880.3874880423,19407.8049604067
561656453136,48283,-2,0,9047.4248173636,11768.4625224844,16438.3150538582,3250.0404921951,-4742.3355013480,-1804.1774141185,-4560.1607445149,-20193.9963552275,-6887.6221282009,-1473.3012344123,-4328.5729708839,1803.4960230965,-20634.2236262815,12016.6835376725,14875.3013907703,19402.1834844745
561656453136,48283,-2,0,9044.1273715246,11767.2335851053,16440.0428668070,3249.7362997745,-4747.2512508645,-1805.3576807104,-4564.0057367110,-20199.8855204898,-6891.0169156145,-1478.5455117430,-4332.5031369577,1796.6821128756,-20638.1051215680,12008.9570501899,14867.0516923244,19394.5786739602
561656453136,48283,-2,0,9040.9029318665,11761.8676308064,16434.4335585717,3243.8714699059,-4746.4846859646,-1814.8363165354,-4571.2698517143,-20201.5646626513,-6891.7104743334,-1479.1173934937,-4342.0669466605,1796.3900881519,-20638.7013387123,12011.7677881560,14871.9431064472,19400.8815409145
561656453136,48283,-2,0,9040.7447518078,11760.3466687035,16424.7359042038,3238.2986647610,-4742.3111659544,-1820.2266062280,-4573.1801801155,-20197.5371550029,-6885.2737627141,-1475.6009291118,-4345.4860694677,1803.1309921918,-20631.5954037677,12019.9688158147,14878.7205135776,19409.1677424509
561656463344,48284,-2,0,9048.7997671046,11764.5566918043,16428.3132070697,3241.4744336317,-4739.5856018660,-1815.5177075575,-4569.4812002813,-20194.7872555210,-6883.4242727970,-1472.9970419917,-4340.8380092814,1804.5546127201,-20629.6850753665,12020.3703498098,14879.4749107806,19411.5161079377
561656463344,48284,-2,0,9051.6956789484,11765.7004553056,16436.2830484888,3245.2829227373,-4745.0732331332,-1812.0012431757,-4569.7610573082,-20201.1266255657,-6891.0534187050,-1476.4405001926,-4335.8370858872,1797.6190255310,-20635.9027684431,12013.0575640192,14872.0769511123,19404.5075145677
561656463344,48284,-2,0,9045.8430167766,11763.3520898188,16437.8648490757,3243.1657434901,-4751.3882677843,-1815.4447013766,-4574.8106514897,-20208.6097591118,-6897.8916643195,-1484.5076831862,-4340.9718539464,1790.4887551927,-20642.3029769719,12008.8353732217,14867.7330833465,19400.0176344400
561656463344,48284,-2,0,9040.5013978713,11757.7427815834,16429.9315107472,3237.3374167119,-4753.5297824251,-1825.0085110794,-4581.7462386788,-20210.8486153272,-6899.7046511461,-1487.3914273333,-4350.2071358350,1789.0773023613,-20641.9987845514,12009.1517333391,14868.2319589162,19401.9036274476
561656463344,48284,-2,0,9038.3355478368,11754.9928821015,16421.1342659442,3230.9250404863,-4750.5243613098,-1829.2063664833,-4583.0968530262,-20205.5434995124,-6893.7424797028,-1481.2954112250,-4354.5266682072,1794.9908030172,-20635.5134021447,12015.8317988949,14872.7096713471,19406.5151845435
561656463344,48284,-2,0,9042.6064094217,11759.7626192560,16419.5037945699,3235.5122621885,-4744.7082022285,-1823.7674060035,-4576.9034953433,-20199.6665019470,-6888.5225377658,-1477.1948973956,-4347.3598947785,1800.6852851304,-20630.3786340855,12020.6502068367,14878.3554826729,19411.9906481138
561656463344,48284,-2,0,9044.0056945563,11764.5445241075,16428.2158654951,3242.6425325268,-4746.4238474805,-1813.8020623055,-4570.7344730540,-20201.0657870816,-6891.1994310668,-1477.7302760558,-4338.2584575549,1797.2053238390,-20634.1627877974,12016.7200407629,14874.2671365404,19407.4520971988
561656463344,48284,-2,0,9041.5721551917,11764.3498409583,16433.6426582782,3242.9223895537,-4751.9479818381,-1812.9259881342,-4573.2653539932,-20206.2735613218,-6896.7357331213,-1481.1737342567,-4337.4067187773,1791.2796554862,-20640.4899901453,12009.4437580628,14868.4874805495,19401.6481058143
561656486777,48285,-2,0,9040.5135655681,11759.2880790800,16429.2866228156,3236.4735102375,-4754.7708875010,-1820.9323326437,-4580.0427611236,-20209.7048518259,-6899.7289865397,-1484.2764969466,-4348.5401613703,1788.9799607867,-20640.2953069962,12010.3928384150,14868.5361513368,19399.9446282591
561656486777,48285,-2,0,9040.0755284825,11754.0924725366,16417.8976585893,3228.6496811804,-4751.9479818381,-1828.1721122534,-4585.2140322733,-20208.5245852341,-6896.2611929452,-1482.9988887802,-4356.9967106622,1793.2264869779,-20635.3430543892,12015.7466250171,14873.1963792200,19404.3615022058
561656486777,48285,-2,0,9044.8330979403,11756.5746826884,16417.1554290831,3227.7979424028,-4747.8839710993,-1825.5803928301,-4583.2793684785,-20206.3830705932,-6891.7956482112,-1478.8375364667,-4353.2855631313,1795.6235232520,-20631.7414161296,12019.8836419369,14875.5569124036,19407.9631404654
561656486777,48285,-2,0,9044.9061041212,11759.6652776815,16425.9405061893,3233.4194183350,-4751.6194540239,-1818.8029856997,-4580.3226181505,-20210.3497397575,-6896.0178390087,-1482.0376407312,-4345.9849450375,1790.4279167086,-20637.8739353284,12015.2112463569,14869.1567038748,19401.9766336285
561656486777,48285,-2,0,9042.4238939693,11758.2538248500,16428.6173994903,3234.2589894157,-4758.2751841861,-1819.4843767218,-4581.6488971042,-20215.6670232691,-6902.1260228138,-1488.6081970155,-4346.0214481280,1784.1493851480,-20643.2033865368,12008.8110378280,14865.5672333120,19397.2068964739
561656486777,48285,-2,0,9036.8510888244,11751.1722252990,16425.9648415829,3228.9660412978,-4760.7695620348,-1827.7584105614,-4587.7449132125,-20219.3903384969,-6906.2752074305,-1492.8790586004,-4354.8430283246,1782.4702429864,-20643.2277219305,12003.3599096513,14861.5518933604,19393.8729475444
561656486777,48285,-2,0,9037.8610076607,11750.2718157342,16419.5281299636,3224.8655274684,-4758.7375566653,-1834.0977806062,-4592.7458366067,-20217.3826685212,-6902.5762275963,-1492.2828414561,-4363.2752422229,1786.6194276030,-20639.5652451868,12011.6582788846,14868.9498530288,19403.1569002203
561656486777,48285,-2,0,9044.3098869769,11756.0758071187,16418.3113602813,3228.4428303344,-4751.2909262097,-1830.3379622879,-4587.1851991587,-20211.2136462319,-6895.4581249549,-1486.9290548540,-4358.4933373715,1794.0538903619,-20631.5832360709,12016.3428421614,14872.9286898899,19408.9243885144
561656528161,48286,-2,0,9054.1413860098,11765.8829707580,16433.5088136131,3239.5276021401,-4747.8839710993,-1817.9512469221,-4579.3978731920,-20209.2546470434,-6892.2701883873,-1484.2399938561,-4345.2305478345,1793.7375302445,-20632.4836456358,12016.8417177312,14872.7340067407,19406.9532216291
561656528161,48286,-2,0,9053.6790135306,11769.2534227779,16442.6589216240,3244.5650286248,-4748.7113744832,-1813.5952114595,-4577.0981784924,-20213.1361423299,-6896.5532176689,-1488.1944953236,-4342.2859652033,1787.5928433489,-20639.3705620376,12009.7966212707,14865.0075192581,19400.4070007384
561656528161,48286,-2,0,9047.6560036032,11762.3056678920,16437.0374456918,3238.5906894847,-4753.0187391585,-1818.9124949711,-4582.9873437548,-20216.8351221641,-6900.3982098650,-1493.4874434415,-4351.7402656347,1784.3927390844,-20641.9987845514,12007.9592990504,14863.6447372140,19397.4624181072
561656528161,48286,-2,0,9044.3220546737,11755.6864408204,16428.2036977983,3232.6406857383,-4750.3783489480,-1824.6799832652,-4585.4208831193,-20212.8076145157,-6896.8574100895,-1489.2409172503,-4358.2621511318,1788.3350728551,-20635.4403959638,12015.2964202347,14869.5460701731,19403.6314403964
561656528161,48286,-2,0,9047.0476187621,11760.8577119701,16427.4006298080,3233.7601138460,-4743.0412277637,-1821.0661773088,-4581.8800833439,-20205.4096548474,-6889.4351150275,-1483.0232241738,-4354.6605128722,1797.2296592326,-20627.0203497623,12023.7529695266,14874.0481179976,19405.3227502548
561656528161,48286,-2,0,9052.1823868213,11767.2457528022,16435.0297757160,3242.0463153824,-4741.9461350497,-1811.2225105790,-4573.9710804090,-20203.5358295366,-6888.1453391643,-1481.6361067360,-4343.3810579174,1797.2174915358,-20626.7039896449,12023.7286341329,14876.3356450003,19406.0406443674
561656528161,48286,-2,0,9056.1003851983,11770.9690680300,16445.4209888028,3249.0914118429,-4742.9803892796,-1805.6375377373,-4571.5375410444,-20207.3929894295,-6892.6595546856,-1484.5685216703,-4339.4995626309,1792.0705557797,-20633.8585953768,12015.7587927139,14868.9985238161,19400.2731560733
561656528161,48286,-2,0,9051.6105050707,11769.8618076191,16444.8247716585,3248.0693253098,-4746.3630089964,-1810.7358027061,-4575.5528809959,-20210.3132366670,-6895.9083297373,-1489.2895880376,-4345.4373986805,1788.8339484248,-20637.3142212745,12013.6659488604,14865.6037364025,19397.3529088358
561656555577,48287,-2,0,9050.8074370804,11766.3696786309,16435.2487942588,3242.0463153824,-4743.7834572699,-1818.3406132205,-4578.2662773874,-20206.2613936250,-6892.9880824998,-1488.6690354997,-4354.4293266326,1793.6036855794,-20632.7635026628,12016.9147239121,14869.4365609017,19402.0618075063
561656555577,48287,-2,0,9055.6136773254,11769.4602736239,16432.8274225910,3242.9710603410,-4738.0768074600,-1816.9413280858,-4574.8471545802,-20199.4109803137,-6886.5270354868,-1484.0574784038,-4352.6406751996,1799.7605401718,-20626.7039896449,12024.6047083042,14875.2162168926,19408.6932022748
561656555577,48287,-2,0,9057.6335149980,11774.7775571356,16441.6003320004,3248.3005115494,-4738.0524720663,-1810.2247594396,-4568.7389707751,-20197.9143536044,-6887.4396127486,-1483.1935719293,-4343.0890331936,1799.9795587146,-20629.9892677871,12022.4631936634,14875.2892230735,19408.4985191256
561656555577,48287,-2,0,9058.8137815898,11776.3958608130,16449.5093349353,3253.0337456135,-4740.9483839102,-1804.3477618741,-4566.3541021978,-20201.8323519814,-6893.2314364363,-1488.2675015045,-4337.6500727138,1794.9664676236,-20637.6305813919,12015.8926373790,14868.0129403734,19401.7211119952
561656555577,48287,-2,0,9057.3779933647,11773.8163090865,16449.1443040306,3252.2915161073,-4745.4625994315,-1808.7281327303,-4571.5983795285,-20207.3564863390,-6898.3783721924,-1491.6987920086,-4344.1111197268,1789.9533765325,-20641.2808904388,12011.6339434909,14865.8349226421,19397.3529088358
561656555577,48287,-2,0,9054.6524292764,11770.9325649395,16440.7729286164,3245.8548044880,-4744.6716991380,-1817.1968497191,-4576.3194458958,-20204.8986115808,-6897.7699873512,-1490.8227178373,-4353.3464016154,1793.0074684351,-20637.0343642476,12016.9390593057,14869.9476041683,19402.8040370125
561656555577,48287,-2,0,9057.4144964552,11772.1249992282,16431.7566652706,3244.0539853582,-4736.5801807507,-1816.5032910002,-4573.8494034407,-20198.0116951790,-6889.4229473307,-1485.7244528685,-4352.6163398060,1801.6100300889,-20628.1032747796,12024.7993914534,14877.1022099001,19411.1389093362
561656555577,48287,-2,0,9060.6632715069,11777.1989288033,16438.8139294279,3250.1865045570,-4732.5405054055,-1806.4649411213,-4565.3076802710,-20195.3713049685,-6884.6532101761,-1480.6505232933,-4341.4707295162,1804.2260849058,-20626.3389587402,12027.1234215466,14878.1729672206,19413.4994425198
561656593569,48288,-2,0,9060.5415945387,11779.4864558060,16451.5291726079,3254.5060369291,-4732.7473562515,-1797.5216839564,-4560.2337506958,-20195.1887895161,-6886.1863399758,-1479.7744491221,-4331.4688827277,1800.2350803479,-20629.2348705841,12024.3005158836,14873.5249070342,19409.5814441429
561656593569,48288,-2,0,9061.3689979227,11780.0583375567,16454.2912397867,3256.9274085969,-4734.7550262273,-1799.8578817464,-4560.8908063243,-20199.1432909836,-6889.5932950862,-1483.2422427166,-4334.5229746303,1798.0570626166,-20631.9726023693,12021.1369147097,14872.6366651661,19406.0406443674
561656593569,48288,-2,0,9058.6434338343,11777.0407487446,16447.4529941722,3251.2329264837,-4735.2295664034,-1808.5942880653,-4566.7556361929,-20198.2428814187,-6887.0867495407,-1482.5000132104,-4344.2692997855,1800.0647325924,-20628.6143180461,12021.1247470128,14875.5690801004,19408.5106868224
561656593569,48288,-2,0,9059.4586695215,11773.8041413897,16443.4863250079,3247.5826174369,-4730.8856986376,-1811.1373367013,-4565.8552266280,-20194.7994232178,-6880.9907334324,-1478.5090086525,-4347.4694040499,1805.4185191945,-20624.5624750041,12024.3005158836,14879.9859540472,19414.4485228720
561656593569,48288,-2,0,9062.3789167590,11779.0605864172,16447.8058573801,3252.5227023470,-4726.5905016591,-1803.1188244950,-4561.1463279576,-20191.8183374962,-6878.3138401314,-1476.1728108625,-4339.0006870611,1807.0733259624,-20622.2506126077,12027.6953032972,14876.4816573622,19409.2407486318
561656593569,48288,-2,0,9063.5713510476,11780.1921822218,16454.3277428772,3256.7935639318,-4728.0871283683,-1796.1102311249,-4557.8853852090,-20195.3469695748,-6882.1831677210,-1478.7158594985,-4330.5684731628,1803.2161660695,-20626.8500020068,12023.2175908664,14873.5735778215,19409.1312393604
561656593569,48288,-2,0,9059.4830049151,11774.0474953262,16456.0068850387,3252.7538885866,-4737.4197518315,-1802.0237317809,-4564.3464322220,-20202.2703890671,-6889.5446242989,-1484.6050247608,-4336.3116260632,1795.5505170711,-20631.4128883154,12017.2797548168,14866.9786861435,19402.4025030173
561656593569,48288,-2,0,9055.9787082301,11772.1128315313,16448.8887823973,3245.6844567325,-4738.1376459441,-1811.4901999091,-4571.8295657681,-20206.2613936250,-6890.9074063431,-1488.7785447711,-4350.0611234732,1793.6401886699,-20631.3763852249,12015.8439665917,14867.2098723831,19401.4777580588
561656616821,48289,-2,0,9056.2342298634,11771.5896205679,16438.8504325184,3241.4014274508,-4735.0713863447,-1818.9124949711,-4574.6159683406,-20202.6354199717,-6887.2814326899,-1487.8903029030,-4356.1814749751,1798.0448949198,-20627.4340514543,12018.3870152277,14871.2495477283,19406.1623213356
561656616821,48289,-2,0,9059.7750296389,11776.1890099670,16442.5250769589,3245.6601213388,-4733.2218964276,-1814.2644347848,-4571.4401994698,-20202.4042337321,-6886.8068925138,-1484.8970494845,-4349.3797324511,1799.3711738735,-20629.0523551318,12018.0706551103,14870.9575230046,19407.0262278100
561656616821,48289,-2,0,9061.2594886513,11780.5572131265,16449.8135273559,3251.3667711488,-4737.2494040760,-1807.5600338353,-4568.1914244181,-20203.2924756002,-6891.5036234874,-1488.7663770742,-4342.9551885286,1794.6379398094,-20633.1285335674,12012.5221853590,14865.3360470724,19401.5872673302
561656616821,48289,-2,0,9055.7840250809,11776.4323639035,16449.8621981432,3251.5614542980,-4742.8830477050,-1809.5190330238,-4571.1360070492,-20208.4515790531,-6897.5996395957,-1494.7528839111,-4345.6564172233,1789.2233147232,-20637.1560412158,12008.7015285566,14860.7853284606,19395.4060773441
561656616821,48289,-2,0,9052.9732871148,11771.4801112965,16444.0703744554,3246.6578724783,-4747.2390831676,-1819.6912275678,-4579.0450099841,-20211.7855279826,-6899.4491295128,-1495.5802872951,-4355.1228853515,1787.3981601997,-20636.4016440128,12010.8430431975,14862.4157998348,19396.7201886010
561656616821,48289,-2,0,9051.7078466453,11768.7180441177,16436.3073838824,3242.0341476856,-4743.4305940621,-1825.9089206443,-4582.5736420628,-20209.2181439530,-6893.9858336393,-1492.8425555099,-4361.4622553963,1791.3526616672,-20630.2326217236,12016.1968297995,14867.9886049798,19401.8306212666
561656616821,48289,-2,0,9054.9931247874,11771.1637511791,16432.9856026497,3243.5064390012,-4741.5324333577,-1823.2198596465,-4579.6047240380,-20206.2248905345,-6890.6397170130,-1490.8713886246,-4356.4004935179,1794.4432566602,-20629.0645228286,12018.1923320785,14870.7993429459,19404.3493345090
561656616821,48289,-2,0,9056.1612236824,11776.8095625050,16443.4254865238,3247.6191205273,-4743.8321280572,-1817.4037005651,-4576.4776259545,-20208.4880821436,-6894.3508645440,-1492.5018599989,-4347.1165408420,1790.5617613737,-20634.4791479148,12013.1184025033,14865.1413639232,19401.6967766016
561656671088,48290,-2,0,9051.5496665866,11774.2786815658,16445.9198643725,3247.9354806447,-4750.0254857401,-1817.8660730444,-4579.9697549427,-20214.8761229756,-6900.5320545300,-1499.0480808896,-4348.2724720402,1784.7334345955,-20639.8085991232,12008.2634914710,14859.7510742306,19398.6426846990
561656671088,48290,-2,0,9049.2986426743,11770.7865525776,16437.4876504742,3241.8881353237,-4752.8970621903,-1826.9918456616,-4585.7372432367,-20214.9977999439,-6902.0286812393,-1500.5325399020,-4357.4590831415,1783.8086896369,-20638.1781277490,12010.8552108943,14863.7055756981,19398.7400262736
561656671088,48290,-2,0,9050.5884185375,11770.5797017316,16433.7399998528,3238.7001987561,-4745.9493073044,-1829.9120928991,-4587.1243606746,-20212.0532173127,-6895.1539325343,-1496.3225168013,-4362.7641989563,1788.9191223026,-20630.1109447553,12018.1801643817,14870.2761319825,19406.1014828515
561656671088,48290,-2,0,9053.8493612861,11771.2002542696,16434.3240493003,3239.8196268638,-4742.7978738273,-1828.2086153439,-4584.4474673735,-20210.7147706622,-6893.2922749204,-1494.4243560969,-4359.5884300855,1790.9389599752,-20627.6652376939,12019.6767910909,14872.1256218996,19408.3160036733
561656671088,48290,-2,0,9057.0859686410,11774.1083338103,16442.9509463477,3245.2585873437,-4746.0223134853,-1821.4068728198,-4581.2351954122,-20212.8441176062,-6895.7501496786,-1497.2472617598,-4351.5090793951,1787.3251540188,-20632.2281240025,12015.0043955109,14864.2409543583,19399.3727465084
561656671088,48290,-2,0,9054.0562121321,11772.5508686170,16447.8058573801,3244.6988732898,-4751.4247708747,-1821.3825374262,-4581.6610648010,-20216.7377805895,-6902.8195815328,-1501.3234401955,-4349.9272788081,1782.4702429864,-20639.1880465853,12009.3585841851,14862.4279675317,19401.1248948509
561656671088,48290,-2,0,9050.3693999947,11766.3940140246,16442.8657724700,3239.8682976511,-4755.3549369485,-1828.4276338867,-4586.6863235889,-20219.8162078857,-6904.0120158214,-1502.1995143668,-4356.2909842465,1784.0520435734,-20641.7919337054,12007.8619574758,14863.0850231601,19401.7941181762
561656671088,48290,-2,0,9049.4203196425,11766.2358339659,16432.3650501118,3234.8552065601,-4750.0498211337,-1833.7205820047,-4588.8156705329,-20213.4281670537,-6899.4978003001,-1499.1575901610,-4361.7907832105,1792.6546052272,-20634.2966324624,12015.4180972029,14870.6654982808,19408.9730593017
561656679569,48291,-2,0,9052.9489517212,11767.3674297704,16431.3916343659,3236.0719762424,-4744.0389789032,-1829.9242605959,-4582.6101451532,-20206.3465675027,-6892.2701883873,-1491.4067672848,-4355.4149100753,1798.7141182450,-20629.4538891269,12021.2950947684,14875.6664216750,19415.0812431068
561656679569,48291,-2,0,9055.2364787239,11771.6747944457,16441.1501272179,3242.6547002236,-4742.8587123114,-1820.1049292598,-4577.2441908543,-20207.2834801581,-6893.5234611600,-1491.1634133484,-4344.8168461425,1796.7307836629,-20632.2889624867,12018.0706551103,14873.7804286675,19411.2849216981
561656679569,48291,-2,0,9055.6866835064,11772.9889057026,16446.6255907883,3247.1202449576,-4748.4680205468,-1818.8273210934,-4578.4487928398,-20212.5520928824,-6900.2400298063,-1498.0990005374,-4344.3301382696,1789.9047057452,-20641.2443873483,12012.3031668162,14867.8790957084,19404.2763283281
561656679569,48291,-2,0,9052.2432253055,11769.5941182890,16442.8292693795,3242.4843524681,-4753.2134223077,-1828.1112737693,-4586.2117834128,-20217.1514822815,-6906.0805242813,-1503.6596379855,-4355.3175685007,1784.4170744781,-20644.5783362778,12008.9205470994,14864.6546560503,19401.5872673302
561656679569,48291,-2,0,9050.1017106646,11764.9217227090,16434.5552355399,3235.3175790393,-4753.6271239997,-1838.8066792766,-4594.2302956191,-20218.0153887559,-6905.4721394402,-1504.0733396775,-4366.3049987318,1785.3539871335,-20641.2078842579,12011.1472356180,14868.1832881289,19406.6490292085
561656679569,48291,-2,0,9054.0075413448,11768.0974915798,16431.0144357644,3234.6605234109,-4749.5266101704,-1838.3199714037,-4592.7580043036,-20213.5741794156,-6901.9313396647,-1502.3211913350,-4366.9255512698,1789.3693270850,-20632.2402916994,12012.9115516574,14868.7430021828,19408.3646744606
561656679569,48291,-2,0,9055.8813666555,11773.1957565486,16439.2397988167,3242.3991785903,-4748.0421511580,-1826.6511501505,-4585.5182246939,-20212.3209066428,-6900.5442222269,-1498.1233359311,-4354.6361774786,1790.7321091292,-20632.9460181151,12016.3915129487,14871.9187710536,19412.1001573852
561656679569,48291,-2,0,9048.2887238380,11768.5233609686,16445.7738520106,3245.0517364977,-4749.1615792657,-1819.1071781203,-4579.8724133681,-20213.6471855965,-6901.6149795473,-1497.7218019359,-4345.5347402550,1788.7122714566,-20637.1682089127,12013.9701412809,14870.2639642856,19410.2628351649
561656704312,48292,-2,0,9040.8907641697,11761.6364445668,16439.3006373008,3238.0066400372,-4751.9723172318,-1823.3050335242,-4582.4763004882,-20215.1438123057,-6904.9489284768,-1500.8854031099,-4352.8718614393,1786.4612475443,-20638.9811957393,12012.2179929384,14869.7407533223,19408.3160036733
561656704312,48292,-2,0,9042.1197015488,11757.1587321359,16431.2942927913,3231.2779036941,-4750.8407214272,-1832.0779429336,-4588.9495151980,-20215.6061847850,-6902.9169231073,-1500.6663845671,-4363.2387391324,1787.9335388599,-20636.0852838954,12014.6028615157,14872.5393235915,19409.5206056587
561656704312,48292,-2,0,9050.7344308994,11763.7414561171,16430.7345787375,3230.5721772784,-4748.5166913341,-1835.7890904646,-4592.5146503671,-20216.5430974404,-6900.6658991951,-1500.3865275402,-4367.4730976268,1786.5950922094,-20635.1362035432,12014.9192216331,14872.1742926868,19410.4575183141
561656704312,48292,-2,0,9060.6876069006,11772.3683531646,16439.0937864549,3237.2765782278,-4751.2909262097,-1832.2969614764,-4591.6142408022,-20219.5485185556,-6905.3747978656,-1506.2756928025,-4364.0539748196,1780.7180946439,-20638.6161648346,12010.8187078038,14867.1368662022,19404.1059805725
561656704312,48292,-2,0,9062.5127614240,11774.8262279228,16446.8446093311,3241.4500982381,-4756.2310111198,-1828.2816215248,-4591.4925638340,-20225.2064975783,-6911.1179507660,-1510.0355111207,-4360.3428272886,1774.8897678657,-20642.4854924243,12005.9637967715,14857.6460626803,19395.1748911045
561656704312,48292,-2,0,9058.7164400153,11770.1538323428,16449.4606641480,3238.7488695434,-4757.7276378290,-1831.6034027575,-4593.6097430812,-20227.0924905859,-6912.2373788737,-1511.2036100158,-4363.3847514943,1775.1817925895,-20642.2543061846,12005.4527535049,14860.6758191892,19399.3849142052
561656704312,48292,-2,0,9055.0296278779,11762.9262204300,16441.3934811544,3232.9083750684,-4753.2134223077,-1836.8476800881,-4595.3253883332,-20222.9433059692,-6907.0174369367,-1508.4050397465,-4369.5172706931,1782.8717769816,-20635.4647313574,12013.2887502589,14868.5969898209,19406.9410539323
561656704312,48292,-2,0,9058.2540675360,11761.2349105716,16437.1104518727,3231.0832205450,-4744.2214943556,-1833.4528926745,-4589.6187385233,-20214.0365518948,-6896.1151805833,-1499.0967516769,-4366.0129740080,1791.6203509973,-20627.0446851560,12021.5749517953,14876.4329865749,19415.7504664321
561656738155,48293,-2,0,9062.4154198494,11767.9271438242,16446.3944045486,3240.2333285558,-4738.4905091519,-1822.2951146879,-4582.6831513342,-20211.3109878065,-6892.2701883873,-1493.5969527130,-4353.8574448819,1792.9344622541,-20626.9960143687,12021.9643180936,14876.1531295480,19416.1398327304
561656738155,48293,-2,0,9060.6876069006,11770.2755093111,16454.2060659089,3244.5650286248,-4740.6441914896,-1814.9944965941,-4577.7187310304,-20215.9833833865,-6895.5189634390,-1494.9597347571,-4346.6785037564,1788.9069546058,-20632.6174903009,12015.1260724791,14868.9255176351,19410.0559843190
561656738155,48293,-2,0,9056.5019191935,11767.4039328609,16455.3863325008,3243.9688114805,-4742.8587123114,-1816.3329432447,-4578.8259914413,-20216.0807249611,-6898.7312354002,-1496.9065662488,-4349.7569310526,1786.4977506348,-20635.8784330494,12010.1129813881,14866.3703013023,19406.2109921229
561656738155,48293,-2,0,9053.4478272909,11763.4129283029,16450.3610737129,3236.7777026581,-4741.3864209958,-1823.3172012210,-4582.8048283024,-20213.2578192982,-6895.9813359183,-1496.3346844981,-4356.8385306035,1788.7852776375,-20635.3673897829,12011.5487696132,14869.5217347794,19409.7882949888
561656738155,48293,-2,0,9053.1192994767,11761.9528046842,16441.4786550321,3233.8331200269,-4737.0790563205,-1825.3857096809,-4582.3667912168,-20207.5998402755,-6891.3454434287,-1493.0372386591,-4357.3739092638,1797.0228083867,-20630.0136031808,12018.8615554038,14876.2991419098,19418.6098751855
561656738155,48293,-2,0,9056.6114284649,11767.4647713450,16445.3844857123,3238.1891554896,-4733.9884613275,-1818.1215946776,-4575.0418377294,-20203.5236618398,-6889.6176304799,-1490.9808978960,-4348.7105091258,1799.2373292084,-20629.1496967063,12020.5893683526,14876.3234773035,19418.8045583347
561656738155,48293,-2,0,9056.1247205920,11769.9226461032,16455.4836740754,3244.4555193534,-4738.3079936996,-1811.7822246329,-4572.8394846044,-20207.9040326961,-6893.3531134045,-1493.6091204098,-4342.1034497510,1794.6866105967,-20635.4525636606,12014.6393646062,14871.1278707601,19414.8865599577
561656738155,48293,-2,0,9055.0539632716,11767.4647713450,16458.2700766478,3244.2851715978,-4743.6982833922,-1814.2035963007,-4576.6844768005,-20215.2533215771,-6898.8042415812,-1498.6952176818,-4346.8975222992,1789.5640102342,-20638.3971462918,12010.8430431975,14866.3824689991,19410.3115059522
561656808637,48294,-2,0,9054.1778891003,11765.1407412518,16450.3610737129,3238.9313849958,-4741.4959302672,-1822.9156672259,-4582.1721080676,-20212.6616021539,-6897.0642609355,-1500.1188382101,-4356.2058103688,1791.1579785180,-20633.7734214991,12013.7632904350,14868.9011822415,19412.6477037422
561656808637,48294,-2,0,9057.7673596631,11766.5156909928,16446.2362244899,3236.9967212009,-4734.7306908337,-1824.4853001160,-4581.1743569281,-20207.0036231312,-6888.9727425482,-1492.3315122434,-4355.7434378895,1797.7528701960,-20626.7404927354,12019.1292447339,14876.1287941543,19419.1939246330
561656808637,48294,-2,0,9062.1355628225,11772.4413593456,16451.6630172729,3243.8836376027,-4729.9487859822,-1816.3207755478,-4573.7520618661,-20202.7205938495,-6884.7262163570,-1489.2287495535,-4348.3211428275,1801.1598253065,-20625.3047045103,12021.5992871889,14876.4573219685,19419.9239864424
561656808637,48294,-2,0,9063.5591833508,11777.6491335858,16459.7910387507,3250.8557278822,-4733.9519582370,-1809.3121821778,-4571.3306901984,-20206.8454430725,-6889.0214133355,-1493.5117788352,-4343.1863747682,1794.5040951443,-20632.8486765405,12014.3716752761,14869.8015918064,19412.4651882899
561656808637,48294,-2,0,9055.7475219905,11772.8550610375,16462.3219196898,3247.8503067670,-4743.0290600669,-1815.1770120465,-4577.7674018177,-20214.4624212836,-6898.7555707939,-1500.9462415940,-4349.0390369400,1786.5950922094,-20639.3097235535,12008.6528577693,14862.5374768031,19407.9266373749
561656808637,48294,-2,0,9051.6591758580,11764.8122134376,16452.2348990236,3239.6371114115,-4747.7866295247,-1827.4542181408,-4586.3212926842,-20217.3826685212,-6901.6514826378,-1504.5965506409,-4360.0264671712,1787.0331292950,-20637.0830350349,12009.4437580628,14865.3603824660,19408.5715253066
561656808637,48294,-2,0,9055.3581556921,11765.1407412518,16443.5471634920,3236.1449824233,-4743.4305940621,-1833.0270232857,-4588.6818258679,-20212.3087389460,-6895.8839943437,-1501.2869371051,-4364.2364902719,1794.5892690221,-20626.4241326180,12020.2000020543,14877.6254208635,19419.0844153616
561656808637,48294,-2,0,9061.0769731989,11770.2390062206,16446.6012553946,3242.3991785903,-4737.3467456506,-1826.7363240283,-4582.7683252119,-20207.8066911215,-6889.8853198100,-1494.3270145223,-4353.8087740946,1799.3103353894,-20622.2992833950,12029.0459176446,14883.3442383703,19423.8298171225
561656822298,48295,-2,0,9063.4375063826,11777.3936119525,16458.5621013716,3249.3225980825,-4739.4882602914,-1817.0630050540,-4578.1080973288,-20210.2280627893,-6893.6451381283,-1495.1544179063,-4345.2792186218,1795.4166724060,-20625.3777106912,12028.0359988083,14882.2978164435,19420.7757252200
561656822298,48295,-2,0,9058.5217568661,11774.1691722944,16458.9392999731,3248.3126792462,-4745.4139286442,-1820.4334570740,-4583.2793684785,-20214.9126260661,-6900.1548559285,-1502.4672036969,-4348.4671551894,1790.1480596817,-20631.5832360709,12022.1590012428,14878.4771596411,19416.0424911558
561656822298,48295,-2,0,9051.9512005817,11766.4061817214,16450.4219121970,3238.8583788148,-4750.8528891241,-1833.0270232857,-4591.6872469832,-20219.9500525508,-6905.1314439291,-1507.5289655752,-4360.0264671712,1787.4589986838,-20632.4714779390,12020.9543992573,14879.3288984187,19418.0014903443
561656822298,48295,-2,0,9050.0287044837,11762.7072018872,16440.6755870418,3230.4748357038,-4750.0863242242,-1841.6174172427,-4596.0067793553,-20218.1005626337,-6903.0872708629,-1506.5190467389,-4367.1810729031,1791.5595125132,-20629.0888582222,12024.5317021233,14883.1252198275,19423.1727614941
561656822298,48295,-2,0,9052.9489517212,11763.3642575156,16437.6214951393,3231.4969222369,-4749.5144424735,-1841.8851065728,-4593.8896001081,-20216.3119112007,-6901.3594579140,-1506.7989037658,-4365.1368998368,1793.1534807970,-20629.7824169411,12025.7363041087,14884.3663249034,19425.5697977682
561656822298,48295,-2,0,9051.6470081611,11764.6783687725,16443.2186356778,3234.3441632935,-4755.4401108263,-1836.0811151883,-4592.6606627290,-20220.6314435729,-6907.3581324477,-1509.4027908860,-4358.7001882175,1786.4125767571,-20634.8563465163,12019.5307787290,14876.4573219685,19419.8996510487
561656822298,48295,-2,0,9047.6803389969,11761.4539291144,16446.7229323628,3233.8209523301,-4762.9962505534,-1838.1496236482,-4597.1140397662,-20227.7130431238,-6914.6952536319,-1515.7543286275,-4360.8903736456,1777.7735120128,-20642.9722002972,12011.6582788846,14868.2441266130,19412.8910576787
561656822298,48295,-2,0,9040.9272672601,11754.2628202921,16436.2830484888,3226.6420112046,-4768.7272357570,-1848.5043336445,-4605.2055581534,-20231.8500600436,-6919.5745000579,-1521.8016739485,-4374.2626724540,1774.1475383595,-20645.4179073586,12005.2215672653,14862.7443276491,19410.9077230966
561656834349,48296,-2,0,9037.2039520323,11748.3614873329,16424.6750657197,3219.6334178346,-4767.8511615857,-1857.0460568142,-4610.8026986920,-20229.5625330409,-6918.0535379551,-1522.2032079437,-4382.5975447777,1778.7590954554,-20643.7387651970,12009.5532673342,14868.2806297035,19416.0789942463
561656834349,48296,-2,0,9040.7812548982,11751.3547407514,16425.6119783750,3220.8988583042,-4761.6456362060,-1853.6634370975,-4606.5561725008,-20224.9023051577,-6911.1666215533,-1516.5087258306,-4376.2703424298,1783.6626772751,-20637.3263889714,12013.6537811636,14872.5758266820,19421.7613086626
561656834349,48296,-2,0,9044.1882100087,11760.0181408893,16434.2753785130,3227.8709485837,-4760.2341833745,-1843.8927765486,-4599.4259021625,-20225.2186652751,-6911.1179507660,-1515.7908317180,-4366.2684956413,1782.2512244436,-20639.9059406978,12011.4757634322,14869.2418777525,19418.2935150681
561656834349,48296,-2,0,9041.7911737346,11758.6796942388,16441.2718041862,3227.4085761044,-4767.4009568033,-1842.7733484409,-4601.7255968621,-20232.8721465768,-6919.0999598819,-1522.4952326674,-4368.1301532552,1773.5391535184,-20647.3160680630,12004.7226916955,14860.7001545828,19408.6566991843
561656834349,48296,-2,0,9037.2404551228,11751.2573991768,16436.6237439998,3219.2318838394,-4772.5478925594,-1853.3592446769,-4610.3524939095,-20240.0997584896,-6924.0035417015,-1528.2627209615,-4378.5943725230,1767.4066343196,-20650.8933709289,11999.9529545409,14857.4270441374,19403.1690679172
561656834349,48296,-2,0,9035.7924992008,11746.0861280271,16428.8729211236,3213.3913893644,-4770.4307133122,-1860.9397197976,-4615.4507588784,-20236.8631511347,-6921.4483253687,-1528.3235594456,-4388.1216791353,1771.3368003934,-20646.4886646790,12004.4063315781,14860.8826700352,19406.9045508418
561656834349,48296,-2,0,9040.2458762380,11750.9167036658,16427.7534930159,3216.4211458733,-4763.2031013993,-1858.4088388584,-4610.0483014890,-20230.5237810899,-6915.5713278032,-1522.9819405404,-4383.5222897363,1777.1164563843,-20641.4390704975,12011.3054156767,14865.7497487643,19411.6499526028
561656834349,48296,-2,0,9044.1030361309,11756.4165026297,16438.1447061027,3224.6100058352,-4761.2806053013,-1847.0563777226,-4603.3925713268,-20229.3313468013,-6913.5028193433,-1518.3095449603,-4371.0869035832,1777.3598103208,-20641.0010334119,12010.9890555593,14864.8250038058,19411.7107910869
561656870944,48297,-2,0,9044.6019117007,11758.1808186691,16444.5449146315,3227.8344454932,-4763.5437969104,-1840.5709953160,-4599.5962499181,-20231.4728614421,-6916.9827806347,-1520.4267242075,-4367.2662467808,1774.5004015674,-20643.9577837399,12006.2193184047,14860.0552666512,19405.9676381864
561656870944,48297,-2,0,9042.0466953678,11756.4165026297,16441.7220089686,3226.7636881728,-4766.2936963924,-1846.6061729401,-4603.8062730188,-20234.0889162591,-6920.5844188943,-1523.5294868974,-4374.1166600921,1771.9816883250,-20647.0118756424,12003.3964127418,14857.5852241961,19402.8892108902
561656870944,48297,-2,0,9038.7492495288,11752.6810197051,16432.6814102292,3219.4752377759,-4765.9286654877,-1854.5881820560,-4608.0041284227,-20233.8942331099,-6918.7470966740,-1521.7651708581,-4383.2789357998,1772.5900731662,-20643.9577837399,12006.1341445270,14859.3617079323,19405.8581289150
561656870944,48297,-2,0,9041.8885153091,11754.8347020428,16427.9725115587,3219.0615360839,-4760.1611771936,-1854.9167098702,-4604.5606702218,-20229.6112038282,-6912.9431052894,-1516.3870488623,-4382.2933523571,1777.6883381350,-20637.3628920618,12008.8718763121,14862.6713214681,19408.8027115462
561656870944,48297,-2,0,9047.6681713000,11760.2493271290,16438.9721094866,3227.6884331314,-4756.7420543864,-1841.2280509444,-4597.8806046660,-20228.5891172951,-6910.8624291327,-1513.2112799915,-4371.5979468498,1777.2746364430,-20640.5508286294,12006.3896661603,14856.2711129393,19402.8648754966
561656870944,48297,-2,0,9046.0620353194,11759.8964639211,16449.0469624560,3230.9980466672,-4759.7474755016,-1833.7449173983,-4596.1892948076,-20233.3223513592,-6916.8367682728,-1515.2919561483,-4366.5605203651,1771.4706450585,-20647.8757821168,11996.7771856701,14848.8853209677,19396.7323562978
561656870944,48297,-2,0,9043.5433220771,11755.4917576712,16447.4773295659,3226.8853651410,-4762.7285612232,-1838.6119961275,-4601.2753920796,-20237.4593682790,-6920.1220464150,-1519.0761098602,-4372.5470272020,1768.9032610288,-20653.2052333253,11994.7451803007,14849.5788796866,19396.8175301756
561656870944,48297,-2,0,9044.3098869769,11752.9608767320,16438.9356063962,3223.7947701480,-4758.7618920590,-1844.7810184167,-4603.4534098109,-20231.9960724055,-6914.5735766637,-1516.8250859479,-4378.8377264594,1775.2669664672,-20646.1601368648,11999.3202343061,14856.8794977804,19403.7531173647
561656899595,48298,-2,0,9046.6582524637,11753.0582183066,16435.1392849874,3223.2593914878,-4752.9092298871,-1844.3916521184,-4601.0198704464,-20224.4155972848,-6907.0539400271,-1509.9625049398,-4375.9783177060,1782.7257646197,-20637.0100288540,12007.0953925760,14865.2022024073,19411.8568034487
561656899595,48298,-2,0,9048.4347361999,11758.6918619356,16441.8923567241,3227.7857747059,-4751.8263048699,-1836.7138354231,-4595.0455313063,-20222.7851259105,-6905.6668225893,-1509.5366355510,-4367.4487622332,1782.6770938324,-20637.9834445998,12008.4825100138,14864.3991344170,19408.3403390669
561656899595,48298,-2,0,9046.7920971288,11759.7747869529,16445.8711935852,3232.2269840463,-4755.9633217897,-1831.6155704543,-4592.7336689099,-20227.0559874954,-6911.6168263357,-1515.0729376054,-4363.4699253721,1777.3233072303,-20644.3471500382,12004.1386422480,14859.6537326560,19403.3394156727
561656899595,48298,-2,0,9039.9051807270,11757.4385891629,16446.5160815168,3227.9926255519,-4761.1102575458,-1837.3830587484,-4597.4182321868,-20231.3633521707,-6916.9827806347,-1519.3437991903,-4369.3955937248,1774.5855754452,-20648.5815085326,12000.5613393821,14856.0034236092,19399.7377774131
561656899595,48298,-2,0,9036.7415795530,11753.3502430304,16438.9477740930,3220.1809641916,-4761.8646547488,-1847.7012656542,-4603.6115898696,-20231.5458676231,-6916.4352342776,-1520.2807118457,-4380.0544961417,1776.9217732352,-20647.4012419407,12001.8511152453,14855.7113988854,19399.5795973544
561656899595,48298,-2,0,9037.4351382719,11751.8171132307,16428.1915301015,3215.6545809735,-4757.3261038339,-1851.3150716106,-4603.8306084124,-20227.6278692461,-6909.8525102964,-1517.8958432684,-4381.7093029096,1782.0808766881,-20642.3516477592,12007.8376220822,14867.0516923244,19409.1555747541
561656899595,48298,-2,0,9039.3332989763,11754.6643542872,16432.5840686546,3219.9862810424,-4755.3914400390,-1845.4867448324,-4601.4579075320,-20227.5913661556,-6909.5726532695,-1517.4943092732,-4374.2870078476,1782.2390567468,-20644.9798702730,12007.4482557839,14866.9178476593,19410.4210152236
561656899595,48298,-2,0,9041.7059998568,11758.1321478818,16441.3934811544,3226.5081665395,-4759.4919538683,-1840.4858214382,-4599.8396038545,-20230.9374827819,-6913.5028193433,-1519.6844947013,-4367.5461038077,1776.7149223892,-20651.6234327383,12001.1453888296,14862.8416692237,19404.8482100787
561656939511,48299,-2,0,9038.8465911034,11756.2948256615,16440.3348915308,3225.5712538842,-4763.7749831500,-1842.6395037759,-4602.6625095174,-20232.9208173641,-6918.4550719502,-1523.7850085307,-4371.0990712800,1773.0889487359,-20655.2980771788,11998.1643031079,14858.8628323626,19399.9446282591
561656939511,48299,-2,0,9039.0534419494,11751.4764177196,16433.5939874909,3218.6356666951,-4764.4685418689,-1850.8161960409,-4605.8261106914,-20232.9451527577,-6917.0922899061,-1520.7430843249,-4379.5434528752,1776.0822021544,-20651.3435757114,11998.4319924381,14859.2643663577,19402.8040370125
561656939511,48299,-2,0,9038.8587588002,11749.3957415629,16425.1009351085,3214.2187927484,-4759.2120968414,-1852.4953382025,-4603.9766207743,-20225.2916714561,-6911.6289940326,-1513.4181308375,-4380.8818995257,1782.6892615292,-20645.5274166300,12003.3842450450,14864.1192773901,19409.0460654826
561656939511,48299,-2,0,9040.9637703506,11753.5692615732,16425.6606491623,3217.9542756730,-4755.3306015549,-1844.5254967834,-4597.9901139374,-20221.3493376854,-6908.2707097094,-1509.2932816145,-4371.1355743705,1786.4004090602,-20643.6900944098,12006.3409953730,14866.7109968133,19410.0073135317
561656939511,48299,-2,0,9042.0101922774,11756.0514717250,16438.6922524597,3224.8168566811,-4757.5694577703,-1835.0103578679,-4594.9238543381,-20224.7684604927,-6912.0913665118,-1509.3541200987,-4363.6037700371,1781.2899763946,-20648.9465394373,12003.4937543164,14862.9876815855,19406.5760230276
561656939511,48299,-2,0,9035.9263438659,11750.1379710691,16442.2208845383,3222.3954850134,-4763.1544306121,-1838.3443067974,-4599.5962499181,-20231.9108985277,-6917.9440286837,-1513.5519755026,-4366.7065327270,1773.9771906040,-20651.3314080146,12001.2427304042,14859.2887017514,19402.7918693157
561656939511,48299,-2,0,9031.2174451954,11743.0442038213,16432.9490995593,3215.0218607387,-4767.0480935954,-1850.4146620457,-4607.9311222418,-20232.8478111831,-6920.0977110213,-1518.4190542318,-4378.2658447088,1774.2935507214,-20648.3624899898,12000.7438548344,14863.3648801870,19404.3736699026
561656939511,48299,-2,0,9032.8235811760,11745.7941033033,16427.5466421699,3213.8415941468,-4762.1566794726,-1853.5174247356,-4609.5129228288,-20230.4021041217,-6916.2040480380,-1515.0851053023,-4384.1306745774,1778.9537786046,-20646.2696461362,12007.4482557839,14868.0981142512,19411.4309340599
561656959545,48300,-2,0,9034.2837047948,11749.8946171326,16429.4326351774,3215.4598978243,-4760.6722204602,-1848.9180353365,-4607.1767250388,-20228.4674403269,-6914.2693842431,-1514.0143479819,-4377.0734104201,1781.1074609422,-20646.4034908013,12008.9205470994,14869.2540454493,19412.6112006518
561656959545,48300,-2,0,9035.6221514453,11752.4011626782,16437.2686319314,3224.3301488082,-4762.1931825630,-1840.6318338001,-4602.6260064270,-20229.7572161901,-6916.5690789427,-1516.4478873464,-4368.0693147711,1777.6031642572,-20648.3746576866,12005.9759644683,14866.5649844515,19407.2209109592
561656959545,48300,-2,0,9032.1421901540,11749.1402199296,16442.3182261129,3223.3932361529,-4766.9507520208,-1840.6561691937,-4604.7918564615,-20235.5247044842,-6920.3045618673,-1519.1856191316,-4369.7362892359,1771.7261666918,-20651.5139234669,12002.5081708737,14861.4180486954,19401.4655903620
561656959545,48300,-2,0,9025.7906524124,11740.4646520949,16435.4434774080,3216.2021273305,-4770.1265208916,-1850.9378730091,-4612.1654807362,-20237.7148899123,-6921.2049714322,-1520.5362334789,-4379.5069497847,1771.7261666918,-20648.9587071341,12003.9926298861,14863.0363523728,19401.2222364255
561656959545,48300,-2,0,9025.7541493219,11739.8197641632,16426.8409157542,3211.5418994473,-4763.8601570278,-1855.5250947114,-4612.9442133328,-20232.7869726990,-6915.9728617984,-1518.4433896254,-4385.8463198294,1777.5058226827,-20641.0375365024,12012.2058252416,14870.9696907014,19408.4376806415
561656959545,48300,-2,0,9031.9475070048,11745.6237555478,16427.3762944144,3216.0196118782,-4759.5041215652,-1852.3006550533,-4606.1668062025,-20228.4066018427,-6910.4730628344,-1516.6547381924,-4378.8620618531,1782.7014292261,-20636.0122777145,12016.0264820440,14876.3599803939,19410.0681520158
561656959545,48300,-2,0,9036.0601885309,11749.9919587072,16438.3272215550,3221.8479386563,-4760.7208912475,-1844.4159875120,-4599.5232437371,-20229.3313468013,-6913.7583409766,-1518.1026941144,-4371.1599097642,1779.0267847855,-20639.6260836709,12012.4735145717,14871.0913676696,19404.8238746851
561656959545,48300,-2,0,9035.7194930199,11750.2474803405,16441.7585120591,3223.3810684560,-4767.4982983778,-1844.3794844215,-4601.1415474146,-20234.1740901368,-6919.6110031484,-1526.7295911618,-4373.5934491287,1773.9528552104,-20645.6490935982,12006.7181939745,14866.2121212436,19398.6305170022
561657015466,48301,-2,0,9033.5171398950,11745.1857184622,16436.2587130951,3219.4752377759,-4768.9219189061,-1853.0672199531,-4608.2839854496,-20237.4593682790,-6922.7746043224,-1531.5966698910,-4384.5930470567,1770.5824031904,-20648.2164776279,12004.1386422480,14864.9831838645,19396.9635425375
561657015466,48301,-2,0,9032.7019042078,11741.6205832930,16430.6129017693,3214.7906744990,-4766.8899135367,-1859.6986147216,-4611.1433942030,-20234.5269533447,-6919.3919846056,-1529.9296954263,-4391.4921311553,1775.4616496164,-20644.8095225175,12009.5532673342,14868.4023066717,19402.0131367190
561657015466,48301,-2,0,9036.3643809515,11746.7918544428,16429.0311011823,3218.1611265190,-4760.4045311301,-1855.1843992003,-4607.4444143689,-20229.0879928648,-6914.9629429621,-1526.1455417143,-4385.5056243184,1779.6108342330,-20641.4390704975,12013.4712657112,14870.6533305840,19404.8238746851
561657015466,48301,-2,0,9038.4207217146,11749.4565800470,16435.8085083127,3224.5856704415,-4760.8790713062,-1845.8882788276,-4601.8229384367,-20229.6842100091,-6914.0016949130,-1525.2329644526,-4375.9174792219,1777.7613443159,-20644.4444916128,12010.2833291436,14866.1147796690,19399.7621128067
561657015466,48301,-2,0,9034.7217418804,11747.8991148537,16441.3691457607,3224.9020305589,-4765.9408331845,-1843.1262116488,-4602.5530002460,-20234.7946426748,-6917.2017991775,-1527.3623113966,-4373.3744305859,1771.8843467505,-20650.0172967577,12005.4040827176,14860.0430989544,19394.4691646888
561657015466,48301,-2,0,9028.8934151022,11741.6935894740,16434.7255832954,3219.8159332869,-4767.8511615857,-1849.8184449014,-4608.3934947211,-20236.7901449537,-6918.9052767327,-1529.0414535582,-4382.5245385968,1771.0447756697,-20647.9366206010,12003.0070464435,14859.0575155117,19390.5633340086
561657015466,48301,-2,0,9027.6279746326,11735.0378593118,16420.3433656507,3212.1137811980,-4765.8921623972,-1856.5106781540,-4611.1920649903,-20234.6607980097,-6913.1864592259,-1525.1234551812,-4388.5597162210,1776.1673760321,-20640.3318100866,12010.4901799896,14866.7596676006,19397.4745858040
561657015466,48301,-2,0,9028.7960735277,11734.9648531309,16418.2140187067,3211.0308561807,-4760.5992142792,-1853.1402261341,-4609.0018795622,-20229.9032285520,-6908.2342066190,-1518.2730418699,-4383.9968299124,1781.4238210596,-20633.7612538022,12017.4744379660,14872.8678514058,19404.2033221471
561657026758,48302,-2,0,9029.5504707307,11740.2699689457,16424.9549227466,3216.6644998098,-4761.7308100838,-1844.4281552088,-4603.2952297522,-20230.7427996327,-6909.9498518710,-1517.6038185446,-4374.5303617841,1779.6473373235,-20636.0609485018,12014.7367061808,14870.1301196206,19401.0518886700
561657026758,48302,-2,0,9027.3237822121,11739.2113793221,16433.1437827084,3221.4707400548,-4766.1963548178,-1840.7413430715,-4602.2123047350,-20232.9938235450,-6914.8290982970,-1520.1225317870,-4369.1279043947,1776.5567423305,-20641.2687227420,12008.2999945615,14866.2607920309,19398.2776537943
561657026758,48302,-2,0,9027.0317574883,11735.9017657863,16436.9036010267,3219.5482439568,-4768.7150680601,-1845.7544341625,-4606.2398123834,-20234.6242949193,-6918.5889166153,-1523.0792821149,-4375.1144112316,1775.3886434355,-20643.0938772654,12005.3067411430,14865.8470903389,19399.5674296576
561657026758,48302,-2,0,9028.5040488039,11733.0180216392,16431.6471559992,3215.2408792815,-4767.0724289890,-1852.5075058993,-4609.9996307017,-20230.7671350264,-6915.5226570159,-1520.6457427504,-4382.2081784794,1779.3918156902,-20638.5674940473,12010.3441676277,14870.6898336745,19403.9478005138
561657026758,48302,-2,0,9034.9164250296,11736.5101506274,16429.2866228156,3217.3458908319,-4763.2274367930,-1851.2785685202,-4606.2884831707,-20225.0604852164,-6910.4122243503,-1516.0706887449,-4379.6042913593,1785.2201424684,-20634.6859987608,12016.6835376725,14875.8489371274,19409.4232640842
561657026758,48302,-2,0,9038.8709264970,11743.7864333275,16438.0960353154,3225.2792291604,-4763.9088278151,-1842.2866405680,-4601.8594415271,-20224.4399326785,-6910.5947398026,-1514.8904221531,-4370.3568417738,1783.1881370990,-20640.3561454803,12012.7655392955,14872.1742926868,19407.5251033798
561657026758,48302,-2,0,9034.7825803645,11743.2023838800,16442.9631140445,3227.5667561631,-4770.0900178011,-1840.8995231302,-4600.8251872972,-20229.7207130996,-6916.0458679793,-1518.5894019873,-4367.2905821745,1777.3476426240,-20647.3890742439,12005.0877226002,14865.9322642167,19401.7697827825
561657026758,48302,-2,0,9027.8104900850,11735.4637287006,16435.6381605571,3221.9939510182,-4774.4460532637,-1847.5552532923,-4605.8261106914,-20232.1420847674,-6920.4749096228,-1522.8602635721,-4374.4208525127,1775.3278049514,-20649.0073779214,12003.6884374656,14865.6645748866,19401.2587395160
561657052940,48303,-2,0,9026.5693850091,11732.3853014044,16428.7269087617,3216.2386304210,-4771.5501414199,-1854.9897160512,-4610.2794877286,-20230.0979117011,-6915.8876879206,-1519.1004452538,-4381.1130857653,1779.2944741156,-20640.7576794754,12011.3419187672,14871.6875848139,19409.2772517223
561657052940,48303,-2,0,9030.3657064178,11732.8111707932,16425.3321213481,3215.9222703036,-4764.6145542308,-1854.2353188481,-4606.6535140754,-20224.1357402579,-6908.1490327412,-1514.3307080992,-4378.7768879753,1786.6559306935,-20630.3299632982,12020.6380391399,14878.7205135776,19416.7482175716
561657052940,48303,-2,0,9035.6708222326,11740.6106644567,16434.0076891829,3222.6145035562,-4760.6843881570,-1844.2091366660,-4598.8053496246,-20221.8360455584,-6906.2022012495,-1515.7543286275,-4368.7020350059,1787.2521478378,-20629.4295537333,12022.3415166951,14879.6817616266,19416.5048636351
561657052940,48303,-2,0,9034.8677542423,11741.9369434104,16446.0415413407,3227.8466131901,-4762.4122011059,-1836.9815247532,-4595.6052453601,-20225.7053731480,-6909.2806285457,-1519.0761098602,-4363.1535652547,1782.2998952309,-20637.3872274555,12016.2941713741,14874.6808382324,19412.4651882899
561657052940,48303,-2,0,9030.6333957479,11736.7900076543,16444.7517654775,3224.3544842019,-4766.6343919034,-1842.9923669837,-4598.7931819278,-20228.0415709381,-6912.3590558419,-1525.4763183891,-4368.1423209521,1779.4769895680,-20639.1758788884,12011.4635957354,14871.1035353664,19409.0825685731
561657052940,48303,-2,0,9030.4265449019,11732.9206800646,16434.7134155986,3218.9155237220,-4763.9088278151,-1849.5872586618,-4604.2686454981,-20227.1168259795,-6909.6943302377,-1527.0824543697,-4377.9494845914,1782.6405907419,-20635.4282282670,12012.1084836670,14872.0404480218,19412.4043498058
561657052940,48303,-2,0,9034.1985309170,11733.7237480550,16428.4957225221,3216.3359719956,-4759.4797861715,-1851.1203884615,-4603.8427761093,-20223.1744922089,-6904.1580281833,-1522.6412450293,-4377.5357828994,1788.7852776375,-20631.9847700661,12015.8804696822,14875.9219433083,19414.9473984418
561657052940,48303,-2,0,9037.1917843355,11734.9891885245,16433.4479751290,3217.9907787635,-4760.8182328220,-1845.2555585928,-4600.0221193069,-20222.0063933139,-6902.9655938946,-1521.9111832199,-4369.9188046882,1788.9921284835,-20635.1970420273,12018.9832323720,14879.2802276314,19419.2790985107
561657085560,48304,-2,0,9036.7294118562,11737.3253863145,16440.4200654086,3223.7217639671,-4765.0160882260,-1840.7535107683,-4599.1582128324,-20224.9023051577,-6908.4775605554,-1526.0968709270,-4365.0517259590,1784.0155404829,-20640.5264932358,12014.8097123617,14875.3257261640,19413.7792995468
561657085560,48304,-2,0,9031.5338053128,11732.0689412870,16438.6435816724,3220.9231936978,-4770.6375641582,-1843.6007518249,-4604.1956393171,-20231.6310415008,-6913.8070117639,-1530.1487139691,-4370.6366988008,1778.4183999444,-20644.3106469477,12010.0886459944,14871.0913676696,19411.1267416394
561657085560,48304,-2,0,9028.5162165007,11728.5281415116,16430.0045169281,3214.4743143816,-4771.5379737231,-1852.3493258406,-4610.6810217238,-20232.0934139801,-6914.4762350891,-1530.7692665070,-4380.7602225575,1778.5279092158,-20641.8649398863,12011.8407943369,14870.6776659776,19410.9320584902
561657085560,48304,-2,0,9032.7019042078,11732.0202704997,16424.3222025118,3214.9488545577,-4763.6776415754,-1852.1059719041,-4608.7950287162,-20225.4133484243,-6907.7353310492,-1525.7561754160,-4381.4781166700,1785.7676888254,-20635.0145265750,12018.3870152277,14877.3577315334,19416.9915715080
561657085560,48304,-2,0,9041.3653043458,11742.9346945499,16437.3659735060,3226.4351603586,-4755.3671046454,-1839.1838778782,-4598.2821386612,-20219.2564938319,-6901.9921781488,-1519.6844947013,-4370.0161462628,1789.8073641707,-20632.1429501248,12019.3239278830,14876.7128436018,19415.5679509797
561657085560,48304,-2,0,9043.2391296565,11747.4975808585,16450.4949183779,3233.8817908142,-4758.8835690272,-1830.5569808307,-4593.4515630225,-20221.8238778615,-6906.1778658559,-1521.3271337724,-4363.4820930689,1785.5730056763,-20639.8451022137,12014.0066443714,14873.9872795135,19414.3998520847
561657085560,48304,-2,0,9040.2337085412,11743.0442038213,16449.5458380258,3231.8619531416,-4766.3301994828,-1834.7791716282,-4597.7224246073,-20226.7882981653,-6912.8944345022,-1527.4231498807,-4369.5294383899,1778.3940645507,-20646.2818138330,12005.5987658668,14865.1535316200,19405.0793963184
561657085560,48304,-2,0,9036.2062008928,11736.9968585003,16439.5683266309,3225.9484524857,-4767.6564784365,-1842.6516714727,-4603.6967637474,-20227.3358445223,-6912.5902420816,-1527.9706962378,-4378.0954969532,1778.6009153967,-20646.3061492267,12007.6186035394,14866.6988291165,19408.6080283970
561657116820,48305,-2,0,9035.9263438659,11738.5908267841,16432.8639256815,3223.9042794194,-4761.2806053013,-1844.7810184167,-4602.4191555810,-20222.6512812455,-6906.1291950686,-1520.7187489313,-4378.1441677405,1785.5365025858,-20639.3097235535,12014.8948862395,14872.5758266820,19415.7626341289
561657116820,48305,-2,0,9039.5158144287,11743.4335701197,16435.8936821904,3229.8299477722,-4755.0385768311,-1835.9351028264,-4593.5732399907,-20216.4092527753,-6900.0210112635,-1515.7664963244,-4368.3856748885,1791.4621709386,-20634.2236262815,12018.8372200101,14877.8322717095,19418.9870737870
561657116820,48305,-2,0,9044.4680670356,11747.2177238316,16449.2051425147,3237.0453919882,-4755.0264091343,-1826.0792683998,-4588.3776334473,-20215.9590479929,-6901.7244888187,-1515.3649623292,-4359.1138899094,1789.6856872024,-20635.9149361399,12018.3140090467,14875.4230677386,19418.7558875474
561657116820,48305,-2,0,9044.2977192801,11746.7310159587,16458.5621013716,3238.2378262768,-4758.9930782986,-1827.3690442631,-4588.7304966552,-20219.9257171571,-6906.3360459146,-1518.7110789555,-4360.5861812250,1785.3174840430,-20640.8915241405,12015.4059295061,14871.2130446378,19411.3092570917
561657116820,48305,-2,0,9043.7623406199,11743.2632223641,16453.9383765788,3233.2490705794,-4760.9399097903,-1836.8476800881,-4594.3276371937,-20219.8770463699,-6906.7740830002,-1521.6678292835,-4369.7971277200,1786.6924337840,-20639.6504190645,12015.3694264156,14872.0526157186,19413.2074177961
561657116820,48305,-2,0,9042.7402540867,11741.3650616598,16444.8491070521,3228.5158365153,-4755.6469616723,-1839.7192565384,-4596.1771271108,-20217.7233640322,-6901.8948365742,-1519.6601593077,-4374.9683988697,1790.7199414324,-20632.4228071517,12020.3581821130,14874.8998567752,19418.3543535522
561657116820,48305,-2,0,9046.0742030162,11746.9135314110,16447.1122986612,3231.9592947162,-4752.4346897110,-1835.9837736137,-4591.6385761959,-20214.8152844915,-6897.7943227449,-1515.6448193561,-4368.5681903409,1792.6424375304,-20629.5877337920,12021.7939703381,14875.3743969513,19418.1961734935
561657116820,48305,-2,0,9047.5464943318,11749.6390954994,16453.5855133710,3236.8872119295,-4752.6780436475,-1827.4298827472,-4586.4064665620,-20215.3871662422,-6900.0210112635,-1516.2410365004,-4359.6371008728,1790.3184074372,-20634.8563465163,12017.6082826310,14872.1864603837,19415.1785846814
561657178496,48306,5,0,9047.0841218525,11747.6435932204,16457.9293811368,3236.6560256899,-4755.4644462200,-1824.8503310207,-4586.1631126255,-20217.7963702131,-6902.4423829312,-1519.3924699776,-4358.6880205206,1788.1282220091,-20639.2002142821,12013.3130856525,14870.2396288920,19411.6256172091
561657178496,48306,5,0,9044.5532409134,11743.6404209656,16455.0456369897,3232.6163503446,-4755.8051417310,-1832.5646508065,-4589.9350986406,-20217.5895193671,-6903.1237739533,-1517.8958432684,-4364.9665520813,1788.8704515153,-20639.5530774899,12013.5564395890,14871.1400384569,19414.5945352339
561657178496,48306,5,0,9041.2192919839,11740.7566768186,16445.2263056536,3226.5568373268,-4751.9358141413,-1836.7868416040,-4590.9450174770,-20214.3894151027,-6898.2810306178,-1515.1946145737,-4369.2739167566,1793.9078780000,-20635.9392715335,12017.4379348755,14876.6520051177,19419.4737816599
561657178496,48306,5,0,9043.8961852849,11744.9301968289,16446.0780444312,3231.9592947162,-4744.9272207713,-1830.1432791387,-4584.5691443417,-20208.4272436595,-6892.9272440157,-1510.0233434239,-4362.8615405309,1799.9308879273,-20632.5079810295,12020.9422315605,14879.1950537537,19424.2678542081
561657178496,48306,5,0,9047.8020159651,11751.5494239006,16458.4647597970,3240.2941670399,-4745.0488977395,-1819.1558489076,-4578.4609605366,-20209.5588394640,-6894.7037277519,-1508.7457352575,-4352.7380167742,1797.4851808659,-20634.7711726385,12016.1359913154,14876.0922910638,19422.1020041737
561657178496,48306,5,0,9047.7776805714,11750.0162941009,16464.1105711228,3239.1747389322,-4751.1205784542,-1819.0706750298,-4580.8701645076,-20216.0077187802,-6901.9313396647,-1516.7520797670,-4355.4392454689,1789.0164638772,-20641.7554306149,12009.4559257596,14867.9764372829,19412.9518961628
561657178496,48306,5,0,9046.2202153781,11747.9964564283,16458.3187474351,3234.6361880173,-4756.6082097213,-1829.9729313832,-4589.6309062201,-20219.0739783795,-6907.9056788047,-1523.6998346529,-4366.6091911524,1784.7456022923,-20644.3714854318,12007.5699327521,14866.5771521483,19411.4917725441
561657178496,48306,5,0,9046.4270662241,11743.4944086038,16450.1298874733,3227.6397623441,-4755.9754894865,-1837.8089281372,-4595.4957360887,-20219.3903384969,-6904.8272515085,-1522.7872573912,-4374.6642064492,1787.4833340775,-20641.9866168545,12012.0719805766,14869.4122255080,19416.0789942463
561657185497,48307,5,0,9049.1404626156,11746.3903204476,16447.0757955707,3228.3941595471,-4752.7388821316,-1837.8819343181,-4593.9017678049,-20215.9590479929,-6901.1039362807,-1520.8769289900,-4372.0603193291,1791.5473448163,-20636.9126872794,12015.9656435599,14872.2351311710,19417.0889130826
561657185497,48307,5,0,9050.6249216280,11752.8026966733,16454.3034074835,3236.4735102375,-4752.7267144348,-1829.8025836277,-4588.8886767139,-20215.5088432104,-6901.6514826378,-1521.7286677676,-4363.3969191911,1789.6491841120,-20638.7378418028,12012.3761729971,14869.1202007843,19414.3025105102
561657185497,48307,5,0,9048.6537547427,11753.7639447223,16459.9613865062,3239.1260681449,-4756.5838743277,-1826.9553425711,-4588.4019688410,-20219.0618106827,-6905.9101765258,-1523.5659899879,-4361.3284107312,1784.4779129622,-20644.5783362778,12005.9272936810,14864.3139605392,19409.3137548128
561657185497,48307,5,0,9045.7943459893,11750.1501387659,16456.4327544275,3235.3297467362,-4758.8227305431,-1832.9661848016,-4593.0013582400,-20220.6679466634,-6908.7817529760,-1524.8679335479,-4369.4077614216,1782.6892615292,-20646.2453107426,12004.8808717542,14863.5352279426,19409.2529163286
561657185497,48307,5,0,9043.5311543802,11747.5705870395,16444.1190452427,3231.0832205450,-4754.7830551979,-1839.6097472670,-4594.7535065825,-20217.7476994258,-6905.2896239878,-1522.5317357579,-4376.8665595741,1787.7266880139,-20640.2831392993,12011.1837387085,14869.6434117477,19414.8500568672
561657185497,48307,5,0,9046.6704201606,11749.6390954994,16442.6832570176,3231.0588851513,-4749.9524795592,-1836.7868416040,-4590.4461419072,-20213.0388007554,-6899.9358373857,-1515.9125086862,-4371.4397667911,1793.2264869779,-20635.8054268685,12017.3892640882,14873.5614101247,19420.8730667945
561657185497,48307,5,0,9049.4446550362,11753.5327584827,16451.1884770969,3237.2644105310,-4750.9623983955,-1828.3789630994,-4585.7615786304,-20214.6084336455,-6900.5077191364,-1516.8250859479,-4363.2387391324,1789.4423332660,-20639.6869221550,12016.2576682837,14871.7119202076,19418.5490367014
561657185497,48307,5,0,9046.9867802779,11752.8026966733,16454.6319352977,3238.5663540911,-4757.1314206847,-1825.7264051920,-4587.4650561856,-20220.5827727856,-6907.3946355382,-1522.6412450293,-4361.5352615772,1783.6626772751,-20645.3083980872,12010.6848631388,14866.8570091752,19414.4850259625
561657214693,48308,5,0,9039.7470006683,11746.1591342080,16452.2835698109,3231.9349593226,-4760.1246741031,-1833.3433834031,-4594.7535065825,-20224.2452495293,-6909.5969886631,-1525.1842936653,-4367.6799484728,1781.4481564533,-20646.2331430457,12008.8475409185,14866.0661088817,19414.8378891704
561657214693,48308,5,0,9041.2436273775,11745.3560662177,16445.8346904948,3225.8632786079,-4757.1679237752,-1838.6119961275,-4598.6715049595,-20221.8603809520,-6905.6181518020,-1520.9012643836,-4373.4474367669,1786.3882413634,-20639.6747544582,12013.9944766746,14872.1256218996,19422.0046625991
561657214693,48308,5,0,9045.6239982338,11748.5074996948,16443.7175112476,3227.6032592536,-4751.3030939065,-1836.1176182788,-4594.8751835508,-20214.3164089218,-6897.5509688084,-1515.1459437864,-4370.2716678961,1793.4333378239,-20633.7369184086,12020.7232130177,14878.9516998172,19428.6117219739
561657214693,48308,5,0,9051.2089710755,11751.3182376609,16451.9185389062,3234.3928340808,-4751.0232368796,-1828.1477768597,-4589.3023784059,-20214.5110920709,-6895.7988204659,-1512.4933858790,-4360.9025413424,1791.4135001513,-20634.6494956703,12020.0174866020,14878.1121287364,19426.6527227854
561657214693,48308,5,0,9050.2842261170,11755.6134346394,16463.8185463991,3239.7222852892,-4755.7929740342,-1824.4731324192,-4588.4628073251,-20218.8914629272,-6903.6104818262,-1517.1901168526,-4358.7731943984,1784.2710621162,-20641.8406044927,12012.5586884495,14870.2882996793,19419.4737816599
561657214693,48308,5,0,9047.0111156716,11753.0703860034,16461.4458455186,3237.2765782278,-4760.5140404015,-1830.6786577989,-4593.7557554431,-20223.7950447468,-6909.6456594504,-1525.0504490003,-4367.5582715046,1780.1583805901,-20643.8726098621,12006.5113431285,14864.8128361090,19412.1123250820
561657214693,48308,5,0,9046.2567184686,11751.2695668736,16453.7680288233,3232.3121579241,-4761.4022822695,-1842.9680315901,-4598.9270265928,-20222.8216290010,-6910.3392181693,-1527.2041313379,-4376.8422241805,1783.2854786736,-20642.8018525417,12013.5442718921,14870.5316536158,19418.5612043982
561657214693,48308,5,0,9046.5730785860,11752.3889949813,16446.1023798249,3230.8885373958,-4756.0241602738,-1844.0144535169,-4598.1117909057,-20218.8792952304,-6905.9831827067,-1525.8656846874,-4377.2924289629,1788.6149298820,-20637.4724013332,12016.8782208216,14873.9872795135,19423.9758294844
561657258491,48309,5,0,9046.5852462828,11755.4674222775,16448.5602545831,3233.1517290049,-4756.1336695452,-1837.1032017214,-4593.6705815653,-20217.9667179687,-6906.4333874892,-1527.3988144871,-4369.5416060867,1788.7001037598,-20638.9203572552,12018.2896736531,14873.3667269755,19420.9582406723
561657258491,48309,5,0,9043.4216451088,11754.0072986588,16453.6706872487,3235.8651253964,-4760.4045311301,-1832.4064707478,-4590.9571851738,-20221.2884992013,-6910.0958642329,-1532.3267317004,-4364.3581672401,1784.6604284145,-20645.4179073586,12012.4005083908,14868.6821636987,19415.8843110971
561657258491,48309,5,0,9036.6685733721,11748.6778474503,16451.3101540651,3231.4239160560,-4765.5392991893,-1836.8841831786,-4595.6539161474,-20224.5859450403,-6914.3302227273,-1536.5002517106,-4368.6533642186,1781.8131873580,-20647.7662728454,12009.9182982389,14865.6159040993,19413.4142686421
561657258491,48309,5,0,9034.6000649122,11744.2853088973,16440.5417423768,3225.3522353414,-4764.8214050768,-1845.1947201087,-4598.4768218104,-20219.4633446779,-6911.6046586389,-1534.7359356713,-4375.9539823124,1786.8384461459,-20642.8626910258,12013.5686072858,14872.0647834154,19418.7802229410
561657258491,48309,5,0,9041.4504782235,11748.1668041838,16438.8626002152,3227.1408867743,-4756.3161849976,-1842.6516714727,-4594.2059602255,-20213.6593532933,-6903.5009725548,-1526.3767279540,-4373.6299522192,1796.0615603376,-20634.9050173036,12020.7475484113,14879.0247059982,19427.7599831963
561657258491,48309,5,0,9049.1039595251,11755.1875652506,16448.9739562751,3235.5244298853,-4750.6338705812,-1832.3577999605,-4587.0878575841,-20210.1550566083,-6899.8384958111,-1521.3393014693,-4364.9787197781,1798.0205595261,-20633.8342599832,12020.5163621717,14878.2824764920,19428.7577343358
561657258491,48309,5,0,9052.2310576086,11759.1785698085,16459.2069893032,3242.5816940426,-4752.4711928015,-1824.8016602334,-4583.7174055641,-20214.0487195917,-6902.9655938946,-1524.0892009512,-4360.5253427409,1792.4234189876,-20638.5431586536,12015.9778112567,14871.9796095377,19422.4061965942
561657258491,48309,5,0,9054.6037584891,11760.6265257305,16466.6536197588,3244.9422272263,-4753.2499253982,-1825.1301880477,-4586.0779387478,-20217.4191716116,-6905.8371703448,-1526.9242743110,-4363.1048944674,1787.8483649822,-20641.8041014022,12015.0043955109,14868.5726544273,19419.0722476648
561657318447,48310,5,0,9056.4410807094,11758.8378742975,16463.4291801007,3240.4401794018,-4751.8749756572,-1831.2870426401,-4592.1982902497,-20214.8396198852,-6903.9998481246,-1524.3812256750,-4370.4541833484,1790.0142150166,-20638.4214816854,12016.9512270026,14872.2472988678,19423.2457676750
561657318447,48310,5,0,9062.4762583336,11762.6463634031,16459.7545356602,3240.1359869812,-4745.5721087029,-1832.5159800192,-4591.4803961372,-20209.6926841291,-6896.2976960357,-1520.0130225156,-4370.8800527372,1797.0228083867,-20632.3741363644,12022.9255661426,14879.2437245410,19429.4634607515
561657318447,48310,5,0,9074.1694149804,11773.6337936342,16468.9898175488,3249.5659520190,-4739.0988939931,-1822.4776301403,-4583.9729271974,-20206.1640520504,-6890.9682448272,-1515.9976825640,-4361.3284107312,1799.6997016877,-20629.1740321000,12024.6412113947,14880.5700034947,19430.7167335243
561657318447,48310,5,0,9084.3902803117,11781.3116103295,16484.5157986949,3260.1031774677,-4739.8776265898,-1814.0454162420,-4579.5560532507,-20207.5268340946,-6892.6717223824,-1515.0607699086,-4353.3464016154,1796.0007218535,-20633.3597198071,12019.6402880004,14876.9927006287,19426.5675489077
561657318447,48310,5,0,9089.8414084884,11787.9551727948,16493.4833912534,3264.8485792286,-4742.1164828052,-1814.4712856308,-4581.2960338964,-20210.5079198162,-6896.9790870577,-1518.7840851364,-4355.8286117672,1791.6203509973,-20635.1240358464,12017.1580778486,14873.3302238850,19422.1628426578
561657318447,48310,5,0,9095.3168720587,11789.4639672008,16492.3396277520,3263.8264926955,-4741.4959302672,-1821.5528851817,-4584.3744611926,-20208.6097591118,-6894.7889016296,-1517.4699738796,-4362.6425219881,1794.5405982348,-20632.0821116407,12020.7110453209,14877.6497562572,19423.6959724575
561657318447,48310,5,0,9106.7666747691,11793.5888164238,16492.7289940504,3264.7390699572,-4735.1443925256,-1822.6844809862,-4582.6466482437,-20201.0901224752,-6886.3931908218,-1507.7479841180,-4360.6956904964,1803.5933646710,-20622.5548050283,12029.8246502412,14886.9337089331,19433.1381051921
561657318447,48310,5,0,9124.6288537051,11811.5726723281,16508.1211305314,3279.0726168146,-4724.5949993801,-1811.7092184519,-4572.2919382474,-20193.3027965086,-6877.4499336569,-1499.3401056134,-4351.5455824856,1810.3951071951,-20616.6534720692,12036.4803804034,14892.3239986256,19437.5671468356
561657324353,48311,5,0,9136.7113766503,11824.7989587747,16524.7787074820,3291.3619906058,-4724.2421361723,-1801.7925455413,-4566.9746547358,-20194.6047400686,-6879.3237589677,-1499.5956272467,-4343.8921011839,1806.6474565736,-20620.3767872970,12032.4650404518,14888.6493541851,19433.7464900332
561657324353,48311,5,0,9143.0750820887,11830.2257515577,16534.8900635419,3298.0177207680,-4731.5549219629,-1805.6375377373,-4571.9025719491,-20202.2217182798,-6887.9871591056,-1506.9449161277,-4348.6253352481,1797.4730131691,-20629.1618644032,12023.7408018298,14878.9395321204,19426.4702073331
561657324353,48311,5,0,9154.1841892881,11839.1325056321,16537.2019259382,3299.8550429882,-4735.2052310098,-1816.0895893082,-4581.0770153535,-20206.1518843536,-6892.8177347443,-1514.1360249501,-4361.6691062423,1792.7884498923,-20630.5124787505,12020.6137037463,14876.8345205700,19422.9294075576
561657324353,48311,5,0,9168.8827670502,11847.9419181319,16537.0680812732,3301.4246758784,-4729.6689289553,-1821.1391834897,-4581.8800833439,-20201.0657870816,-6888.3156869198,-1511.5199701331,-4366.9985574507,1799.3590061767,-20625.7549092927,12025.7484718056,14881.7989408738,19424.7180589906
561657324353,48311,5,0,9183.0824692426,11859.6715778692,16547.1185988489,3308.2629214929,-4723.4147327883,-1813.4126960072,-4573.8737388344,-20194.9454355797,-6882.4508570512,-1505.1927677852,-4358.1891449509,1803.2770045537,-20622.7616558743,12028.4618681971,14884.7921942922,19432.0430124780
561657324353,48311,5,0,9192.7314528231,11869.7220954450,16564.3358898534,3319.4937056605,-4720.3971439762,-1801.4031792429,-4565.2225063933,-20193.1567841467,-6882.0979938433,-1503.4162840491,-4347.4937394435,1803.7758801234,-20625.1951952389,12025.4321116882,14882.4681641991,19430.5220503751
561657324353,48311,5,0,9194.4349303784,11871.3282314256,16570.4075705680,3323.4360394311,-4723.9257760549,-1799.3468384798,-4563.8232212586,-20195.6389942986,-6885.3224335014,-1506.3365312866,-4344.9628585044,1801.3058376683,-20627.8842562367,12021.5992871889,14878.8178551522,19426.4337042426
561657324353,48311,5,0,9190.8819629061,11868.9311951515,16567.6090002988,3319.4450348732,-4726.2741415417,-1807.0611582656,-4568.4956168386,-20196.2230437461,-6886.5027000932,-1506.5190467389,-4353.6019232486,1802.4252657760,-20626.7648281290,12021.9764857904,14880.2171402868,19427.7113124090
561657333305,48312,5,0,9189.2271561381,11866.7896805106,16559.5904880924,3316.0624151564,-4724.5341608960,-1814.6294656895,-4571.8173980713,-20193.4488088704,-6881.3070935498,-1503.3067747777,-4359.1382253031,1807.1463321433,-20621.1068491064,12026.9409060942,14885.4370822239,19432.7852419842
561657333305,48312,5,0,9193.2181606961,11872.2651440810,16555.9766821360,3319.3111902081,-4719.0343619321,-1810.6019580411,-4567.5830395769,-20188.5817301412,-6877.5351075347,-1501.2139309241,-4355.4270777721,1810.3221010141,-20617.3713661817,12030.4695381729,14886.8120319648,19435.6324830408
561657333305,48312,5,0,9199.1924998361,11879.1520604828,16564.9564423914,3327.0133422970,-4719.3020512622,-1802.4617688665,-4563.7015442904,-20191.8061697993,-6879.6522867819,-1501.6641357066,-4347.7249256832,1805.8322208865,-20622.5791404219,12025.5902917469,14881.0567113676,19430.4003734069
561657333305,48312,5,0,9199.1194936552,11876.2196455484,16569.2151362794,3326.7699883606,-4725.4710735514,-1803.2770045537,-4567.4491949119,-20199.4961541914,-6887.3179357803,-1508.4658782306,-4349.1363785146,1797.9718887388,-20629.8675908189,12018.5208598927,14873.4397331564,19424.1096741495
561657333305,48312,5,0,9190.1275657030,11866.2299664568,16558.6049046498,3315.9894089754,-4731.5305865692,-1813.4370314008,-4575.6137194800,-20203.7791834731,-6892.2580206904,-1514.8417513658,-4359.5640946919,1794.9542999268,-20632.0821116407,12016.4401837360,14871.5659078457,19420.5202035867
561657333305,48312,5,0,9181.2086439318,11859.3430500550,16545.3786182032,3305.0871526221,-4729.8636121045,-1822.3559531720,-4581.6123940138,-20203.0856247542,-6888.9727425482,-1512.1770257616,-4367.0350605412,1798.0813980103,-20627.8234177526,12020.9543992573,14876.5668312399,19424.0123325749
561657333305,48312,5,0,9174.9422800680,11854.9748468956,16540.7548934105,3300.3417508611,-4726.3593154195,-1820.9810034310,-4579.9575872458,-20200.0437005485,-6885.3102658045,-1508.6240582893,-4363.9566332450,1800.7826267049,-20623.9540901629,12026.0526642261,14881.7746054802,19426.9569152060
561657333305,48312,5,0,9168.7975931724,11852.4561336532,16540.8157318946,3301.0839803673,-4728.3791530921,-1813.2301805548,-4576.5749675291,-20201.1874640498,-6886.5878739710,-1509.2081077368,-4356.4248289116,1798.6411120641,-20625.9009216546,12023.9111495853,14879.2802276314,19423.1362584036
561657366896,48313,5,0,9160.1463607313,11845.3380310118,16541.3997813421,3299.1614842693,-4736.0448020905,-1812.1472555376,-4579.4222085856,-20208.0987158453,-6893.0002501966,-1514.2577019183,-4356.2666488529,1791.8028664496,-20631.5589006773,12018.5938660737,14873.6100809120,19417.4174408968
561657366896,48313,5,0,9152.0913454345,11837.5142019546,16538.2970186523,3293.8442007577,-4740.5103468246,-1819.4722090250,-4584.3501257989,-20209.6683487354,-6897.3562856593,-1516.8007505543,-4362.6911927754,1789.5031717501,-20635.2822159051,12016.3793452519,14872.9043544962,19417.5512855619
561657366896,48313,5,0,9148.6478872336,11830.5664470687,16528.1126564115,3286.4097379989,-4736.8965408681,-1825.2153619254,-4584.1554426498,-20204.6309222507,-6893.8276535806,-1513.5763108962,-4368.2518302235,1796.3900881519,-20631.2425405599,12020.5650329590,14878.6353396998,19423.7689786384
561657366896,48313,5,0,9145.4964537565,11827.5245228630,16520.9823860733,3284.0248694216,-4732.4553315278,-1823.8769152749,-4580.4199597251,-20196.3447207143,-6887.4761158390,-1506.2878604993,-4361.5109261836,1804.7249604756,-20626.8134989163,12024.3735220646,14883.9526232115,19429.9745040181
561657366896,48313,5,0,9138.6582081420,11826.1009023347,16524.3771734869,3286.3610672116,-4732.6986854642,-1815.6515522226,-4575.2365208785,-20196.8679316777,-6888.6442147340,-1506.7258975849,-4353.2247246471,1803.1796629791,-20631.8874284915,12021.8426411254,14881.9084501452,19426.9690829028
561657366896,48313,5,0,9132.7568751829,11822.7912887989,16524.4380119710,3287.6386753780,-4738.6730246043,-1813.9724100610,-4575.0905085167,-20202.8422708177,-6895.6771434977,-1512.5542243631,-4351.0953777031,1796.7916221470,-20637.5940783015,12013.9093027968,14874.4253165991,19418.9870737870
561657366896,48313,5,0,9123.8744565021,11814.0670501768,16516.7601952757,3280.8004297635,-4745.9858103949,-1823.4145427956,-4582.9386729675,-20207.9527034834,-6901.0796008871,-1517.5429800605,-4358.6515174302,1791.9853819020,-20642.2543061846,12013.1670732906,14875.6542539782,19420.8000606136
561657366896,48313,5,0,9117.1578878559,11807.6668416480,16507.0868763015,3271.8815079923,-4744.4526805952,-1830.5083100434,-4587.9274286649,-20207.6850141533,-6896.9060808768,-1515.8760055958,-4365.8426262525,1795.9398833694,-20636.9856934603,12016.9025562153,14879.9737863504,19427.1394306584
561657399752,48314,5,0,9116.6833476798,11808.5672512129,16499.9566059632,3272.4168866525,-4737.3710810442,-1829.9972667768,-4584.6056474322,-20201.9540289497,-6891.2967726414,-1511.2887838935,-4364.6501919639,1801.9628932968,-20629.5147276110,12025.1522546612,14885.0598836223,19430.6193919497
561657399752,48314,5,0,9115.4665779975,11808.2265557018,16500.8083447408,3274.1081965109,-4738.2593229123,-1822.7818225608,-4581.1135184440,-20202.5867491845,-6892.5987162015,-1511.8363302505,-4357.2643999924,1800.8434651891,-20631.5223975868,12024.8967330280,14883.0278782529,19428.9524174850
561657399752,48314,5,0,9107.2655503388,11805.6956747627,16506.3324790984,3272.4533897430,-4745.3165870696,-1820.0319230788,-4581.1986923218,-20209.7170195227,-6900.5320545300,-1516.1558626227,-4354.5388359040,1793.5550147921,-20638.8473510742,12018.3018413499,14875.6907570687,19424.4503696605
561657399752,48314,5,0,9102.0577760986,11799.6483294417,16502.0737852104,3267.8540003439,-4749.6482871386,-1825.7507405856,-4585.9319263859,-20213.0874715427,-6904.6204006626,-1521.0229413519,-4361.2310691566,1789.2354824200,-20640.1127915438,12016.5131899169,14874.8511859879,19417.2835962318
561657399752,48314,5,0,9096.8621695552,11792.7735807367,16490.4049639572,3259.5069603233,-4750.0984919210,-1835.1076994425,-4591.6264084990,-20212.0897204032,-6902.8074138359,-1519.6966623982,-4369.3225875439,1792.9587976478,-20634.2722970688,12021.4289394334,14878.4893273380,19426.0930087316
561657399752,48314,5,0,9095.4020459364,11790.2913705848,16485.6473944994,3257.4627872571,-4744.6230283507,-1834.7548362346,-4589.7769185820,-20206.7724368915,-6894.7523985391,-1513.1991122947,-4368.1179855584,1798.3247519467,-20627.6287346035,12029.4839547302,14886.5078395443,19433.5031360968
561657399752,48314,5,0,9096.7891633743,11791.7149911131,16490.6118148032,3262.6827291941,-4740.1209805262,-1824.1811076955,-4582.5128035787,-20203.4019848716,-6891.0655864018,-1510.6073928714,-4358.8705359730,1801.6587008762,-20623.9540901629,12029.2892715810,14885.4249145270,19430.7654043116
561657399752,48314,5,0,9094.8179964889,11791.3986309957,16497.6690789605,3266.3330382410,-4742.7370353432,-1817.4158682619,-4577.9377495732,-20204.5822514634,-6895.3242802898,-1511.1792746221,-4352.4581597473,1797.6798640151,-20629.3687152491,12026.2108442848,14885.5465914953,19429.5608023261
561657428579,48315,5,0,9090.4619610263,11789.6464826532,16499.6037427553,3264.3740390525,-4745.7546241552,-1818.6083025506,-4581.4785493487,-20208.3542374785,-6899.2179432732,-1513.5884785930,-4356.4978350925,1793.6280209731,-20634.3574709466,12021.5627840985,14880.5700034947,19427.3584492012
561657428579,48315,5,0,9085.5705469035,11782.8204047355,16487.8740830180,3257.2802718048,-4744.7812084094,-1827.4663858377,-4585.5912308749,-20208.1960574198,-6898.5852230384,-1514.9025898499,-4366.4145080032,1796.2075726995,-20632.6174903009,12024.4830313360,14883.0887167370,19428.8550759104
561657428579,48315,5,0,9084.7066404291,11780.3260268868,16479.2715213642,3252.1576714423,-4741.7514519005,-1831.4208873051,-4585.6399016622,-20205.4826610283,-6894.2170198789,-1513.3816277471,-4369.8336308105,1799.9187202305,-20628.1276101732,12028.0725018987,14887.5785968647,19430.9357520671
561657428579,48315,5,0,9083.8183985610,11781.8591566865,16480.7681480734,3254.5060369291,-4740.9362162134,-1825.9575914316,-4583.9485918038,-20206.2857290186,-6894.1683490916,-1511.9458395219,-4365.3559183796,1798.4950997022,-20630.3056279045,12025.8336456833,14884.5610080526,19430.6315596465
561657428579,48315,5,0,9078.3429349907,11779.0119156299,16484.5157986949,3256.8178993255,-4747.3364247422,-1824.1324369082,-4584.2771196180,-20209.9603734592,-6901.7001534250,-1517.2266199431,-4360.1481441394,1792.7762821955,-20638.2754693235,12019.7254618782,14877.8931101936,19423.7689786384
561657428579,48315,5,0,9070.6772859922,11773.0497441867,16481.0601727972,3251.8413113249,-4754.6127074423,-1828.7561617009,-4588.4749750219,-20215.0951415184,-6908.6114052205,-1523.6876669561,-4365.1977383209,1787.0331292950,-20643.5197466542,12012.8263777796,14871.9796095377,19417.8676456793
561657428579,48315,5,0,9064.3500836443,11766.0168154230,16472.9808221067,3244.2243331137,-4757.6181285576,-1839.0743686067,-4594.9238543381,-20216.7742836800,-6911.4221431866,-1526.5835787999,-4374.1653308794,1787.7875264980,-20644.4323239159,12011.1715710117,14873.0138637676,19419.6684648091
561657428579,48315,5,0,9064.3744190379,11764.5810271979,16464.8284652354,3238.5906894847,-4753.9191487234,-1843.4669071598,-4596.0189470521,-20211.5786771366,-6906.5307290638,-1524.0040270735,-4377.1585842979,1793.6888594572,-20639.0176988297,12016.0873205281,14879.5114138711,19427.5531323503
561657464674,48316,5,0,9068.7182868037,11769.9226461032,16465.9843964336,3241.9733092015,-4750.5851997940,-1837.5169034134,-4590.7138312373,-20208.8166099578,-6903.5009725548,-1523.7850085307,-4370.5515249230,1795.0029707140,-20635.9879423208,12020.2365051448,14882.0544625071,19429.6338085071
561657464674,48316,5,0,9065.9318842313,11770.5431986412,16473.1511698623,3245.7331275198,-4753.1404161268,-1832.0171044494,-4588.9616828948,-20213.0388007554,-6907.0296046335,-1526.8634358269,-4363.8592916704,1789.2719855104,-20640.5508286294,12018.3261767436,14877.1387129906,19425.5454623746
561657464674,48316,5,0,9059.5803464897,11762.6828664936,16474.3557718477,3245.2585873437,-4758.1048364305,-1834.1586190903,-4591.4438930467,-20218.3804196606,-6914.1355395781,-1532.7282656955,-4369.0062274265,1783.5896710941,-20645.1988888158,12017.0972393644,14873.9142733325,19419.8509802614
561657464674,48316,5,0,9052.8394424498,11756.6598565662,16464.5972789957,3237.7997891912,-4758.8105628463,-1841.0820385825,-4596.9680274043,-20218.3317488733,-6914.2937196368,-1533.9572030747,-4377.3897705375,1784.5265837495,-20642.0231199450,12018.7520461324,14876.7371789955,19422.7468921053
561657464674,48316,5,0,9052.2918960928,11755.1510621602,16455.2281524421,3231.4725868433,-4755.5009493104,-1846.2654774291,-4598.2091324803,-20214.1095580758,-6907.2121200858,-1529.3091428883,-4379.4826143910,1791.1093077307,-20636.8518487953,12024.4221928519,14883.8917847273,19430.4490441942
561657464674,48316,5,0,9056.4654161030,11757.4020860724,16454.8509538406,3233.5897660905,-4753.1525838236,-1843.1748824361,-4594.9846928222,-20211.0676338700,-6905.2166178069,-1526.5105726190,-4372.2428347814,1792.9101268605,-20634.9415203941,12027.0504153656,14886.4713364538,19434.0141793633
561657464674,48316,5,0,9055.6015096286,11762.6828664936,16462.7356213818,3240.1603223749,-4756.0728310611,-1835.9229351296,-4592.5511534576,-20213.2821546918,-6909.3536347267,-1530.1122108786,-4366.6213588492,1790.5374259800,-20637.8861030252,12019.7376295750,14879.0490413918,19425.2412699540
561657464674,48316,5,0,9051.5009957993,11759.4584268355,16467.2255015095,3240.2089931622,-4760.8182328220,-1836.9936924500,-4593.4028922352,-20218.0153887559,-6915.0481168398,-1532.5822533337,-4366.7795389079,1785.9623719746,-20644.0551253144,12016.4766868265,14877.6862593476,19424.6815559001
561657485727,48317,5,0,9050.1260460583,11755.7107762140,16464.4877697243,3235.4027529171,-4759.8934878635,-1841.4835725777,-4596.7125057710,-20217.7842025163,-6913.4663162528,-1531.4141544387,-4372.7173749575,1787.8118618917,-20640.7090086881,12020.7232130177,14882.0666302039,19428.5630511866
561657485727,48317,5,0,9051.7808528262,11754.0803048397,16456.6396052735,3232.7745304033,-4753.6027886060,-1844.5254967834,-4595.9094377807,-20212.9171237871,-6906.1048596750,-1525.1112874844,-4374.9927342634,1795.4775108901,-20632.3132978803,12028.2185142606,14889.6836084151,19435.4864706789
561657485727,48317,5,0,9054.3239014622,11757.3655829819,16457.2114870242,3234.7335295918,-4749.8186348941,-1840.6440014969,-4591.6142408022,-20208.9261192292,-6901.6879857282,-1520.4753949948,-4369.6146122676,1797.8258763770,-20628.4561379874,12031.9418294884,14891.5087629385,19437.9565131340
561657485727,48317,5,0,9054.8592801224,11758.6553588452,16467.2011661158,3239.3815897782,-4752.1548326841,-1832.7836693493,-4589.0103536821,-20212.1505588873,-6904.2310343642,-1522.6777481198,-4361.4014169122,1792.8614560732,-20631.6927453423,12028.5470420748,14886.9945474172,19434.2697009966
561657485727,48317,5,0,9051.6470081611,11756.7085273535,16469.4643577249,3237.8241245849,-4758.6402150907,-1832.5403154128,-4592.7701720004,-20218.9401337145,-6911.9940249373,-1529.2239690105,-4364.5528503893,1786.4247444539,-20637.3750597586,12022.4875290570,14881.3609037882,19426.3485303649
561657485727,48317,5,0,9045.5388243560,11750.5395050643,16461.4945163059,3230.8520343053,-4763.2274367930,-1841.9337773601,-4599.3772313753,-20221.2154930204,-6915.8268494365,-1532.5335825464,-4373.4961075542,1784.5265837495,-20639.8816053042,12020.5163621717,14882.2978164435,19428.1371817978
561657485727,48317,5,0,9045.1372903609,11748.9455367805,16452.9406254394,3224.8411920748,-4761.2197668172,-1850.9013699186,-4602.0541246763,-20218.2830780861,-6912.5537389911,-1530.0027016072,-4378.8377264594,1790.3792459213,-20635.0753650591,12022.6578768125,14884.1473063606,19432.1646894462
561657485727,48317,5,0,9045.8795198671,11751.7927778370,16449.1929748179,3227.8344454932,-4756.0484956675,-1848.5651721286,-4597.0410335852,-20211.5421740461,-6907.1877846922,-1525.7805108096,-4373.9828154271,1796.7916221470,-20632.6904964818,12029.9098241190,14891.8616261464,19440.8159218874
561657544764,48318,5,0,9048.3008915348,11756.3313287520,16458.9149645794,3233.9791323888,-4753.1039130363,-1838.3564744942,-4591.2857129880,-20212.3574097333,-6906.6402383352,-1525.6831692351,-4364.9422166876,1795.6600263425,-20634.7711726385,12028.4010297130,14889.7322792024,19440.3535494081
561657544764,48318,5,0,9048.6294193490,11757.7427815834,16469.6225377836,3238.2256585800,-4755.5739554914,-1831.6764089384,-4590.9936882642,-20216.2997435039,-6910.0106903551,-1526.8999389173,-4363.2265714356,1790.4765874959,-20638.9325249520,12023.7529695266,14884.3054864193,19436.5815633930
561657544764,48318,5,0,9049.2499718870,11756.1366456028,16465.7288748003,3237.3130813183,-4756.4378619658,-1836.3244691248,-4593.5002338098,-20217.7720348195,-6911.8966833627,-1529.1266274359,-4370.4663510452,1789.2354824200,-20638.2998047172,12024.2396773995,14883.8431139401,19434.4643841458
561657544764,48318,5,0,9051.3549834374,11752.3159888004,16457.3818347797,3234.1373124475,-4752.0696588064,-1841.9459450570,-4594.7048357952,-20213.0509684522,-6907.0174369367,-1525.3911445113,-4375.7227960728,1793.8835426063,-20633.2867136261,12028.4983712875,14887.5785968647,19439.5869845082
561657544764,48318,5,0,9055.4311618731,11757.3169121946,16457.7346979876,3236.3761686629,-4745.6937856711,-1838.5268222497,-4589.5213969487,-20207.0522939185,-6899.4004587255,-1518.3825511413,-4370.6366988008,1799.7605401718,-20628.8333365889,12029.8124825444,14888.1261432217,19440.6942449191
561657544764,48318,5,0,9060.4077498737,11763.3399221220,16464.2444157879,3244.2365008106,-4743.5157679398,-1828.3059569184,-4583.2672007817,-20205.1541332141,-6898.8529123685,-1517.3726323050,-4360.7078581932,1799.7240370814,-20629.6972430634,12031.5889662806,14889.0387204834,19438.6622395497
561657544764,48318,5,0,9057.6456826948,11764.6175302884,16472.1169156323,3247.0837418671,-4748.3341758817,-1825.3613742873,-4583.1820269039,-20211.3353232002,-6904.8029161149,-1520.4510596012,-4357.8362817430,1795.3071631346,-20635.6594145066,12026.2473473753,14883.3199029767,19431.7874908447
561657544764,48318,5,0,9050.7587662931,11758.0591417008,16470.9366490405,3240.0508131035,-4754.7343844106,-1833.1852033444,-4591.0545267484,-20216.9567991324,-6908.9155976411,-1524.9652751225,-4365.8304585557,1789.9533765325,-20639.7842637296,12021.8183057317,14878.5136627316,19426.5432135140
561657550925,48319,5,0,9046.8164325224,11752.4011626782,16458.9271322762,3232.3243256209,-4754.1381672663,-1844.5254967834,-4597.7102569105,-20214.7301106138,-6907.8691757143,-1526.8269327364,-4376.3311809139,1790.8416184006,-20637.9712769030,12023.0837462013,14880.2901464678,19429.2201068151
561657550925,48319,5,0,9053.2166410513,11757.1708998328,16456.2015681879,3234.0643062666,-4748.5775298182,-1842.1649635998,-4593.1473706019,-20208.3177343881,-6901.8948365742,-1521.7043323739,-4373.8611384588,1796.7672867534,-20632.3011301835,12025.7241364119,14885.9359577936,19432.3228695049
561657550925,48319,5,0,9058.4730860788,11763.6684499362,16466.5076073969,3240.7078687319,-4745.8519657298,-1831.7129120289,-4587.2582053396,-20206.4804121678,-6899.9723404762,-1518.9179298015,-4363.1292298610,1796.9984729930,-20631.7779192201,12024.7507206661,14884.1838094511,19430.7167335243
561657550925,48319,5,0,9056.7696085236,11762.5490218285,16471.1191644928,3244.0174822677,-4747.9813126738,-1826.6268147569,-4584.9585106401,-20210.2280627893,-6903.3306247993,-1521.7043323739,-4358.8340328825,1793.0683069192,-20637.1438735190,12021.0639085287,14878.5136627316,19425.5454623746
561657550925,48319,5,0,9050.8804432613,11758.7283650261,16468.6734574314,3241.5596075095,-4751.0232368796,-1830.3014591974,-4587.7814163030,-20212.5399251856,-6906.5185613669,-1525.2207967558,-4364.9300489908,1790.5252582832,-20638.6770033187,12018.9467292815,14878.3189795824,19425.5211269809
561657550925,48319,5,0,9045.2102965418,11751.1113868149,16460.2169081395,3232.3121579241,-4749.5996163513,-1838.2104621323,-4594.1694571350,-20211.4083293811,-6904.1458604865,-1523.5173192006,-4372.4010148401,1794.5284305380,-20637.2898858809,12022.0494919714,14882.4316611086,19429.5973054166
561657550925,48319,5,0,9048.0332022047,11750.9167036658,16455.5688479531,3230.5478418847,-4743.6009418176,-1838.9283562449,-4591.6507438927,-20206.4560767742,-6896.6383915467,-1519.1004452538,-4370.5271895294,1801.9020548127,-20629.9162616062,12027.7074709941,14889.0752235739,19436.0340170359
561657550925,48319,5,0,9054.7619385478,11758.1564832754,16462.5166028390,3237.3495844088,-4740.6685268833,-1829.9120928991,-4585.2261999702,-20204.6430899475,-6896.3463668230,-1517.3361292145,-4361.3527461249,1801.9993963872,-20630.5611495378,12027.0382476688,14887.5907645615,19435.7906630995
561657583455,48320,5,0,9053.2896472322,11759.3610852609,16471.7153816372,3241.2919181794,-4746.0588165758,-1824.9720079890,-4584.5569766449,-20209.3033178307,-6901.7366565155,-1521.0351090487,-4357.8727848335,1795.2098215600,-20638.0686184776,12018.0341520198,14880.6186742820,19429.9380009276
561657583455,48320,5,0,9049.3351457648,11757.1465644391,16472.3481018720,3241.1702412112,-4750.7312121558,-1829.8025836277,-4588.6453227774,-20213.9878811076,-6906.8835922716,-1525.9751939588,-4364.5041796020,1790.6591029483,-20642.0961261259,12015.0165632077,14876.5303281495,19424.8397359588
561657583455,48320,5,0,9048.0453699015,11754.2871556857,16463.4048447071,3236.6925287803,-4751.3882677843,-1839.1473747877,-4593.8530970176,-20213.8418687457,-6906.0683565845,-1525.7926785065,-4374.3235109381,1792.4964251685,-20639.3097235535,12018.3140090467,14880.0832956218,19428.6847281549
561657583455,48320,5,0,9051.7565174325,11756.6233534757,16458.4160890097,3234.8187034696,-4746.3386736027,-1840.9603616143,-4593.1717059956,-20208.8409453515,-6899.4491295128,-1520.1833702711,-4373.7272937938,1797.7650378929,-20634.1871231910,12023.4487771060,14885.5100884048,19432.0065093875
561657583455,48320,5,0,9058.5217568661,11764.7270395598,16465.9600610399,3243.1414080965,-4742.1286505020,-1833.0148555889,-4585.6399016622,-20204.1807174683,-6896.2368575515,-1516.0950241386,-4365.2464091082,1800.8921359764,-20632.4593102422,12024.8845653311,14886.7633611776,19438.1146931927
561657583455,48320,5,0,9060.0670543626,11767.2457528022,16476.0105786157,3249.2374242048,-4741.7392842037,-1821.9909222673,-4580.5659720870,-20206.5777537424,-6897.8673289258,-1516.4478873464,-4358.8705359730,1798.7992921228,-20636.1947931668,12022.1224981523,14883.5632569131,19433.6369807618
561657583455,48320,5,0,9055.6136773254,11762.2569971047,16475.6698831046,3244.9422272263,-4747.7014556469,-1824.9111695048,-4583.9607595006,-20210.4349136353,-6903.2211155279,-1519.0882775570,-4363.1535652547,1793.8957103032,-20640.1736300279,12015.7344573203,14877.4307377144,19426.9325798124
561657583455,48320,5,0,9051.7808528262,11757.5724338279,16468.6126189473,3237.3495844088,-4750.0498211337,-1835.4240595599,-4591.6142408022,-20212.8441176062,-6905.4478040465,-1522.4100587897,-4373.9706477303,1792.7641144986,-20639.7112575486,12018.5086921959,14879.6330908393,19429.5729700230
561657614605,48321,5,0,9049.5176612171,11755.1023913729,16455.1064754738,3232.6163503446,-4748.3828466690,-1843.7467641868,-4593.5975753844,-20210.7512737527,-6904.0120158214,-1522.4465618801,-4377.8399753199,1796.0372249440,-20635.8784330494,12021.0395731351,14882.7480212260,19431.0939321258
561657614605,48321,5,0,9052.2675606991,11758.7040296325,16459.4868463301,3237.2157397437,-4748.7113744832,-1839.4272318146,-4591.4925638340,-20212.0653850095,-6904.3527113324,-1522.4100587897,-4372.9485611971,1794.2729089047,-20636.0609485018,12020.4555236876,14882.0787979007,19429.6824792944
561657614605,48321,5,0,9054.7497708510,11761.9163015937,16471.6545431530,3242.6303648299,-4752.0696588064,-1831.8954274812,-4588.9495151980,-20215.0586384280,-6907.5771509905,-1524.5515734305,-4368.7628734900,1788.7487745471,-20640.5143255390,12015.9413081663,14878.5379981252,19424.7788974747
561657614605,48321,5,0,9053.1071317799,11761.4539291144,16474.0150763367,3243.1657434901,-4751.9479818381,-1829.4740558134,-4590.0567756089,-20217.9302148782,-6909.5848209663,-1526.7295911618,-4370.7097049817,1787.7875264980,-20642.2056353974,12014.4933522443,14879.7182647171,19422.6008797434
561657614605,48321,5,0,9050.3572322979,11757.0248874709,16468.5517804632,3237.7267830103,-4752.1670003809,-1836.8476800881,-4593.4637307193,-20216.0928926579,-6908.3193804967,-1529.6255030057,-4375.7836345569,1789.6370164151,-20639.4435682185,12017.4501025723,14882.0179594166,19427.3341138075
561657614605,48321,5,0,9049.2864749775,11753.4354169081,16457.1384808433,3232.5433441637,-4751.0354045764,-1844.0874596978,-4594.3763079810,-20211.8463664667,-6905.4356363497,-1544.0563914377,-4378.3145154960,1793.9808841809,-20635.0875327559,12021.6479579762,14885.0355482287,19434.2575332998
561657614605,48321,5,0,9051.1116295009,11758.3024956373,16455.4228355912,3235.8286223059,-4749.5387778672,-1841.0820385825,-4589.8255893692,-20209.1208023784,-6905.0097669609,-1567.1020092203,-4372.1454932068,1795.9033802789,-20633.5300675626,12021.1490824065,14883.3685737640,19432.2498633240
561657614605,48321,5,0,9053.4843303814,11764.2038285964,16467.8095509570,3243.2874204584,-4751.5586155398,-1833.4528926745,-4586.0292679605,-20212.6981052443,-6907.3824678414,-1589.1620435603,-4367.1689052062,1790.5617613737,-20638.6648356219,12018.4965244991,14880.8011897343,19429.8041562626
561657643414,48322,5,0,9051.8173559167,11761.8189600191,16475.9010693443,3242.0584830792,-4755.3427692517,-1831.4938934861,-4589.7160800978,-20217.9058794845,-6909.8281749028,-1605.1382294889,-4370.3446740770,1784.6482607177,-20641.3295612261,12015.5276064743,14876.3478126971,19425.9348286729
561657643414,48322,5,0,9049.4811581267,11755.2240683411,16468.7342959155,3235.6947776409,-4756.7663897800,-1840.6196661033,-4595.8364315998,-20217.4556747021,-6911.8601802722,-1612.5848599445,-4378.2050062246,1787.7023526203,-20639.6504190645,12016.2211651932,14878.9030290299,19426.7622320569
561657643414,48322,5,0,9049.3716488552,11753.4840876954,16458.1970704669,3231.9106239289,-4753.4324408505,-1847.1172162067,-4596.0067793553,-20213.8905395330,-6908.4288897681,-1610.0296436117,-4379.0567450022,1792.2774066257,-20636.0487808049,12021.2950947684,14884.9260389573,19433.4788007031
561657643414,48322,5,0,9050.1382137551,11756.3069933583,16457.5156794448,3234.1251447507,-4751.9966526254,-1844.4403229057,-4593.8287616240,-20211.0554661732,-6906.6889091225,-1606.2941606870,-4375.1144112316,1794.2120704206,-20635.5985760225,12021.3194301620,14885.7777777349,19433.5274714904
561657643414,48322,5,0,9050.4059030852,11761.7216184445,16465.0353160814,3239.0165588735,-4753.7244655743,-1836.0446120978,-4592.3443026116,-20214.9369614597,-6908.9521007315,-1608.8007062326,-4371.7074561212,1787.4468309870,-20639.5895805804,12015.5276064743,14879.3897369029,19426.5188781204
561657643414,48322,5,0,9050.9534494422,11763.0357297014,16471.7762201213,3242.7155387077,-4757.3626069243,-1833.2095387381,-4594.8021773698,-20221.5683562282,-6911.2761308247,-1612.8647169714,-4374.8467219015,1781.8740258421,-20643.5319143511,12009.5045965469,14870.6046597967,19415.3124293465
561657643414,48322,5,0,9045.9890291385,11759.9451347084,16468.7707990060,3236.9480504136,-4758.6158796971,-1839.6827534479,-4600.2776409402,-20222.6756166391,-6913.9895272162,-1613.3270894507,-4383.3519419807,1780.1462128932,-20645.9776214125,12011.7921235496,14873.3180561882,19421.4814516357
561657643414,48322,5,0,9046.9989479748,11756.1244779060,16456.1528974006,3231.9471270194,-4755.6834647628,-1848.6016752191,-4600.9346965686,-20219.8770463699,-6911.1301184628,-1612.2319967366,-4385.9923321913,1785.9502042778,-20640.4778224485,12016.5496930074,14878.2703087951,19427.1637660520
561657681930,48323,5,0,9047.5829974223,11755.6134346394,16452.7094391997,3231.8862885353,-4751.3639323906,-1846.9347007544,-4597.4303998836,-20215.8252033278,-6906.9079276653,-1607.8637935772,-4380.4316947432,1790.0263827135,-20637.0465319444,12020.6258714431,14881.6894316024,19431.1060998226
561657681930,48323,5,0,9048.2887238380,11756.9032105027,16463.2101615579,3233.7357784524,-4754.3085150218,-1838.1861267387,-4595.1307051840,-20219.5241831620,-6907.8570080175,-1606.7200300758,-4374.1531631826,1785.5973410699,-20639.3827297344,12018.0463197166,14877.4064023207,19427.0542567806
561657681930,48323,5,0,9047.2057988208,11757.7914523707,16469.8172209328,3236.2909947852,-4758.0318302496,-1834.1707867871,-4596.1041209299,-20223.3691753580,-6912.1400372991,-1609.6646127070,-4375.3942682585,1780.6329207662,-20643.0330387813,12013.2035763811,14872.6975036502,19421.3232715770
561657681930,48323,5,0,9044.9669426053,11756.7937012312,16467.5540293237,3233.4437537286,-4759.5649600493,-1840.4979891350,-4600.4601563925,-20223.1136537248,-6913.2229623164,-1610.9057177829,-4381.9769922397,1780.4260699202,-20644.1524668890,12011.8772974274,14873.5735778215,19422.9537429513
561657681930,48323,5,0,9043.9813591627,11754.5791804095,16458.7567845207,3229.5379230484,-4756.6933835991,-1848.5895075223,-4600.7156780258,-20218.2952457829,-6910.1810381106,-1606.7200300758,-4384.1428422742,1787.4224955934,-20641.2200519547,12015.8439665917,14879.1220475727,19431.4224599400
561657681930,48323,5,0,9051.1846356819,11758.3511664246,16457.1506485401,3232.0323008971,-4751.5099447525,-1847.3118993559,-4596.4934872282,-20212.5885959729,-6905.6424871957,-1602.3031561291,-4379.0567450022,1792.4234189876,-20635.7202529907,12019.2387540053,14881.8354439643,19433.6004776713
561657681930,48323,5,0,9056.9764593696,11763.9726423568,16469.4278546344,3239.8926330448,-4748.4558528499,-1834.7061654473,-4589.5213969487,-20212.3330743396,-6903.3427924961,-1599.8817844614,-4371.7317915148,1791.6325186941,-20635.6959175971,12019.0562385529,14882.4438288054,19433.6978192459
561657681930,48323,5,0,9056.1125528952,11764.3133378678,16481.2670236432,3243.4821036075,-4750.2566719797,-1828.3424600089,-4589.2658753154,-20217.2731592497,-6905.7398287703,-1599.8817844614,-4370.9895620086,1785.3174840430,-20639.1150404043,12015.2234140537,14875.8976079147,19427.4314553821
561657708170,48324,5,0,9052.3892376673,11761.0767305129,16477.2030129043,3240.2819993431,-4753.3837700632,-1834.2437929680,-4594.4006433747,-20219.9135494603,-6909.5118147854,-1601.9989637085,-4380.6385455892,1782.8596092848,-20642.6315047862,12011.5366019164,14872.1499572932,19424.3408603891
561657708170,48324,5,0,9049.4446550362,11758.0348063072,16464.3904281497,3233.6749399682,-4753.1160807331,-1844.7931861135,-4597.0775366757,-20216.7256128927,-6910.1567027170,-1603.2887395718,-4385.0067487487,1786.5829245126,-20641.2078842579,12014.3351721856,14876.8710236605,19428.8915790009
561657708170,48324,5,0,9050.8439401708,11762.1109847429,16458.8419583985,3234.3319955967,-4751.6437894175,-1847.6769302606,-4594.0477801668,-20213.9513780171,-6908.3072127999,-1600.4901693025,-4381.4172781859,1791.6446863909,-20638.4701524727,12018.3261767436,14881.9936240230,19436.5815633930
561657708170,48324,5,0,9054.7619385478,11766.0654862103,16466.4467689128,3239.9656392257,-4753.0674099458,-1841.8851065728,-4591.9549363133,-20216.6647744086,-6909.2197900616,-1602.0111314054,-4376.3920193980,1788.7366068502,-20640.6725055977,12016.1846621027,14879.5722523552,19432.6635650160
561657708170,48324,5,0,9054.5429200050,11766.7955480197,16473.0903313782,3242.9345572505,-4756.0606633643,-1835.2537118043,-4592.3808057021,-20220.5219343015,-6911.6776648199,-1604.7123601001,-4374.5060263905,1784.2710621162,-20644.0916284049,12011.3419187672,14873.0625345549,19424.1096741495
561657708170,48324,5,0,9053.3261503227,11765.9438092421,16475.6698831046,3241.7421229619,-4753.9678195107,-1835.5335688313,-4593.9626062890,-20219.9013817635,-6911.2517954311,-1601.0498833564,-4377.9981553786,1783.8938635147,-20639.7842637296,12013.4469303176,14875.0945399244,19425.6184685555
561657708170,48324,5,0,9052.3283991832,11762.7437049777,16469.0871591234,3236.9845535041,-4750.1714981020,-1841.4714048809,-4593.9747739859,-20214.8882906725,-6906.6037352447,-1596.5478355319,-4380.9305703130,1792.2165681416,-20635.7202529907,12020.5163621717,14882.2734810499,19434.0993532411
561657708170,48324,5,0,9054.7376031542,11761.2835813589,16463.6847017340,3235.6339391567,-4745.4017609474,-1842.1041251157,-4588.9981859853,-20207.3929894295,-6900.6415638015,-1591.7537629836,-4375.0414050507,1799.4685154481,-20630.5368141442,12026.3933597372,14886.8485350553,19439.5748168114
561657744263,48325,5,0,9061.4906748909,11768.2313362448,16473.3093499210,3244.1269915391,-4743.0655631574,-1831.3965519115,-4581.7462386788,-20205.0324562459,-6898.5608876447,-1587.9939446653,-4365.2464091082,1799.1399876339,-20633.3718875039,12024.2275097027,14885.5344237984,19437.8348361657
561657744263,48325,5,0,9058.5339245629,11767.9393115211,16481.4495390955,3247.3392635004,-4746.5333567519,-1826.8336656029,-4582.8534990897,-20211.3839939874,-6903.5374756453,-1590.9871980838,-4365.1734029273,1790.8781214911,-20639.1028727075,12018.0828228071,14878.2946441888,19430.0596778959
561657744263,48325,5,0,9054.6159261859,11764.4106794424,16476.8501496964,3242.7033710109,-4749.6361194418,-1829.8512544150,-4588.4628073251,-20215.7643648437,-6906.7740830002,-1595.2337242750,-4372.5956979893,1786.8262784490,-20641.9379460672,12015.0043955109,14876.5303281495,19428.2588587661
561657744263,48325,5,0,9051.5983373738,11761.1497366939,16470.7419658913,3237.2400751374,-4747.1174061994,-1838.2104621323,-4592.5511534576,-20214.9004583693,-6905.1922824132,-1590.7925149346,-4379.8598129926,1790.6225998578,-20638.0929538712,12019.1170770371,14881.2027237295,19429.4269576611
561657744263,48325,5,0,9055.3946587826,11761.3444198430,16466.3250919446,3236.1814855138,-4742.9195507955,-1839.4637349051,-4588.4263042346,-20206.7481014979,-6898.4757137670,-1583.7109153837,-4377.4019382343,1798.2152426753,-20630.9261804425,12025.1644223581,14888.3938325518,19442.0083561760
