timestamp,sequence,battery,flags,EEG-ch1,EEG-ch2,EEG-ch3,EEG-ch4,EEG-ch5,EEG-ch6,EEG-ch7,EEG-ch8,EEG-ch9,EEG-ch10,EEG-ch11,EEG-ch12,EEG-ch13,EEG-ch14,EEG-ch15,EEG-ch16
10879650924,17969,-2,0,29067.9949897736,6471.8519277610,3527.3423027899,12662.2650280073,-47025.7268490031,-3999.4002687328,-52583.1520251263,-60112.1821236518,-14978.0575904401,-40600.0634983820,-54332.1732695465,-23741.3788546848,-37698.8343710102,-9545.9961946836,-17679.3349559205,-3962.0211040927
10879650924,17969,-2,0,29068.6277100084,6481.7929360653,3526.0038561394,12661.1577675964,-47026.8706125044,-4001.1402493785,-52584.2592855372,-60117.3898978920,-14979.9557511445,-40601.0612495215,-54333.4752131065,-23742.4617797020,-37700.2944946289,-9545.4364806298,-17677.8626646049,-3964.0409417653
10879650924,17969,-2,0,29067.7273004435,6477.7167576296,3523.9231799827,12659.3691161634,-47028.7201024215,-4002.6855468750,-52586.6441541145,-60120.7360145183,-14982.4379612963,-40603.2027641623,-54336.6388142805,-23743.1553384209,-37700.6838609272,-9541.8226746734,-17675.3682867562,-3964.6249912128
10879650924,17969,-2,0,29068.5060330402,6465.8654209241,3526.3202162568,12658.4443712049,-47026.8827802012,-4001.9919881561,-52587.9217622809,-60122.0622934720,-14981.2211916141,-40602.4483669593,-54336.6509819773,-23742.5469535798,-37699.7347805751,-9539.6081538516,-17676.4147086830,-3961.9724333054
10879650924,17969,-2,0,29073.4461179503,6489.9574606335,3527.8655137533,12660.3060288188,-47026.2013891792,-4000.5440322342,-52589.4427243838,-60122.8288583718,-14979.1891862446,-40600.5502062549,-54337.7460746914,-23743.7515555653,-37698.5180108928,-9538.9997690104,-17674.6625603405,-3961.3153776770
10879650924,17969,-2,0,29076.6462222148,6498.3775068350,3528.4130601104,12664.5768904037,-47024.2423899907,-3997.6359526935,-52587.1065265938,-60120.9550330611,-14976.2689390071,-40597.2284250222,-54335.8844170774,-23741.8290594672,-37696.8388687312,-9535.1426091176,-17672.7278965456,-3960.6948251390
10879650924,17969,-2,0,29075.8918250117,6478.9943657960,3532.1972138223,12664.9419213083,-47021.4924905087,-3996.6016984635,-52584.6121487451,-60119.6530895011,-14975.0521693248,-40594.4663578434,-54333.2075237764,-23740.2959296676,-37693.4684167112,-9532.5265543006,-17672.3628656410,-3959.3442107917
10879650924,17969,-2,0,29075.9526634958,6485.2850650535,3529.8488483355,12664.5890581005,-47022.1738815308,-3996.7963816127,-52583.9064223293,-60117.7427610998,-14974.0422504885,-40593.3225943421,-54331.9785863973,-23739.5780355550,-37693.0668827161,-9531.6504801294,-17672.3993687314,-3959.8674217551
10879683384,17970,-2,0,29076.6097191243,6497.9029666589,3530.5667424480,12668.1298578760,-47022.0887076530,-3995.9811459256,-52581.9109200504,-60118.0347858236,-14975.1495108994,-40593.9309791832,-54331.6135554926,-23739.2616754376,-37693.4197459239,-9532.0885172150,-17671.0730897777,-3959.1738630362
10879683384,17970,-2,0,29073.6529687963,6484.0926307649,3528.4130601104,12664.6498965846,-47021.1761303913,-3995.5796119304,-52582.3611248328,-60118.0104504300,-14975.3198586549,-40593.9188114864,-54332.1854372433,-23739.4441908899,-37694.1254723397,-9535.7631616555,-17672.4480395187,-3958.4681366204
10879683384,17970,-2,0,29074.7480615104,6493.1697325948,3529.6663328831,12664.0780148339,-47024.1085453256,-3996.5286922826,-52584.3079563245,-60119.9329465280,-14975.5997156819,-40596.3888539414,-54333.2318591700,-23742.7538044258,-37696.8388687312,-9538.9389305263,-17674.9302496706,-3959.6240678186
10879683384,17970,-2,0,29073.7016395836,6498.9128854952,3527.7073336946,12663.1897729658,-47019.5821621075,-4000.6048707183,-52585.8775892146,-60121.5390825086,-14978.8606584304,-40599.6619643868,-54338.0380994151,-23745.3820269395,-37699.1872342180,-9539.6933277293,-17679.2984528300,-3963.0188552322
10879683384,17970,-2,0,29068.5303684339,6471.8884308514,3527.2084581249,12657.7264770923,-47021.8818568070,-4004.2186766747,-52587.6175698603,-60119.1298785377,-14980.5276328951,-40602.4727023529,-54340.7028250193,-23746.4284488663,-37695.8776206822,-9539.6811600325,-17682.1456938866,-3963.2865445623
10879683384,17970,-2,0,29071.8521496665,6476.1957955268,3529.3743081594,12659.1135945302,-47027.8440282503,-4002.7707207528,-52590.3066308582,-60123.7414356336,-14980.5154651983,-40603.1054225877,-54340.4594710829,-23745.1630083967,-37696.9970487899,-9539.3161291278,-17682.8514203023,-3962.9458490513
10879683384,17970,-2,0,29075.1739308992,6496.7592031575,3527.8290106629,12660.3425319093,-47027.6371774043,-4001.0550755007,-52590.1119477090,-60122.3908212862,-14978.8728261272,-40601.5966281817,-54339.5225584275,-23744.7371390079,-37696.8875395185,-9539.1457813723,-17678.2763662969,-3961.4492223420
10879683384,17970,-2,0,29074.2126828502,6485.3459035376,3530.7735932940,12658.8945759873,-47026.4204077220,-4000.3615167818,-52588.5666502125,-60124.0091249637,-14978.2522735893,-40601.2437649738,-54338.1354409897,-23745.5037039078,-37698.6275201642,-9541.6888300083,-17680.7099056615,-3963.9192647971
10879712234,17971,-2,0,29072.9594100774,6480.7586818354,3530.4937362671,12659.2839422857,-47026.8584448076,-4000.5927030215,-52589.1993704473,-60123.8144418145,-14978.0332550464,-40601.0247464310,-54338.5248072880,-23746.5866289250,-37699.9537991179,-9544.9862758473,-17687.1709526745,-3976.9265327008
10879712234,17971,-2,0,29075.3077755642,6492.0503044871,3530.7857609908,12661.3281153519,-47024.7412655604,-3998.4998591679,-52586.3764647844,-60123.7901064209,-14976.1594297357,-40600.1851753502,-54338.4761365007,-23746.9516598297,-37698.0921415040,-9547.9065230848,-17690.0060260342,-3980.7228541096
10879712234,17971,-2,0,29074.3830306057,6478.2034655025,3534.3143930695,12662.5813881247,-47021.9183598975,-3997.1735802142,-52585.3422105544,-60123.1087153988,-14974.2004305472,-40597.2040896286,-54338.1719440802,-23746.6596351060,-37692.8965349606,-9545.7528407472,-17687.4873127919,-3973.8967761919
10879712234,17971,-2,0,29074.7480615104,6480.8316880163,3535.4216534804,12663.8711639879,-47020.4095654914,-3995.5917796272,-52584.2227824467,-60122.8896968560,-14971.6817173049,-40595.3667674083,-54335.7140693219,-23746.0999210521,-37691.3147343736,-9540.2652094800,-17682.6202340627,-3964.4303080637
10879712234,17971,-2,0,29078.7025629778,6505.3130940241,3536.4437400135,12667.1564421301,-47020.7989317898,-3994.8738855147,-52583.2250313072,-60121.5269148118,-14970.0877490211,-40594.6488732958,-54333.9862563731,-23744.0922510763,-37693.0060442320,-9533.6338147115,-17674.9667527611,-3957.1661930604
10879712234,17971,-2,0,29076.4758744592,6490.8943732889,3536.2247214707,12665.7328216018,-47018.3775601220,-3992.7932093579,-52580.7793242458,-60120.1763004644,-14969.3576872117,-40591.4487690313,-54332.6964805098,-23741.2571777166,-37691.5215852196,-9528.8884129506,-17669.5034568876,-3954.3432873975
10879712234,17971,-2,0,29075.2469370801,6475.5387398983,3536.3829015294,12662.3745372787,-47015.5181513686,-3991.4790981011,-52582.2151124709,-60119.0568723567,-14968.0314082580,-40588.5285217938,-54330.5062950817,-23739.3225139217,-37688.7108472535,-9527.1727676985,-17666.9969113420,-3953.9174180086
10879712234,17971,-2,0,29075.8918250117,6490.7605286238,3533.4383188982,12662.3867049755,-47015.9318530606,-3991.8197936121,-52582.3124540455,-60119.6895925915,-14969.5280349672,-40589.6479499015,-54331.6622262799,-23740.4541097263,-37690.8766972880,-9529.0587607061,-17665.4759492392,-3957.6650686301
10879739604,17972,-2,0,29074.3100244248,6487.6699336308,3530.8344317781,12660.6953951171,-47019.1319573250,-3993.2799172309,-52584.4418009895,-60121.0767100293,-14971.2436802192,-40590.7795457061,-54332.6964805098,-23741.3423515943,-37692.6166779336,-9532.5143866038,-17669.0654198019,-3962.1062779705
10879739604,17972,-2,0,29074.6507199358,6481.9024453367,3533.6330020474,12660.0018363982,-47018.8521002981,-3993.0365632944,-52583.0911866422,-60121.2592254817,-14969.1386686689,-40590.2685024395,-54331.0538414387,-23741.2693454134,-37692.8600318701,-9534.2543672495,-17671.1339282618,-3963.5055631051
10879739604,17972,-2,0,29077.4979609924,6497.8907989621,3534.7524301551,12663.1289344817,-47019.1562927187,-3992.7932093579,-52580.8401627299,-60118.9595307821,-14968.9318178229,-40588.6258633684,-54330.1290964802,-23740.1012465184,-37693.1763919875,-9534.3395411272,-17670.6715557826,-3961.5952347039
10879739604,17972,-2,0,29076.4028682783,6488.5460078021,3536.1030445025,12664.2726979831,-47015.7006668210,-3993.8396312847,-52578.0659278543,-60116.5868299017,-14970.2459290798,-40588.3946771288,-54330.0317549056,-23739.7118802200,-37694.1863108238,-9532.6725666625,-17671.5719653475,-3958.2612857744
10879739604,17972,-2,0,29075.9526634958,6472.7401696290,3535.0931256662,12662.2528603105,-47020.9084410612,-3995.1902456321,-52578.0415924607,-60118.7648476330,-14971.4261956716,-40590.2319993490,-54330.2629411453,-23739.7848864010,-37693.3832428335,-9532.8429144180,-17672.5088780028,-3957.7867455983
10879739604,17972,-2,0,29080.1261835061,6495.7736197149,3533.3044742332,12665.7814923891,-47019.6430005916,-3995.0198978765,-52578.8689958446,-60118.4241521219,-14970.4649476226,-40590.8282164934,-54331.9299156100,-23740.5149482104,-37693.7361060413,-9533.1957776259,-17671.2677729269,-3959.6119001218
10879739604,17972,-2,0,29082.4623812961,6504.4126844592,3537.6848450894,12670.1010247613,-47018.0125292173,-3992.7688739643,-52578.2606110035,-60118.4606552124,-14967.8367251088,-40589.2342482096,-54330.8348228959,-23739.7240479169,-37692.0447961830,-9533.8771686480,-17667.1064206135,-3961.7169116722
10879739604,17972,-2,0,29081.3307854916,6487.3414058166,3539.6560119748,12670.8675896611,-47016.5159025081,-3991.7711228248,-52577.6157230719,-60117.9374442490,-14967.1309986931,-40589.9886454126,-54330.5549658690,-23740.6122897849,-37689.5504183342,-9534.6680689415,-17668.3840287799,-3964.1991218240
10879797191,17973,-2,0,29081.6836486995,6497.5866065415,3539.5221673097,12670.7702480865,-47018.2193800633,-3993.7301220133,-52580.3047840697,-60119.4097355646,-14968.4329422531,-40592.0328184788,-54332.8424928717,-23742.1697549783,-37692.4950009654,-9536.3350434062,-17668.0920040561,-3966.2676302839
10879797191,17973,-2,0,29078.8850784302,6493.3644157439,3535.8231874755,12668.3732118124,-47020.4095654914,-3996.3948476175,-52580.7063180649,-60120.8941945770,-14973.4338656474,-40594.9530657163,-54335.2760322363,-23742.3401027338,-37694.3201554888,-9537.1989498806,-17667.5931284864,-3965.5740715650
10879797191,17973,-2,0,29073.0689193488,6474.0056100986,3530.7249225067,12661.8148232249,-47023.7921852082,-3998.2808406251,-52584.7581611069,-60122.8045229782,-14974.9304923566,-40597.1919219318,-54337.7460746914,-23744.3842758001,-37697.0092164867,-9538.9754336168,-17666.5588742564,-3962.0332717896
10879797191,17973,-2,0,29072.7768946251,6487.9132875673,3528.4252278072,12659.0892591365,-47024.2667253843,-3998.7797161948,-52586.8023341732,-60122.5976721322,-14974.3829459996,-40596.8268910271,-54338.4274657134,-23745.5767100887,-37697.4594212692,-9538.0628563551,-17668.7490596845,-3959.7579124837
10879797191,17973,-2,0,29068.4208591624,6489.5437589415,3523.7771676208,12657.1545953417,-47026.6637616584,-3999.4367718233,-52587.3620482270,-60125.0190438000,-14976.1837651294,-40597.5082820492,-54339.9362601195,-23747.3045230376,-37697.0457195772,-9537.8681732059,-17673.2997782963,-3961.6439054912
10879797191,17973,-2,0,29063.1644141349,6463.6995708896,3524.0570246478,12654.4290312533,-47026.3352338442,-4000.4831937500,-52584.9771796497,-60124.9217022254,-14976.6461376086,-40597.3866050809,-54339.4738876402,-23745.9417409934,-37696.3156577678,-9538.0871917487,-17677.4367952161,-3964.0287740685
10879797191,17973,-2,0,29066.9485678469,6470.3553010518,3525.1886204523,12658.7485636255,-47024.0720422351,-3998.9378962535,-52579.5868899572,-60119.4949094424,-14973.8597350362,-40593.0549050120,-54333.5238838938,-23739.9552341565,-37691.5945914005,-9536.3837141935,-17674.7964050055,-3962.9823521417
10879797191,17973,-2,0,29070.6718830747,6484.4576616695,3526.0768623204,12664.0171763498,-47019.6430005916,-3995.3240902971,-52573.2718553061,-60115.1023708893,-14970.8421462241,-40588.3095032510,-54328.4864574091,-23735.4531863320,-37692.0934669702,-9532.9645913863,-17667.8973209069,-3960.5488127772
10879811096,17974,-2,0,29068.8953993385,6475.3318890523,3530.4450654798,12663.8589962911,-47016.1752069971,-3992.4403461501,-52569.1835091736,-60112.6444961310,-14966.2184214314,-40584.0508093630,-54323.3151862594,-23732.1922435835,-37690.8036911070,-9529.3629531267,-17664.9040674885,-3956.9715099112
10879811096,17974,-2,0,29070.6597153779,6481.3062281924,3533.5356604728,12665.5381384527,-47013.8390092070,-3989.7512851522,-52567.5895408898,-60109.9676028300,-14963.8213851572,-40581.7389469666,-54322.5242859659,-23732.0705666152,-37689.5747537279,-9525.8829918353,-17661.7526340114,-3954.8178275735
10879811096,17974,-2,0,29071.0612493730,6488.9840448877,3533.0976233872,12665.6963185114,-47015.5059836718,-3990.4448438711,-52569.6337139560,-60110.6003230648,-14965.6708750743,-40583.8804616075,-54322.5972921468,-23732.3747590358,-37691.1078835276,-9525.8099856544,-17658.9053929548,-3954.6839829085
10879811096,17974,-2,0,29065.4032703504,6464.0889371879,3531.0169472305,12661.1821029901,-47016.4428963272,-3993.7666251038,-52569.9622417702,-60112.6201607374,-14967.8610605025,-40585.8881315832,-54324.4224466702,-23734.7717953099,-37693.8577830096,-9527.9515002952,-17660.6940443878,-3956.2536157987
10879811096,17974,-2,0,29065.9994874947,6468.9681836139,3530.0070283942,12659.9288302173,-47018.5357401807,-3994.5940284877,-52571.9699117460,-60113.1190363071,-14968.4937807373,-40587.3360875052,-54325.4445332034,-23734.4432674957,-37694.1376400365,-9530.8352444422,-17663.2492607206,-3953.6253932849
10879811096,17974,-2,0,29067.2405925706,6493.9728005851,3529.0457803452,12664.1145179244,-47018.7425910267,-3996.1879967715,-52572.7608120395,-60112.6566638279,-14969.4915318767,-40589.6357822047,-54325.4810362938,-23734.5041059798,-37695.2935712347,-9530.9204183200,-17662.8233913318,-3954.9760076322
10879811096,17974,-2,0,29065.5614504091,6479.3715643976,3528.6807494405,12663.3357853277,-47019.8985222249,-3997.2222510015,-52573.2596876093,-60112.4498129819,-14970.2459290798,-40590.7187072220,-54326.2232658000,-23734.1269073783,-37697.3985827850,-9530.7744059581,-17662.3123480652,-3953.6375609817
10879811096,17974,-2,0,29065.2694256853,6475.1493736000,3531.1386241987,12664.9054182179,-47019.0832865377,-3998.2443375346,-52572.9189920982,-60111.9631051090,-14970.9151524050,-40589.9156392316,-54326.1989304064,-23733.7618764736,-37698.3841662277,-9528.6572267109,-17661.7648017082,-3953.2238592897
10879828496,17975,-2,0,29067.1310832992,6485.1147172980,3529.0214449515,12665.7571569955,-47021.5046582055,-3998.9013931631,-52574.3304449297,-60113.4110610309,-14972.4969529920,-40591.3635951536,-54328.0605880203,-23736.3049251096,-37699.3697496704,-9529.3021146425,-17660.8765598401,-3959.3320430949
10879828496,17975,-2,0,29061.5217750638,6470.2944625676,3525.4806451760,12661.3767861392,-47024.6439239858,-4001.6634603419,-52578.1389340352,-60117.0126992905,-14975.1373432026,-40594.5271963275,-54331.0051706514,-23738.7506321710,-37701.3895873430,-9533.6216470147,-17665.5489554201,-3962.4348057847
10879828496,17975,-2,0,29059.6114466626,6467.0335198191,3524.4220555524,12657.8481540606,-47026.5907554775,-4003.4277763812,-52579.1001820843,-60119.4827417455,-14976.4636221563,-40595.7926367971,-54331.7960709449,-23741.0746622642,-37703.2390772601,-9537.8195024186,-17670.1118417287,-3964.8805128461
10879828496,17975,-2,0,29062.2518368732,6485.7109344423,3522.6942426036,12659.6611408872,-47027.9413698248,-4004.9365707872,-52580.9740073950,-60118.3511459410,-14975.6970572564,-40594.4785255402,-54332.3071142115,-23740.9286499023,-37706.1593244976,-9539.3282968247,-17670.3795310588,-3965.2820468413
10879828496,17975,-2,0,29059.7331236309,6472.9470204750,3525.7726698998,12659.4786254348,-47022.8552725528,-4003.1600870511,-52577.8104062210,-60116.6111652953,-14974.6019645424,-40593.5051097944,-54330.7496490182,-23741.8655625577,-37703.8961328885,-9540.9222651085,-17669.3209414352,-3961.6439054912
10879828496,17975,-2,0,29059.0395649120,6456.3502820085,3526.8434272202,12657.1545953417,-47023.9990360542,-4002.0041558529,-52577.6522261623,-60117.0735377746,-14974.0179150949,-40591.7407937551,-54329.5937178200,-23738.4951105378,-37702.4116738761,-9541.0926128640,-17668.5057057481,-3960.0499372074
10879828496,17975,-2,0,29064.5150284823,6477.1448758790,3527.5613213328,12659.9044948236,-47022.2590554085,-3998.8770577694,-52574.4277865043,-60114.2141290212,-14971.7547234858,-40587.5916091385,-54325.9069056826,-23733.0804854515,-37699.7104451814,-9538.9876013136,-17667.5687930927,-3957.4338823905
10879828496,17975,-2,0,29068.1653375292,6480.2841416593,3530.0191960910,12663.4574622959,-47019.4239820488,-3996.9545616714,-52571.0816698779,-60110.3448014315,-14969.5888734513,-40586.5573549085,-54323.3760247435,-23731.4013432900,-37698.4085016214,-9538.9389305263,-17667.7391408482,-3955.0611815100
10879873500,17976,-2,0,29068.5547038275,6470.3553010518,3531.2237980765,12662.6908973961,-47019.2049635060,-3997.4047664538,-52572.1645948952,-60112.3524714073,-14969.0899978816,-40588.0661493146,-54324.6901360003,-23733.3360070848,-37700.3066623257,-9537.6856577536,-17668.6760535036,-3953.9782564928
10879873500,17976,-2,0,29070.6597153779,6487.3779089070,3531.7348413430,12665.1731075480,-47019.8011806503,-3998.8283869821,-52573.5638800298,-60113.5570733928,-14970.2215936861,-40588.0539816177,-54326.0894211350,-23734.7717953099,-37700.5621839590,-9535.7509939587,-17665.8653155375,-3954.9151691481
10879873500,17976,-2,0,29070.6232122874,6479.1403781579,3531.5401581939,12665.2339460321,-47021.2248011786,-3998.8162192853,-52573.3205260934,-60112.9608562484,-14971.2436802192,-40589.8791361412,-54325.5905455652,-23733.7983795641,-37700.8420409859,-9536.2620372253,-17664.7823905203,-3955.1585230846
10879873500,17976,-2,0,29066.8268908786,6463.0790183516,3530.2503823306,12660.9144136600,-47022.6240863132,-4001.4809448895,-52574.0505879027,-60113.8004273292,-14974.0057473981,-40590.9985642489,-54327.6590540251,-23734.8204660972,-37700.8298732891,-9537.4666392107,-17667.1550914007,-3955.6452309575
10879873500,17976,-2,0,29068.7980577640,6484.5428355473,3527.0624457630,12659.9775010046,-47022.8431048560,-4003.4156086844,-52576.2894441182,-60115.2362155543,-14974.7236415106,-40591.6799552710,-54329.2651900058,-23737.4730240046,-37703.6162758616,-9539.7054954262,-17667.5079546086,-3958.2004472903
10879873500,17976,-2,0,29066.6443754263,6488.0714676260,3524.1543662223,12659.5516316158,-47027.6006743138,-4004.6932168508,-52579.4287098985,-60120.4439897945,-14976.9259946356,-40594.6367055989,-54332.6843128130,-23740.4784451199,-37705.9038028643,-9541.3481344973,-17667.6174638800,-3961.8750917309
10879873500,17976,-2,0,29063.7362958856,6469.6617423328,3526.0890300172,12657.7143093955,-47027.4911650424,-4005.6422972030,-52581.4485475711,-60122.9992061274,-14977.1450131784,-40593.7727991245,-54332.6721451162,-23741.5005316530,-37706.9867278815,-9543.3071336858,-17669.0775874988,-3965.2333760540
10879873500,17976,-2,0,29066.1941706438,6477.3030559377,3526.8555949170,12657.9211602415,-47026.2257245728,-4005.2894339951,-52581.5458891457,-60119.7260956820,-14975.7943988310,-40592.2883401121,-54331.8204063386,-23739.8457248851,-37704.0786483408,-9541.2021221354,-17667.6661346673,-3965.8539285920
10879894887,17977,-2,0,29068.3478529815,6482.2553085446,3526.6974148583,12660.3181965156,-47025.3131473111,-4002.5151991195,-52580.5603057030,-60119.5435802296,-14973.9084058235,-40591.2297504885,-54330.9808352578,-23739.3833524058,-37701.4747612207,-9538.4522226534,-17665.6706323883,-3962.1549487578
10879894887,17977,-2,0,29070.5015353192,6471.4625614626,3529.1066188293,12661.1577675964,-47020.0323668899,-3998.5363622584,-52578.5648034241,-60118.7405122393,-14970.3067675639,-40588.7110372462,-54329.9222456342,-23739.4320231931,-37697.9217937484,-9539.3891353088,-17665.1474214250,-3960.6826574422
10879894887,17977,-2,0,29073.2757701948,6486.7573563691,3530.0556991815,12663.9685055625,-47018.5844109680,-3993.6084450451,-52578.3457848812,-60118.4849906060,-14967.1675017836,-40585.5474360722,-54328.6689728614,-23739.0913276821,-37695.4030805061,-9539.4986445802,-17665.5002846328,-3960.2081172661
10879894887,17977,-2,0,29074.6750553294,6496.0169736513,3530.8100963845,12665.8423308732,-47019.4848205329,-3994.5818607909,-52578.6986480891,-60118.5336613933,-14967.9218989866,-40584.6956972946,-54330.1290964802,-23740.1255819120,-37695.5855959584,-9536.8582543696,-17664.3686888283,-3958.8696706156
10879894887,17977,-2,0,29071.6574665174,6472.7280019322,3532.0998722477,12665.6354800273,-47016.4307286303,-3996.8815554905,-52576.7153135070,-60116.2217989970,-14969.6253765418,-40584.9390512311,-54329.9344133310,-23738.3734335695,-37695.8897883790,-9535.2156152985,-17665.9504894153,-3957.2026961508
10879894887,17977,-2,0,29073.0567516520,6476.1957955268,3530.8222640813,12665.1244367607,-47021.3586458436,-3997.8793066299,-52579.1001820843,-60118.2416366696,-14971.0733324637,-40586.6546964831,-54330.0317549056,-23738.0692411490,-37697.9096260516,-9533.1957776259,-17665.9383217184,-3961.1693653151
10879894887,17977,-2,0,29071.7913111824,6490.6753547461,3525.9551853521,12664.1631887117,-47025.3618180984,-4002.7950561464,-52581.9352554440,-60119.0933754472,-14974.8453184788,-40589.6966206888,-54332.2949465147,-23740.4297743326,-37703.1660710791,-9533.3661253814,-17662.6652112731,-3967.7277539027
10879894887,17977,-2,0,29067.0337417246,6474.0177777955,3523.9475153763,12659.6368054935,-47029.3893257468,-4006.0073281077,-52585.8654215178,-60121.3687347531,-14976.6704730023,-40594.2108362101,-54335.4585476886,-23743.5082016288,-37705.2954180231,-9535.0696029366,-17663.1884222365,-3969.6624176975
10879928659,17978,-2,0,29065.7683012550,6476.2201309204,3522.9740996305,12658.3226942367,-47030.4844184608,-4006.7738930075,-52587.1795327747,-60121.1983869976,-14978.5686337067,-40596.0724938241,-54335.8235785933,-23744.4329465874,-37705.8307966833,-9535.7388262619,-17662.0324910383,-3967.2653814234
10879928659,17978,-2,0,29064.4906930886,6483.4355751364,3519.6766537915,12658.9432467746,-47032.2365668033,-4007.2849362741,-52587.6784083444,-60125.7004348221,-14980.1991050809,-40596.8633941175,-54337.8312485691,-23745.7470578442,-37705.1372379644,-9535.3859630540,-17658.4551881723,-3962.2644580292
10879928659,17978,-2,0,29060.9133902227,6462.8965028993,3518.7519088330,12656.0108318403,-47031.2753187543,-4008.4652028659,-52586.2669555130,-60126.1384719077,-14981.2333593109,-40596.8025556334,-54337.2715345153,-23746.7448089837,-37704.7357039693,-9536.7122420077,-17662.2758449747,-3960.3297942343
10879928659,17978,-2,0,29065.7926366487,6470.0754440248,3522.2805409116,12658.0550049066,-47028.9269532675,-4006.0316635013,-52584.1011054785,-60125.9437887585,-14978.1914351051,-40594.5393640244,-54336.4562988281,-23745.7227224506,-37702.0466429714,-9537.4179684235,-17668.6638858068,-3966.4866488267
10879928659,17978,-2,0,29069.0657470941,6493.3035772598,3523.3999690193,12662.0581771613,-47024.2058869002,-4004.2065089779,-52581.6797338107,-60121.3200639658,-14974.9183246598,-40593.3347620389,-54336.0182617425,-23745.8443994188,-37702.2534938174,-9538.6225704089,-17673.5796353233,-3976.5128310089
10879928659,17978,-2,0,29065.5736181059,6479.9799492387,3526.6365763742,12662.2163572200,-47026.0067060300,-4001.5174479800,-52581.8865846567,-60122.2813120148,-14973.3730271633,-40591.5339429091,-54334.7528212729,-23744.8588159762,-37700.5986870495,-9537.9776824773,-17675.9158331133,-3977.8391099626
10879928659,17978,-2,0,29062.8602217144,6468.6761588902,3526.6244086774,12658.4565389017,-47025.5199981571,-4001.4566094959,-52583.1155220358,-60123.5589201812,-14973.6893872807,-40592.0328184788,-54335.3612061141,-23744.5911266460,-37698.7978679197,-9537.0651052156,-17674.8329080960,-3969.5529084261
10879928659,17978,-2,0,29063.3834326778,6477.8749376883,3524.3003785842,12660.7318982076,-47023.8895267828,-3999.8261381216,-52584.3322917181,-60122.9261999464,-14972.3266052365,-40589.7452914761,-54335.1421875712,-23742.6077920639,-37698.2746569563,-9535.6901554746,-17669.6859723399,-3961.0720237405
10879966144,17979,-2,0,29060.8525517386,6469.1263636726,3525.2859620269,12659.6489731904,-47021.2856396627,-3995.5917796272,-52582.0447647154,-60120.8941945770,-14969.7592212068,-40585.3405852262,-54332.4166234829,-23740.8556437214,-37694.4905032444,-9532.5265543006,-17665.5124523296,-3956.6186467033
10879966144,17979,-2,0,29062.1909983891,6467.4228861174,3528.5347370786,12659.5272962221,-47018.9007710854,-3994.2776683703,-52578.8568281478,-60117.4264009825,-14966.6077877297,-40583.8196231234,-54330.1290964802,-23737.9840672712,-37691.8744484274,-9530.5675551121,-17663.5047823539,-3955.4505478083
10879966144,17979,-2,0,29067.0945802087,6488.9962125845,3530.3477239052,12664.9297536115,-47020.1418761613,-3995.2632518130,-52577.2750275608,-60115.2605509480,-14966.4861107615,-40583.9413000916,-54328.7298113456,-23736.8768068603,-37692.9208703542,-9529.8131579091,-17661.6552924368,-3958.0909380189
10879966144,17979,-2,0,29065.3789349567,6474.6748334239,3530.3477239052,12665.1001013670,-47022.1617138339,-3997.9644805077,-52576.8004873847,-60115.5404079749,-14969.1265009721,-40586.2166593975,-54329.1800161280,-23737.8258872125,-37696.1088069218,-9530.0808472392,-17661.4727769844,-3959.5997324250
10879966144,17979,-2,0,29062.9332278953,6459.3922062143,3531.7713444335,12664.1023502276,-47022.0157014721,-3999.4489395201,-52576.6666427197,-60117.3168917111,-14970.0147428401,-40587.5794414416,-54328.5351281964,-23739.3468493154,-37698.6031847705,-9529.6914809409,-17662.6043727890,-3959.6484032123
10879966144,17979,-2,0,29067.1919217833,6479.5662475467,3530.2382146338,12664.9784243988,-47022.3563969831,-4000.0694920581,-52577.6157230719,-60117.9739473395,-14970.5866245908,-40587.5916091385,-54331.6378908862,-23739.4198554963,-37700.4770100813,-9530.7257351708,-17661.1442491702,-3959.9890987233
10879966144,17979,-2,0,29064.9652332647,6480.0894585101,3527.7560044819,12662.4597111565,-47021.5533289928,-4000.1911690263,-52578.4187910622,-60117.4507363761,-14970.6109599844,-40587.1049012655,-54331.9055802163,-23739.3103462249,-37700.6473578368,-9533.1592745354,-17660.4141873608,-3958.6628197696
10879966144,17979,-2,0,29061.9111413622,6467.0943583032,3527.8168429660,12658.8094021096,-47022.6727571005,-3999.3029271582,-52580.2196101920,-60118.9595307821,-14968.6641284928,-40586.1193178229,-54330.1047610865,-23737.5216947919,-37700.8785440764,-9532.9767590831,-17661.9838202510,-3957.8840871729
10879993725,17980,-2,0,29065.4032703504,6479.1525458547,3527.4883151518,12658.5660481731,-47022.9769495211,-3998.8162192853,-52580.0249270428,-60117.5237425570,-14968.7127992801,-40584.7565357787,-54329.2530223089,-23736.0859065668,-37698.8343710102,-9532.2953680610,-17658.7350451993,-3955.5235539893
10879993725,17980,-2,0,29067.2770956611,6477.4247329059,3528.6807494405,12659.7341470681,-47020.4704039756,-3996.0054813192,-52578.2484433067,-60115.3457248257,-14968.1530852262,-40583.6006045805,-54328.0970911108,-23736.9619807381,-37695.8532852885,-9529.2291084616,-17657.1532446123,-3954.3676227911
10879993725,17980,-2,0,29067.9219835927,6464.5391419704,3530.6397486290,12661.5106308043,-47017.3919766793,-3994.1559914021,-52574.5251280788,-60114.8103461655,-14965.3910180474,-40581.3617483651,-54325.6878871398,-23734.3824290116,-37692.7018518114,-9527.2822769699,-17655.4132639666,-3956.8741683366
10879993725,17980,-2,0,29073.1054224393,6487.6577659340,3534.0102006489,12667.1077713428,-47016.4185609335,-3992.1848245168,-52571.9699117460,-60111.2817140869,-14962.5194415972,-40578.2589856753,-54322.9379876578,-23730.8051261457,-37692.7748579923,-9525.1164269355,-17653.6489479273,-3960.2932911439
10879993725,17980,-2,0,29077.0964269972,6495.7371166244,3536.9426155832,12671.9140115879,-47015.8101760924,-3990.1284837537,-52570.8018128510,-60108.4101376367,-14960.4022623500,-40577.1882283548,-54321.8550626406,-23730.5009337251,-37692.4341624813,-9525.6518055957,-17655.1942454238,-3961.3762161611
10879993725,17980,-2,0,29076.1230112514,6477.5220744805,3539.4248257351,12672.8752596369,-47013.5713198769,-3988.8143724968,-52569.0374968117,-60107.7530820082,-14958.6501140075,-40575.9471232789,-54320.1759204790,-23729.5761887665,-37690.0736292976,-9527.7811525397,-17657.5912816979,-3957.7745779015
10879993725,17980,-2,0,29079.8706618728,6489.4585850638,3542.6614330900,12676.2335439600,-47011.1621159060,-3986.1374791958,-52567.0784976232,-60105.0396856167,-14956.0462268874,-40573.7447701540,-54317.6572072367,-23727.3981710352,-37687.5549160553,-9527.3187800604,-17654.9022207000,-3954.6231444244
10879993725,17980,-2,0,29081.0022576774,6499.1440717348,3541.9070358870,12677.1826243122,-47011.7096622630,-3986.4416716164,-52567.6747147675,-60105.9035920911,-14956.8857979682,-40573.4649131270,-54318.7157968603,-23728.2012390255,-37689.1975551264,-9527.2944446668,-17652.6876998783,-3952.3477851185
10880027323,17981,-2,0,29076.1716820387,6487.7307721149,3540.9336201412,12674.1650355001,-47012.6952457057,-3988.0964783843,-52568.0884164595,-60104.7841639834,-14958.5162693424,-40574.7425212934,-54319.9447342394,-23730.0628966395,-37691.1687220117,-9527.3431154541,-17653.4177616876,-3950.8998291966
10880027323,17981,-2,0,29076.1838497355,6497.7569542970,3538.3175653242,12673.3011290257,-47016.5280702049,-3992.6593646929,-52571.4345330858,-60112.2672975295,-14962.5437769908,-40579.1958983306,-54322.9988261420,-23733.6645348990,-37697.3985827850,-9530.0930149360,-17655.5227732380,-3951.2405247076
10880027323,17981,-2,0,29074.1031735788,6502.4171821802,3534.3995669473,12672.4128871576,-47018.4627339998,-3997.7576296617,-52576.1190963626,-60116.3434759652,-14966.1089121600,-40582.9313812553,-54328.4134512282,-23738.6776259901,-37702.9105494458,-9535.2886214794,-17658.4186850819,-3955.7547402289
10880027323,17981,-2,0,29072.4727022045,6477.8871053852,3534.8011009424,12671.9383469815,-47023.3176450321,-3999.8139704248,-52579.3678714144,-60119.2272201123,-14969.9174012655,-40585.8394607960,-54330.1655995707,-23739.8822279756,-37703.5067665902,-9537.2719560616,-17663.3952730825,-3959.6605709091
10880027323,17981,-2,0,29076.1473466450,6482.9853703540,3535.5433304486,12673.7026630209,-47023.4271543035,-4000.3858521755,-52577.0073382307,-60117.3290594079,-14969.2725133339,-40584.5375172359,-54328.8028175265,-23737.7650487284,-37703.3729219251,-9536.2742049221,-17660.5723674195,-3959.8187509678
10880027323,17981,-2,0,29084.2510327291,6503.2080824737,3537.4658265466,12679.1172881071,-47020.6650871247,-3995.6769535050,-52572.0185825333,-60110.1136151919,-14965.2693410792,-40581.1792329128,-54323.0109938388,-23732.5451067913,-37700.3309977194,-9531.9303371563,-17651.8967995848,-3955.3410385369
10880027323,17981,-2,0,29084.4578835751,6488.6555170735,3542.1503898235,12681.4534858971,-47016.3577224494,-3992.3186691819,-52569.1226706894,-60106.9135109274,-14961.7042059101,-40576.7136881788,-54319.0321569777,-23727.2764940670,-37696.4129993424,-9526.4062027987,-17647.7962857554,-3952.8101575978
10880027323,17981,-2,0,29086.1856965239,6486.1246361343,3542.9534578138,12680.6504179068,-47014.8245926497,-3991.6494458566,-52567.9789071881,-60106.7796662624,-14960.4265977436,-40576.1904772154,-54318.1195797160,-23725.8772089324,-37693.9186214937,-9524.4715390038,-17645.6912742051,-3950.7903199252
10880064860,17982,-2,0,29083.3141200737,6494.1188129470,3540.1183844540,12678.3872262977,-47018.5722432712,-3994.3263391576,-52571.0938375748,-60110.5638199743,-14963.3225095875,-40578.5631780958,-54321.9280688215,-23731.5473556519,-37696.5103409170,-9527.7324817524,-17645.3019079067,-3951.1675185267
10880064860,17982,-2,0,29077.3154455400,6474.1516224605,3535.3243119058,12672.2303717053,-47020.4339008851,-3996.1271582874,-52574.4642895947,-60116.4043144493,-14965.9750674949,-40581.5807669079,-54326.3449427683,-23735.4410186352,-37696.5225086138,-9530.8839152295,-17648.9887200441,-3952.4937974804
10880064860,17982,-2,0,29078.4470413446,6474.5409887588,3533.5843312601,12669.0059320472,-47021.1517949976,-3996.5165245858,-52577.8834124020,-60118.7040091489,-14966.1210798568,-40582.3838348982,-54328.2796065631,-23738.2760919949,-37695.9506268631,-9530.0686795424,-17651.7142841324,-3954.0025918864
10880064860,17982,-2,0,29081.3551208852,6495.6884458371,3532.8907725412,12670.9770989325,-47021.2613042690,-3995.9933136224,-52577.5548845877,-60117.9982827331,-14965.3058441696,-40580.6803573430,-54329.4355377613,-23738.5072782346,-37695.3909128093,-9526.8807429748,-17647.8571242396,-3954.3189520038
10880064860,17982,-2,0,29079.4447924840,6479.9799492387,3532.9881141158,12670.2227017295,-47021.5411612960,-3994.6792023655,-52577.9807539766,-60116.0636189383,-14964.1620806683,-40580.7776989176,-54327.3548616046,-23736.1710804446,-37693.9551245842,-9523.6198002262,-17645.0342185766,-3957.0445160921
10880064860,17982,-2,0,29078.0090042589,6469.4548914869,3535.4703242677,12669.8211677343,-47022.8309371592,-3996.1149905906,-52577.6522261623,-60115.4552340971,-14966.1332475536,-40583.6736107615,-54328.0362526267,-23735.8790557208,-37695.7924468044,-9524.4107005197,-17648.1734843570,-3960.5488127772
10880064860,17982,-2,0,29076.9625823322,6483.3260658650,3528.5712401691,12667.8500008490,-47027.1991403186,-4002.7585530559,-52581.8744169599,-60119.5435802296,-14972.4117791142,-40590.6457010410,-54334.0105917667,-23742.4982827925,-37701.4747612207,-9530.7013997772,-17653.1014015702,-3962.4713088752
10880064860,17982,-2,0,29070.3555229573,6476.1836278299,3524.1421985255,12662.9829221199,-47032.9301255222,-4009.7428110323,-52587.9460976745,-60125.0798822841,-14977.8872426846,-40596.5470340001,-54340.5203095670,-23747.6087154581,-37708.0696528988,-9535.9213417142,-17657.8589710280,-3962.9336813544
10880089995,17983,-2,0,29066.0481582820,6471.1948721325,3523.9718507700,12660.3060288188,-47034.3659137474,-4011.4097854970,-52588.5788179093,-60127.6107632233,-14978.2766089829,-40597.4109404746,-54341.9074270048,-23748.7524789595,-37710.2598383269,-9537.9898501741,-17660.8157213560,-3964.6249912128
10880089995,17983,-2,0,29067.1067479056,6488.7163555576,3524.0448569509,12662.1798541295,-47033.1613117619,-4009.5359601863,-52587.5688990730,-60125.9316210617,-14976.0985912516,-40594.3203454815,-54339.1088567355,-23747.6087154581,-37707.8993051432,-9535.6171492937,-17657.1532446123,-3961.5100608262
10880089995,17983,-2,0,29066.0359905852,6480.5396632926,3526.0038561394,12664.6985673719,-47030.5452569449,-4006.7982284012,-52583.0668512485,-60122.2326412275,-14974.1760951536,-40590.7795457061,-54336.1886094980,-23744.2504311350,-37704.3463376709,-9531.6991509167,-17653.9044695606,-3956.8498329430
10880089995,17983,-2,0,29062.2883399637,6466.1696133447,3526.7704210393,12663.3114499341,-47028.7566055120,-4004.6445460635,-52582.8478327057,-60120.3466482200,-14972.6916361412,-40589.4532667524,-54335.2273614490,-23741.2085069293,-37701.8762952159,-9530.9690891073,-17653.7341218050,-3956.9593422144
10880089995,17983,-2,0,29066.4253568835,6493.7294466486,3527.5491536359,12667.8743362427,-47025.6173397317,-4001.8581434910,-52580.3169517666,-60119.0812077504,-14970.6961338622,-40587.2752490211,-54331.8447417322,-23740.0160726406,-37701.1827364970,-9527.1849353954,-17651.8237934038,-3957.2513669381
10880089995,17983,-2,0,29067.7029650499,6499.0102270698,3532.2215492159,12673.5688183558,-47023.9868683574,-3997.1614125174,-52576.6179719324,-60114.8711846496,-14966.7416323948,-40583.0408905267,-54326.8681537317,-23735.7695464494,-37698.1043092008,-9523.5224586517,-17649.1955708901,-3954.2824489133
10880089995,17983,-2,0,29070.1851752018,6481.4522405543,3534.8741071233,12674.9802711873,-47018.8277649045,-3993.7179543165,-52572.6147996776,-60108.7264977541,-14962.8601371082,-40578.8430351228,-54324.8969868463,-23730.9024677202,-37695.3057389315,-9522.4760367249,-17649.2320739805,-3952.8588283851
10880089995,17983,-2,0,29073.4947887376,6491.2229011031,3537.6483419990,12678.9591080484,-47016.0535300288,-3990.8585455631,-52568.3926088801,-60104.4678038660,-14959.4896850883,-40576.1539741249,-54319.3120140046,-23725.5730165118,-37690.1709708722,-9520.5048698396,-17644.6935230656,-3957.4338823905
10880120085,17984,-2,0,29074.4682044834,6483.6059228919,3535.6650074168,12678.9104372611,-47017.0026103810,-3991.5642719788,-52568.2222611246,-60103.1658603060,-14961.1201564626,-40576.2269803058,-54321.0763300439,-23725.3418302722,-37693.0425473224,-9522.8654030232,-17640.5930092363,-3960.5974835644
10880120085,17984,-2,0,29072.3996960235,6465.9262594082,3536.1395475929,12676.3917240187,-47016.8200949287,-3992.8540478421,-52568.5629566356,-60103.8472513281,-14960.7916286483,-40577.7357747119,-54320.9911561662,-23725.3905010594,-37693.3345720462,-9527.4647924223,-17641.3960772266,-3964.7953389684
10880120085,17984,-2,0,29074.5047075739,6480.1868000847,3536.6262554659,12677.8275122438,-47018.2437154570,-3993.3164203213,-52569.1591737799,-60105.1248594945,-14961.4608519736,-40579.6217677194,-54322.7554722055,-23728.9069654413,-37696.9727133962,-9528.9249160410,-17640.2036429379,-3958.6749874664
10880120085,17984,-2,0,29075.0887570214,6482.4378239969,3537.2346403070,12677.1582889186,-47019.5821621075,-3994.5696930941,-52570.7288066701,-60108.5439823017,-14963.1521618320,-40581.1183944287,-54323.6680494672,-23732.2409143708,-37699.4305881545,-9525.4814578401,-17638.8530285906,-3952.5181328740
10880120085,17984,-2,0,29071.0125785857,6459.0271753096,3538.3905715052,12673.0942781797,-47020.5920809438,-3996.4313507080,-52572.5661288903,-60113.2772163658,-14964.7826332063,-40581.8241208444,-54326.2597688905,-23735.4166832416,-37700.2944946289,-9524.7148929403,-17643.1238901754,-3950.3401151427
10880120085,17984,-2,0,29072.9594100774,6466.3764641907,3536.3829015294,12671.3177944436,-47020.9327764548,-3998.8040515885,-52573.5273769394,-60113.8369304197,-14964.7704655094,-40582.4325056855,-54328.7541467392,-23737.3148439459,-37701.4504258271,-9525.6396378988,-17646.7863669191,-3952.6276421454
10880120085,17984,-2,0,29076.8530730607,6484.0074568871,3538.7434347130,12674.5909048889,-47018.3045539411,-3996.1514936811,-52572.5904642840,-60113.3867256372,-14963.3103418907,-40580.6195188589,-54325.9920795604,-23735.1976646987,-37699.4184204577,-9526.4670412828,-17645.4479202686,-3953.9782564928
10880120085,17984,-2,0,29076.5488806402,6478.4833225295,3542.3207375790,12674.9559357936,-47013.3644690310,-3992.4038430596,-52567.9910748849,-60108.7021623604,-14959.5261881788,-40576.8110297533,-54321.9645719120,-23730.6834491774,-37694.3688262761,-9526.0290041972,-17644.2919890704,-3952.0557603947
10880149883,17985,-2,0,29078.0211719557,6490.3468269318,3544.9976308800,12678.1317046644,-47013.1819535786,-3991.8076259153,-52566.0077403028,-60108.0694421256,-14958.5284370393,-40575.6429308583,-54319.8352249680,-23729.0164747127,-37697.1308934549,-9528.5598851363,-17645.7764480828,-3954.0634303705
10880149883,17985,-2,0,29078.2766935890,6499.4117610649,3544.5839291881,12677.1339535249,-47015.1166173735,-3993.4989357737,-52567.4678639215,-60107.9964359447,-14960.0372314453,-40577.4680853818,-54322.1592550612,-23729.6491949475,-37699.8199544528,-9530.7987413518,-17648.6115214426,-3956.6794851875
10880149883,17985,-2,0,29074.6628876326,6474.1881255510,3542.2598990949,12671.8653408006,-47015.0314434957,-3994.8617178178,-52568.8306459657,-60109.7607519840,-14961.4851873672,-40578.9525443942,-54323.4368632276,-23730.0750643363,-37699.8077867560,-9533.1106037481,-17650.9720546262,-3956.6186467033
10880149883,17985,-2,0,29077.4492902051,6482.8150225984,3544.8394508213,12671.1109435976,-47012.2328732264,-3992.3430045755,-52568.7576397848,-60108.9090132064,-14958.8204617630,-40576.7745266629,-54321.4535286454,-23729.7952073094,-37697.6419367215,-9531.2489461342,-17647.3582486698,-3954.0755980673
10880149883,17985,-2,0,29080.6615621663,6503.7191257403,3545.1071401514,12672.3642163703,-47008.7894150255,-3989.8607944236,-52566.8351436867,-60107.7287466146,-14956.3747547016,-40575.6064277679,-54322.4756151786,-23729.7708719157,-37695.0867203887,-9528.2191896253,-17640.6173446299,-3952.4329589962
10880149883,17985,-2,0,29078.1915197113,6486.1124684375,3545.7398603862,12669.0180997440,-47010.6267372458,-3990.0189744823,-52570.3029372813,-60109.9797705268,-14956.4842639730,-40575.8741170980,-54323.0474969292,-23732.2409143708,-37696.3764962519,-9527.2701092731,-17644.1703121022,-3954.9760076322
10880149883,17985,-2,0,29077.2059362686,6481.1480481337,3545.4113325720,12666.9860943746,-47012.1963701359,-3989.2889126729,-52572.7121412522,-60112.4133098914,-14957.0804811173,-40576.1296387312,-54325.5905455652,-23732.7032868500,-37697.7149429024,-9531.6748155230,-17648.5020121712,-3958.0422672316
10880149883,17985,-2,0,29078.8607430365,6494.0093036756,3545.3383263911,12668.4705533870,-47011.1134451187,-3988.7048632254,-52573.0041659760,-60112.4619806787,-14957.0318103300,-40576.4946696359,-54325.4323655065,-23733.5915287181,-37696.9727133962,-9534.8384166970,-17651.3127501373,-3960.9868498628
10880181435,17986,-2,0,29078.2280228017,6484.5793386378,3544.0120474374,12668.5678949616,-47013.6929968452,-3991.5886073725,-52573.1258429442,-60111.4398941456,-14959.7452067216,-40577.2734022326,-54324.9213222400,-23733.6036964149,-37698.9560479784,-9533.4147961687,-17654.3425066462,-3963.4082215305
10880181435,17986,-2,0,29078.3253643763,6486.8425302468,3543.8903704691,12667.8013300617,-47014.0215246594,-3991.8684643994,-52570.5706266114,-60109.5782365317,-14958.6501140075,-40576.8231974502,-54325.5662101716,-23732.1192374025,-37697.8001167802,-9530.3607042661,-17652.8215445433,-3961.8872594277
10880181435,17986,-2,0,29082.2190273597,6506.7367145523,3544.2310659802,12671.8166700133,-47014.3622201704,-3992.2334953041,-52569.4755338973,-60107.9842682479,-14958.1025676505,-40576.0688002471,-54323.3273539562,-23731.6203618328,-37698.5545139832,-9525.7369794734,-17648.8670430759,-3956.1319388304
10880181435,17986,-2,0,29079.1649354571,6489.3125727019,3543.5861780486,12669.3222921646,-47013.3888044246,-3990.5300177489,-52571.6657193254,-60110.6489938521,-14958.7352878853,-40576.7623589660,-54324.5197882448,-23731.7663741947,-37697.3377443009,-9522.2326827884,-17644.2554859800,-3950.7538168347
10880181435,17986,-2,0,29073.7259749772,6469.7834193011,3541.3838249236,12664.0780148339,-47014.8124249529,-3991.1262348932,-52575.3160283723,-60112.5593222533,-14959.1368218804,-40578.3928303403,-54326.8924891253,-23733.9930627133,-37693.8577830096,-9519.4706156096,-17641.8219466154,-3948.5392960129
10880181435,17986,-2,0,29074.7845646008,6484.8713633615,3538.3297330211,12665.3312876067,-47014.2770462927,-3989.7391174554,-52577.7982385242,-60114.8103461655,-14960.0128960517,-40578.8430351228,-54328.5472958932,-23736.5117759556,-37691.5337529164,-9519.3854417319,-17640.4956676617,-3952.6519775391
10880181435,17986,-2,0,29074.5047075739,6478.3008070771,3535.7380135978,12663.9441701689,-47014.3987232609,-3990.3353345997,-52579.5138837762,-60115.6985880336,-14958.5892755234,-40577.4072468977,-54328.8514883138,-23736.5604467429,-37692.0447961830,-9518.7892245875,-17640.0697982729,-3955.9250879844
10880181435,17986,-2,0,29072.8255654124,6467.0700229096,3537.6483419990,12664.2970333767,-47013.4861459992,-3990.5908562330,-52578.7473188764,-60115.8811034859,-14957.7132013521,-40577.5045884722,-54327.8172340838,-23736.8646391635,-37691.2417281926,-9519.4584479128,-17636.9913709767,-3956.3266219796
10880209958,17987,-2,0,29076.4515390656,6483.3504012587,3538.3419007179,12669.2492859837,-47013.0481089136,-3989.3497511571,-52576.0947609690,-60114.0194458720,-14957.2873319633,-40575.1927260759,-54326.0529180445,-23735.2585031829,-37692.0934669702,-9519.0204108272,-17635.1418810596,-3956.4726343415
10880209958,17987,-2,0,29076.5123775497,6470.6108226850,3537.6726773926,12670.4052171818,-47014.3865555641,-3992.0874829422,-52575.0848421327,-60113.9951104784,-14960.4387654405,-40578.3319918562,-54326.8438183380,-23734.9178076718,-37694.5148386380,-9522.5612106026,-17642.6736853930,-3958.3464596522
10880209958,17987,-2,0,29074.4682044834,6455.2916923850,3538.1715529624,12670.3565463946,-47018.3410570315,-3996.1636613779,-52577.5183814973,-60115.0902031924,-14963.6510374017,-40581.6172699984,-54329.9830841183,-23737.6190363665,-37697.6054336310,-9531.1881076501,-17652.7607060592,-3962.1549487578
10880209958,17987,-2,0,29073.9449935201,6472.8131758100,3533.5599958665,12668.1420255728,-47016.8931011096,-4001.0550755007,-52578.2241079130,-60115.3457248257,-14966.7903031820,-40585.8759638864,-54334.6189766079,-23742.3157673402,-37702.4968477539,-9536.5540619490,-17654.5615251890,-3965.8417608951
10880209958,17987,-2,0,29070.0756659304,6471.0488597707,3530.3477239052,12665.5259707558,-47025.6051720348,-4001.5296156768,-52584.2714532340,-60120.6751760342,-14969.3576872117,-40588.6380310652,-54336.5779757964,-23744.4816173746,-37705.3440888104,-9539.3526322183,-17654.3303389494,-3969.9179393308
10880209958,17987,-2,0,29064.5515315728,6451.3006878270,3528.5347370786,12661.5714692884,-47022.3929000736,-4003.0627454765,-52582.6896526470,-60116.7693453540,-14968.2017560135,-40588.5771925811,-54335.8235785933,-23742.4131089147,-37705.0520640867,-9537.1259436997,-17652.3956751545,-3970.3073056292
10880209958,17987,-2,0,29065.4762765313,6461.3512054028,3528.0115261152,12662.6787296993,-47024.9481164064,-4001.1402493785,-52582.1056031995,-60117.4750717697,-14968.0070728643,-40587.7741245908,-54333.7794055271,-23739.2860108312,-37704.2489960964,-9532.9402559926,-17648.7697015013,-3968.3726418343
10880209958,17987,-2,0,29067.3135987516,6464.2106141562,3527.4518120614,12664.5282196164,-47024.6804270763,-4001.3471002245,-52580.1466040110,-60114.4939860481,-14968.2869298913,-40586.0706470356,-54331.5283816148,-23737.2905085523,-37700.0754760861,-9532.2588649705,-17645.4479202686,-3963.8097555257
10880258651,17988,-2,0,29065.6344565900,6450.1569243257,3527.0016072789,12662.1555187359,-47026.7489355362,-4002.2718451830,-52581.5337214488,-60115.6985880336,-14969.1265009721,-40588.1878262828,-54331.8325740354,-23737.6312040633,-37704.9547225121,-9533.6459824083,-17648.1369812665,-3958.3221242586
10880258651,17988,-2,0,29067.0094063310,6469.2358729440,3526.3810547409,12662.5570527311,-47028.9147855707,-4004.1943412810,-52583.0425158549,-60116.2826374811,-14970.6474630749,-40589.7209560825,-54333.2561945637,-23739.9795695502,-37707.2787526053,-9534.0718517971,-17646.7498638287,-3954.2946166102
10880258651,17988,-2,0,29065.6831273773,6474.0542808859,3524.1787016160,12663.8468285943,-47031.6890204463,-4006.1411727727,-52584.9650119529,-60118.7526799362,-14973.1175055300,-40591.4366013345,-54336.1399387107,-23744.3842758001,-37709.8096335444,-9533.4634669560,-17647.1392301270,-3954.2459458229
10880258651,17988,-2,0,29059.6357820563,6450.5949614113,3524.5072294302,12658.6390543541,-47033.1613117619,-4007.8811534184,-52585.7437445496,-60121.2835608753,-14975.1251755058,-40595.2450904401,-54337.0160128820,-23745.1021699126,-37709.0552363414,-9535.0574352398,-17650.8138745675,-3956.6064790065
10880258651,17988,-2,0,29061.2905888242,6457.0560084243,3523.2661243543,12659.7098116745,-47032.9666286127,-4009.6941402450,-52583.5900622119,-60119.6530895011,-14975.4050325327,-40593.7241283372,-54335.9087524711,-23743.8367294430,-37708.4468515003,-9535.1912799049,-17651.2884147436,-3957.8354163856
10880258651,17988,-2,0,29064.1378298808,6472.3264679371,3524.1665339192,12659.8193209459,-47025.5686689444,-4008.8910722547,-52577.9442508861,-60110.4299753093,-14973.7137226743,-40591.7529614519,-54334.7649889697,-23740.3689358485,-37707.6559512068,-9533.2931192005,-17647.8206211491,-3957.2513669381
10880258651,17988,-2,0,29065.8169720423,6461.9839256376,3529.9340222132,12660.0383394887,-47027.5398358297,-4002.2353420926,-52577.3480337418,-60112.0847820772,-14967.6420419597,-40587.7132861067,-54329.5815501232,-23735.4653540288,-37700.4648423844,-9530.3120334789,-17645.2167340290,-3954.8908337545
10880258651,17988,-2,0,29068.0923313482,6466.5833150366,3533.2558034459,12658.7972344128,-47021.0787888167,-3997.6359526935,-52577.1411828958,-60112.1942913486,-14962.9939817733,-40584.0873124535,-54328.8149852233,-23734.9056399750,-37699.4670912450,-9529.9835056646,-17641.5177541948,-3956.0224295590
10880282393,17989,-2,0,29066.0846613724,6472.7766727195,3530.0435314846,12656.0716703244,-47022.2590554085,-3997.8914743268,-52579.3313683239,-60114.9076877401,-14965.3180118665,-40584.4401756613,-54332.0272571846,-23737.9110610903,-37701.2314072843,-9533.4147961687,-17639.6925996714,-3958.7601613442
10880282393,17989,-2,0,29059.3315896357,6444.9126469950,3525.3224651173,12649.4646109496,-47024.1450484161,-3999.9478150898,-52584.7581611069,-60119.2272201123,-14969.3455195149,-40588.9178880922,-54335.8844170774,-23740.9894883865,-37704.4801823360,-9538.0993594455,-17644.1824797990,-3960.8530051977
10880282393,17989,-2,0,29055.0120572636,6450.1204212352,3521.9155100069,12646.4956929248,-47026.5907554775,-4003.7441364986,-52587.1186942906,-60120.5169959755,-14971.0368293733,-40590.6578687378,-54337.1011867597,-23743.4230277510,-37707.1449079402,-9541.0926128640,-17648.2099874474,-3963.6272400734
10880282393,17989,-2,0,29058.8813848533,6476.1227893458,3523.2904597479,12651.1802562016,-47027.8196928566,-4005.0095769682,-52586.6928249018,-60119.5435802296,-14971.3531894907,-40592.1301600534,-54338.0137640215,-23743.3013507828,-37710.3571799015,-9540.9466005021,-17648.1004781760,-3970.4411502942
10880282393,17989,-2,0,29060.0616514451,6463.0060121707,3527.0746134598,12654.3560250724,-47028.2333945486,-4005.1190862396,-52583.3102051850,-60116.3921467525,-14970.1242521115,-40591.0107319457,-54335.1786906617,-23740.4419420294,-37711.0994094077,-9541.3603021941,-17649.1834031933,-3976.6710110676
10880282393,17989,-2,0,29061.8989736653,6456.9708345465,3529.7028359736,12654.9157391262,-47027.4059911646,-4005.8856511394,-52582.5071371947,-60114.3114705958,-14970.2337613829,-40590.6457010410,-54335.0813490871,-23740.1377496089,-37709.8461366349,-9541.8713454606,-17652.8458799370,-3973.8359377078
10880282393,17989,-2,0,29064.4785253918,6469.6495746360,3528.2183769612,12659.1135945302,-47028.3672392136,-4006.2141789537,-52581.6188953266,-60115.8446003955,-14970.7448046495,-40590.1833285617,-54335.2760322363,-23741.7073824990,-37707.9236405369,-9539.2796260374,-17653.6732833209,-3966.4623134331
10880282393,17989,-2,0,29062.9697309858,6459.0028399159,3528.6320786532,12657.2884400067,-47026.0432091205,-4004.0726643128,-52580.9983427886,-60116.0271158478,-14970.3554383512,-40589.1369066350,-54334.0349271604,-23741.1841715356,-37706.3661753436,-9536.7974158855,-17652.2374950958,-3961.1450299215
10880307079,17990,-2,0,29063.0305694699,6458.9663368255,3530.7492579004,12658.3470296303,-47023.9138621764,-4000.8725600484,-52579.7329023191,-60115.0780354956,-14965.6465396807,-40585.0850635929,-54332.0029217909,-23738.7749675647,-37704.7600393629,-9535.7023231714,-17648.3681675061,-3958.1152734126
10880307079,17990,-2,0,29064.7583824187,6476.9988635171,3528.8754325896,12661.3402830488,-47022.6119186164,-3998.4633560774,-52580.0857655269,-60112.2794652264,-14964.6609562380,-40584.0021385757,-54330.7618167150,-23736.6699560143,-37703.8474621012,-9536.3715464967,-17646.5916837700,-3959.2347015203
10880307079,17990,-2,0,29061.2905888242,6460.2682803855,3528.2062092644,12660.7927366917,-47023.0256203084,-3999.2055855836,-52579.1123497811,-60113.7760919356,-14966.0480736758,-40584.7930388692,-54331.5892200990,-23737.7407133347,-37704.2003253091,-9538.1845333233,-17647.3582486698,-3962.2522903324
10880307079,17990,-2,0,29059.4289312103,6446.7378015184,3528.1088676898,12658.0428372097,-47020.9449441516,-4001.1159139848,-52581.4363798743,-60116.3921467525,-14966.3766014901,-40585.2067405612,-54333.3657038351,-23738.8114706552,-37704.0178098567,-9539.4864768834,-17647.9057950268,-3963.7245816479
10880307079,17990,-2,0,29066.1089967661,6468.9316805235,3528.0723645993,12661.4132892297,-47021.2856396627,-3998.8162192853,-52582.1421062900,-60116.9518608064,-14963.6753727954,-40582.2743256268,-54332.5017973607,-23740.6244574818,-37701.9979721841,-9538.8415889517,-17643.9512935594,-3963.8827617066
10880307079,17990,-2,0,29070.3798583509,6471.9249339419,3534.0953745267,12667.9595101204,-47017.7083367967,-3994.6548669719,-52580.5846410967,-60116.5016560239,-14960.2440822913,-40580.1936494701,-54333.6212254684,-23740.0282403374,-37699.0047187657,-9537.4301361203,-17645.5695972368,-3965.7930901078
10880307079,17990,-2,0,29070.5015353192,6459.0028399159,3536.7966032214,12666.9739266778,-47015.8345114860,-3993.7422897101,-52580.6576472776,-60116.2583020875,-14958.8204617630,-40580.8142020081,-54333.8524117080,-23741.2693454134,-37700.7933701986,-9536.3350434062,-17647.8814596332,-3966.0121086507
10880307079,17990,-2,0,29073.2392671043,6471.5720707340,3536.1882183802,12665.9153370542,-47016.9296042001,-3995.1659102384,-52581.7649076885,-60118.6431706647,-14960.3414238659,-40581.9944685999,-54334.9596721189,-23740.9164822055,-37701.2557426779,-9536.4688880713,-17648.3316644157,-3966.8638474283
10880334785,17991,-2,0,29072.2050128744,6467.5202276920,3535.2999765122,12665.1001013670,-47018.7304233299,-3996.8450524000,-52581.6432307203,-60115.4674017940,-14962.4464354163,-40584.0508093630,-54335.2760322363,-23740.6122897849,-37699.7956190592,-9537.9411793868,-17646.5795160731,-3965.8295931983
10880334785,17991,-2,0,29066.6322077295,6455.6445555928,3531.9660275827,12656.8869060116,-47021.7966829293,-4003.4277763812,-52579.1610205684,-60116.5259914176,-14965.7073781648,-40586.8372119354,-54337.8312485691,-23743.2770153892,-37703.2390772601,-9539.3647999151,-17649.0252231346,-3965.3915561127
10880334785,17991,-2,0,29066.0481582820,6478.4346517422,3529.2282957975,12655.4511177865,-47022.5024093450,-4004.7418876381,-52586.6441541145,-60124.9825407095,-14968.0314082580,-40588.1634908891,-54340.2526202369,-23745.7348901474,-37705.5996104437,-9539.0241044041,-17647.7597826650,-3967.1072013647
10880334785,17991,-2,0,29061.4487688829,6477.9722792629,3524.8600926381,12652.0319949792,-47028.2455622454,-4005.6788002934,-52591.8640960515,-60128.2799865485,-14970.5622891972,-40590.8160487965,-54343.3067121394,-23748.6186342944,-37708.0574852019,-9539.0119367073,-17645.6426034178,-3967.2897168171
10880334785,17991,-2,0,29055.7542867698,6457.0925115147,3524.0083538605,12648.1018289054,-47028.3794069105,-4005.1312539364,-52592.1439530785,-60129.3385761721,-14970.7326369527,-40590.2076639554,-54343.8055877092,-23749.3973668911,-37707.3152556957,-9538.2088687169,-17647.8327888459,-3964.9170159366
10880334785,17991,-2,0,29056.4721808823,6467.7149108412,3524.5924033080,12650.1703373653,-47026.0797122109,-4001.4566094959,-52590.7203325502,-60126.3088196632,-14968.1287498326,-40586.8858827227,-54340.3864649019,-23747.2315168566,-37703.1052325950,-9535.0087644525,-17646.4700068017,-3960.9746821660
10880334785,17991,-2,0,29060.7187070735,6475.9037708030,3525.8578437775,12651.8129764364,-47024.6560916826,-4000.4831937500,-52589.5157305647,-60125.3354039174,-14966.7172970011,-40585.9368023705,-54340.0214339973,-23745.3211884554,-37702.0831460619,-9533.0984360513,-17645.0342185766,-3963.0796937163
10880334785,17991,-2,0,29058.9543910342,6467.3742153301,3527.2692966090,12652.7742244854,-47024.2423899907,-4001.7973050069,-52587.1065265938,-60124.8486960444,-14967.8123897152,-40587.9444723463,-54341.3477129509,-23747.1098398884,-37702.6550278126,-9534.0718517971,-17646.7376961318,-3964.1504510367
10880364910,17992,-2,0,29061.8381351812,6480.6735079576,3527.3909735772,12651.9833241919,-47025.9215321522,-4002.8923977210,-52587.8730914936,-60125.7612733062,-14967.7150481406,-40586.4965164244,-54340.8853404717,-23746.6474674091,-37703.0078910204,-9534.6072304574,-17646.4213360144,-3963.3838861369
10880364910,17992,-2,0,29062.7507124430,6484.3968231854,3526.2958808632,12653.6259632630,-47027.1383018345,-4001.7973050069,-52585.1961981926,-60124.6418451985,-14966.5104461551,-40586.0828147324,-54339.8024154544,-23745.6862193601,-37702.7645370840,-9535.3372922667,-17644.5596784005,-3961.9602656086
10880364910,17992,-2,0,29055.9976407062,6453.8680718567,3524.7384156698,12648.6493752624,-47027.3329849837,-4003.2574286257,-52584.3809625054,-60123.9239510859,-14968.5789546150,-40586.2531624879,-54338.6708196499,-23743.8367294430,-37702.9713879300,-9535.2034476017,-17646.2266528653,-3960.9260113787
10880364910,17992,-2,0,29057.2144103885,6456.2651081308,3520.6500695373,12645.4127679075,-47028.0630467931,-4004.2673474620,-52583.9915962071,-60121.5755855991,-14969.7713889037,-40588.0296462241,-54337.5513915422,-23742.5591212766,-37703.4215927124,-9533.6216470147,-17643.8417842880,-3961.1693653151
10880364910,17992,-2,0,29060.0251483546,6471.7059153991,3522.3413793957,12648.8440584116,-47026.3230661474,-4002.2110066989,-52582.8113296153,-60119.3002262932,-14968.3721037690,-40585.8151254023,-54336.4197957377,-23740.6852959659,-37703.0200587172,-9529.6793132441,-17638.6583454414,-3961.8629240340
10880364910,17992,-2,0,29057.4334289313,6455.2430215977,3524.8479249412,12649.8296418543,-47023.1959680639,-3998.1713313537,-52580.2804486761,-60118.6553383616,-14963.2373357097,-40582.7001950156,-54333.2196914732,-23737.8380549093,-37698.4206693182,-9527.1484323049,-17635.5069119643,-3957.8719194761
10880364910,17992,-2,0,29063.1522464381,6461.4607146742,3528.2913831421,12651.2775977762,-47021.7236767483,-3996.2123321652,-52579.2218590525,-60117.4142332856,-14961.4608519736,-40580.8750404922,-54333.0615114145,-23736.6212852270,-37696.1209746186,-9524.2768558547,-17634.5334962184,-3956.2901188891
10880364910,17992,-2,0,29064.3690161204,6470.4404749295,3525.4806451760,12652.3240197030,-47022.7092601910,-3998.6702069234,-52581.2538644219,-60119.0203692663,-14963.2860064970,-40582.6880273188,-54334.3269518841,-23739.8700602788,-37698.2259861690,-9526.4062027987,-17635.3730672992,-3954.9881753291
10880399847,17993,-2,0,29059.4654343008,6450.7288060763,3521.9276777037,12647.0432392818,-47026.8827802012,-4004.3281859461,-52585.3665459481,-60123.7536033304,-14969.7470535100,-40588.7110372462,-54340.3621295083,-23744.1774249541,-37701.8032890349,-9534.1326902813,-17640.6538477204,-3958.6141489823
10880399847,17993,-2,0,29058.9057202469,6454.9509968739,3519.4211321582,12645.1572462742,-47032.6015977080,-4010.1808481179,-52590.1119477090,-60130.1294764656,-14973.3243563760,-40593.3834328262,-54346.1417854992,-23749.7258947053,-37707.5221065417,-9538.9876013136,-17645.4235848750,-3963.7124139511
10880399847,17993,-2,0,29056.8737148775,6472.5211510862,3515.4666306908,12641.8232973448,-47037.0428070484,-4012.6630582698,-52596.1836284237,-60133.2200714586,-14975.8065665278,-40597.8976483475,-54350.2422993285,-23754.3617871949,-37711.6834588552,-9541.2994637100,-17647.5529318190,-3970.5141564751
10880399847,17993,-2,0,29052.6636917767,6456.9951699402,3516.3183694684,12640.8377139021,-47036.6047699628,-4013.7094801966,-52598.1547953090,-60135.2034060408,-14976.6218022150,-40599.0900826361,-54351.0453673188,-23755.3838737280,-37711.7808004298,-9540.1678679054,-17649.9012973058,-3971.0617028322
10880399847,17993,-2,0,29050.6925248914,6446.1659197677,3516.1480217128,12639.4384287675,-47037.3226640753,-4013.7216478934,-52597.8140997979,-60134.8992136202,-14977.3275286307,-40598.6155424600,-54351.1792119839,-23755.1770228820,-37712.0849928503,-9539.8393400912,-17647.8692919364,-3971.8526031257
10880399847,17993,-2,0,29053.3085797084,6461.5823916424,3514.5418857322,12642.2491667336,-47033.8913735713,-4014.4638773996,-52596.6338332061,-60134.6923627742,-14977.8385718973,-40598.9805733647,-54351.2157150744,-23756.3572894738,-37712.6690422978,-9537.4179684235,-17643.8661196816,-3971.4023983432
10880399847,17993,-2,0,29054.5740201779,6455.0970092358,3516.0993509255,12642.8453838779,-47036.5317637818,-4012.7117290571,-52594.9060202573,-60132.8063697667,-14976.8651561514,-40596.3766862446,-54349.3905605509,-23753.4735453268,-37708.1548267765,-9538.2088687169,-17644.5475107037,-3973.4222360158
10880399847,17993,-2,0,29055.7542867698,6454.2574381550,3519.4698029455,12645.5101094821,-47032.9422932191,-4010.1078419370,-52591.0245249707,-60130.8960413654,-14971.8033942731,-40592.2153339312,-54346.5798225848,-23750.6263042702,-37708.3008391384,-9538.6347381057,-17645.9346281415,-3969.6380823039
10880430012,17994,-2,0,29062.8237186239,6476.2809694045,3523.8623414986,12651.1437531111,-47029.6570150769,-4007.2849362741,-52589.1263642664,-60130.7621967004,-14969.1751717593,-40589.7574591729,-54344.8885127264,-23752.1716017667,-37706.9867278815,-9537.3084591520,-17645.9589635352,-3967.9954432328
10880430012,17994,-2,0,29060.6213654989,6462.7869936279,3523.6311552590,12650.5597036636,-47029.5596735023,-4007.1875946995,-52589.5157305647,-60132.0641402605,-14970.8786493146,-40589.9886454126,-54346.2391270738,-23753.6438930823,-37706.9867278815,-9537.3084591520,-17649.5362664011,-3969.5407407293
10880430012,17994,-2,0,29057.3117519631,6446.0685781932,3520.8447526865,12647.6637918198,-47031.5186726908,-4010.0226680592,-52590.0024384376,-60132.6846927984,-14973.2148471046,-40593.2130850707,-54346.9083503990,-23755.6758984518,-37708.7875470113,-9538.7564150740,-17655.5349409348,-3971.6700876733
10880430012,17994,-2,0,29059.5871112690,6470.2457917803,3521.5261437086,12648.9413999862,-47031.6160142654,-4009.1952646753,-52588.9195134204,-60130.2389857370,-14971.8764004540,-40593.1035757993,-54346.8110088245,-23753.7047315664,-37710.4666891729,-9538.2575395042,-17654.0748173161,-3972.2663048176
10880430012,17994,-2,0,29059.1247387897,6469.2602083377,3520.7474111119,12650.0121573066,-47031.4578342067,-4007.4796194232,-52586.8631726573,-60127.6472663137,-14969.4306933926,-40590.6578687378,-54343.4527245013,-23749.9814163386,-37711.0872417109,-9538.3913841693,-17651.8602964943,-3971.7309261574
10880430012,17994,-2,0,29057.1779072980,6454.2087673677,3523.6676583494,12650.4623620890,-47026.1892214823,-4007.0659177313,-52583.0425158549,-60121.9649518974,-14968.4572776468,-40588.9543911826,-54340.4594710829,-23745.5402069982,-37707.6437835100,-9536.7730804918,-17647.6502733936,-3968.4943188025
10880430012,17994,-2,0,29059.4289312103,6465.9749301955,3522.3048763053,12652.0076595856,-47028.9999594484,-4006.3723590124,-52583.4805529405,-60123.4980816971,-14967.9462343802,-40587.5794414416,-54340.2039494496,-23745.1751760936,-37707.4125972703,-9534.0596841003,-17642.2478160042,-3965.8904316824
10880430012,17994,-2,0,29060.1346576260,6462.0447641217,3522.5725656354,12653.2487646615,-47027.9413698248,-4005.8734834426,-52582.2881186519,-60123.4250755162,-14968.8344762483,-40586.5695226053,-54338.8533351022,-23743.7637232621,-37704.5410208201,-9532.1128526086,-17639.8386120332,-3961.9602656086
10880466003,17995,-2,0,29059.2099126675,6450.3881105653,3522.9132611464,12651.2897654730,-47027.4181588615,-4005.2894339951,-52581.7405722948,-60123.3764047289,-14967.9949051675,-40585.5474360722,-54339.8024154544,-23746.0147471743,-37705.3075857200,-9532.0398464277,-17642.7953623612,-3961.7047439753
10880466003,17995,-2,0,29059.7696267213,6470.9393504993,3521.4896406181,12650.7908899033,-47029.1459718103,-4006.7252222202,-52583.7482422706,-60124.3984912620,-14969.3333518180,-40587.5672737448,-54341.5302284033,-23749.1175098642,-37706.9745601847,-9535.2156152985,-17645.1558955449,-3964.8926805429
10880466003,17995,-2,0,29056.6181932442,6472.5819895704,3520.5892310532,12651.7156348618,-47032.9544609159,-4009.2682708562,-52587.4715574984,-60126.3574904505,-14972.5091206888,-40590.9012226743,-54344.4991464281,-23751.4780430478,-37711.1724155886,-9540.1557002086,-17646.0563051098,-3972.3636463922
10880466003,17995,-2,0,29052.9800518941,6446.8716461835,3517.2309467301,12646.6538729835,-47037.1644840166,-4013.7581509839,-52589.9415999535,-60127.6959371010,-14975.6240510755,-40595.2207550464,-54347.7235860862,-23752.4636264905,-37713.7397996183,-9543.0029412652,-17648.6845276235,-3975.0162042996
10880466003,17995,-2,0,29054.7200325398,6453.3691962869,3514.7730719718,12647.3961024897,-47040.8391284572,-4018.2480311115,-52592.0952822912,-60128.1948126708,-14979.6393910271,-40598.6155424600,-54349.8894361207,-23753.7534023537,-37718.3026859269,-9542.7960904192,-17647.6259379999,-3972.9598635366
10880466003,17995,-2,0,29055.7786221634,6464.2714526403,3514.2620287053,12649.5497848273,-47039.3059986575,-4020.0853533318,-52589.6374075329,-60124.7756898635,-14981.2820300982,-40599.6862997805,-54349.0620327367,-23753.2423590872,-37719.1909277949,-9542.3458856367,-17646.9567146747,-3970.3559764164
10880466003,17995,-2,0,29054.5740201779,6449.7553903305,3517.8636669649,12649.1117477417,-47035.1324786472,-4012.5900520889,-52584.9406765593,-60121.9284488069,-14973.0201639554,-40589.9521423221,-54340.8245019876,-23745.7348901474,-37709.2012487033,-9537.6978254504,-17644.4380014323,-3964.2477926113
10880466003,17995,-2,0,29054.4036724224,6459.0150076128,3524.2273724033,12654.6967205834,-47025.9823706363,-4003.1965901416,-52575.2065191009,-60113.1677070944,-14963.0183171669,-40579.8772893527,-54331.4553754339,-23737.7042102443,-37705.6726166247,-9532.2710326673,-17638.6461777446,-3956.6673174906
10880504854,17996,-2,0,29055.3284173810,6463.5778939214,3523.3391305352,12656.4732043196,-47028.6957670279,-4005.8369803521,-52575.3768668564,-60116.1001220288,-14966.6442908202,-40583.8682939106,-54334.0592625540,-23741.0868299610,-37709.0552363414,-9535.5319754159,-17640.7390215981,-3957.9084225666
10880504854,17996,-2,0,29052.0796423292,6444.1217467015,3520.6379018405,12651.2045915952,-47034.4389199283,-4013.7459832871,-52583.4197144564,-60123.3885724257,-14973.9327412171,-40591.3757628504,-54342.4549733618,-23747.5357092772,-37714.2995136721,-9541.9443516416,-17648.6115214426,-3965.3915561127
10880504854,17996,-2,0,29052.1526485102,6452.4809544189,3514.1768548275,12646.4348544407,-47038.1865705498,-4021.4237999823,-52591.4868974500,-60130.8717059718,-14981.5375517315,-40599.1265857266,-54352.0674538520,-23756.3086186865,-37720.5415421423,-9548.6122495006,-17652.8945507243,-3974.3226455807
10880504854,17996,-2,0,29050.5100094391,6468.8221712521,3510.8429058980,12646.2645066851,-47046.4484366925,-4024.6360719436,-52600.2963099498,-60137.9776409164,-14984.9080037514,-40603.6773043384,-54357.3604019699,-23763.2928766629,-37724.9219129985,-9549.5126590655,-17653.6489479273,-3980.9175372588
10880504854,17996,-2,0,29046.5068371843,6450.3151043844,3509.5652977316,12642.2978375209,-47046.5092751766,-4024.8307550928,-52601.9389490209,-60138.3305041243,-14984.3847927880,-40604.0666706367,-54359.2342272807,-23763.7917522327,-37724.5203790034,-9548.7217587720,-17656.0459842014,-3983.9472937677
10880504854,17996,-2,0,29043.4284098881,6444.5111129998,3509.0907575555,12638.6596961708,-47045.7548779736,-4023.9425132247,-52603.8614451189,-60139.1579075082,-14984.1536065484,-40602.8620686513,-54358.4433269872,-23761.6259021982,-37723.6686402258,-9548.6974233783,-17657.4087662456,-3981.9761268824
10880504854,17996,-2,0,29043.9151177610,6453.2718547123,3508.5188758049,12638.1608206011,-47048.0667403700,-4025.8406739291,-52604.1899729332,-60139.5594415034,-14985.6502332576,-40604.1275091208,-54358.9787056474,-23762.2707901298,-37723.8268202845,-9548.8191003465,-17657.0437353409,-3978.8855318893
10880504854,17996,-2,0,29041.1530505822,6438.0744013805,3507.4602861813,12635.5812688746,-47048.2492558223,-4026.6194065257,-52603.5085819111,-60140.5936957333,-14986.3194565829,-40605.2712726222,-54359.1490534029,-23763.7309137485,-37722.7682306609,-9547.0304489136,-17653.3690909003,-3972.0594539717
10880542430,17997,-2,0,29040.5324980443,6441.8707227892,3506.4260319513,12633.7682820480,-47046.9473122623,-4026.1935371369,-52602.2553091383,-60137.6126100117,-14984.3361220007,-40604.2005153018,-54358.1147991730,-23763.5362305994,-37722.8412368418,-9545.9718592900,-17649.2199062837,-3969.6502500007
10880542430,17997,-2,0,29042.8078573502,6462.3611242391,3507.4481184844,12638.4893484153,-47044.4529344136,-4022.4945573027,-52599.9069436515,-60138.2818333370,-14981.3428685823,-40601.3046034579,-54355.8759429575,-23760.9323434793,-37721.3202747390,-9542.6865811478,-17645.2654048163,-3972.9476958397
10880542430,17997,-2,0,29041.2990629441,6444.9004792982,3506.9735783083,12636.5303492268,-47041.5083517824,-4020.6085642952,-52598.8605217247,-60133.9866363585,-14979.1283477605,-40598.2870146458,-54352.4689878471,-23757.4402144911,-37719.1422570076,-9540.8249235339,-17645.9467958384,-3975.0648750869
10880542430,17997,-2,0,29040.1066286555,6431.1023111009,3510.3075272378,12637.0535601902,-47038.1013966720,-4018.3818757766,-52595.6969205508,-60133.3782515173,-14976.7556468800,-40596.6322078779,-54350.2788024190,-23755.2378613661,-37716.1125004987,-9541.3359668004,-17647.8571242396,-3971.9864477907
10880542430,17997,-2,0,29041.3720691250,6447.2488447850,3507.1317583670,12638.0999821169,-47039.2816632638,-4016.7514044023,-52597.6437520424,-60133.0862267936,-14977.5708825672,-40594.4541901466,-54350.5221563555,-23755.5542214835,-37715.0295754815,-9539.7785016071,-17645.2045663322,-3971.7552615511
10880542430,17997,-2,0,29039.9362808999,6441.8463873956,3505.5621254769,12636.6520261950,-47040.3889236747,-4017.1894414879,-52600.0164529229,-60132.9280467349,-14977.3275286307,-40595.0139042005,-54352.5298263312,-23755.5055506962,-37714.0439920388,-9538.5495642280,-17647.1270624302,-3972.7286772969
10880542430,17997,-2,0,29035.7749285865,6436.0302283142,3505.6959701419,12633.4275865369,-47042.9928107948,-4019.5378069748,-52601.6104212067,-60133.9379655712,-14979.9435834476,-40598.0558284062,-54351.7875968250,-23755.8219108136,-37717.5361210270,-9540.3990541451,-17648.3925028998,-3973.3492298349
10880542430,17997,-2,0,29034.0471156376,6448.5872914355,3501.3521023761,12631.6389351040,-47048.1762496414,-4024.8429227896,-52604.7131838966,-60136.7243681436,-14985.8935871941,-40602.9229071354,-54356.2166384686,-23759.0828535622,-37722.5978829054,-9544.0371954951,-17647.7841180586,-3971.9742800939
10880558864,17998,-2,0,29029.6910801750,6433.4385088909,3498.4440228355,12629.2662342235,-47051.8630617787,-4027.9456854794,-52604.8591962584,-60138.4278456989,-14988.6313189792,-40605.9161605538,-54357.6037559064,-23760.7498280269,-37725.0679253604,-9546.1300393487,-17647.1270624302,-3971.0495351354
10880558864,17998,-2,0,29027.0141868740,6418.8007696129,3498.2858427768,12627.3194027318,-47050.3542673727,-4029.1259520713,-52603.1678864000,-60138.0384794005,-14987.5483939620,-40605.0400863826,-54355.8637752607,-23758.8638350194,-37723.7173110131,-9546.4829025565,-17647.4920933349,-3966.6448288854
10880558864,17998,-2,0,29032.6599981998,6444.7422992395,3502.0334933982,12633.3667480528,-47037.2618255912,-4025.5851522958,-52594.0907845701,-60126.4426643283,-14982.1459365726,-40600.4163615898,-54351.4469013140,-23754.6173088282,-37719.3491078536,-9539.9123462722,-17643.7566104102,-3963.9070971003
10880558864,17998,-2,0,29034.5581589042,6449.4390302131,3506.0244979562,12637.1143986743,-47040.3524205842,-4017.9925094783,-52595.3440573429,-60128.6693528469,-14976.0255850707,-40594.9774011100,-54347.8452630544,-23751.5632169256,-37716.4653637066,-9536.6149004331,-17643.5375918674,-3962.7511659021
10880558864,17998,-2,0,29033.3778923124,6430.7129448026,3508.7865651350,12634.7660331875,-47039.0504770242,-4017.1286030038,-52593.5797413036,-60128.3651604263,-14974.9548277502,-40594.3568485720,-54345.9957731373,-23750.1395963973,-37715.2364263275,-9536.1890310443,-17645.4479202686,-3961.5100608262
10880558864,17998,-2,0,29036.6266673641,6442.2600890876,3507.1925968512,12635.9462997793,-47041.8855503839,-4020.0245148477,-52593.7257536654,-60128.5963466659,-14978.1184289242,-40597.2162573254,-54347.2855490005,-23751.5145461383,-37717.4266117556,-9536.6879066141,-17642.1991452169,-3962.7024951148
10880558864,17998,-2,0,29035.5437423469,6439.2546679723,3502.5323689680,12633.4519219306,-47045.8522195482,-4023.9060101342,-52594.8938525604,-60130.1294764656,-14982.1946073599,-40598.5060331886,-54348.5996602574,-23751.7700677716,-37720.6632191105,-9536.2742049221,-17638.4758299891,-3965.3063822349
10880558864,17998,-2,0,29031.0660299160,6427.0017972716,3499.4661093686,12629.8381159742,-47046.5944490544,-4024.3927180071,-52596.5851624188,-60130.4458365830,-14982.5718059614,-40598.4451947045,-54347.1030335482,-23751.4658753510,-37720.9187407438,-9534.2908703400,-17638.0377929034,-3971.9499447002
10880587271,17999,-2,0,29032.6843335935,6444.4746099094,3499.2470908258,12631.4807550453,-47039.3303340511,-4023.7356623787,-52593.1295365211,-60125.5057516729,-14981.3428685823,-40597.1067480540,-54348.3563063210,-23752.2811110382,-37720.5658775359,-9532.2466972737,-17638.1594698717,-3972.8868573556
10880587271,17999,-2,0,29029.9222664147,6445.5575349266,3497.0447377008,12627.7939429079,-47047.2150015924,-4024.1006932834,-52596.6094978125,-60133.5729346665,-14982.0364273012,-40597.2040896286,-54352.5054909376,-23754.5564703440,-37722.0138334579,-9532.1006849118,-17639.8264443364,-3970.9156904703
10880587271,17999,-2,0,29024.6171505999,6419.6160053001,3496.2051666200,12623.8394414405,-47047.5800324971,-4023.9546809215,-52603.4964142143,-60137.5761069212,-14983.7764079469,-40601.3411065484,-54356.0219553194,-23760.0441016112,-37719.8844865138,-9534.5585596701,-17644.4988399164,-3967.3262199075
10880587271,17999,-2,0,29024.3129581793,6425.1158042641,3494.1974966443,12622.4766593963,-47047.8355541303,-4024.1250286770,-52606.3923260581,-60142.0416516553,-14984.4456312721,-40603.2879380401,-54359.2585626743,-23762.5263117631,-37719.3126047632,-9533.0862683545,-17642.7101884835,-3965.0021898143
10880587271,17999,-2,0,29025.4932247711,6438.0257305932,3491.4354294654,12621.3937343790,-47050.1595842235,-4025.8650093227,-52608.2783190657,-60142.9907320075,-14985.9422579814,-40604.2856891795,-54361.3879096183,-23764.4366401643,-37719.7506418488,-9533.2322807164,-17639.9602890015,-3965.4037238095
10880587271,17999,-2,0,29019.8109103548,6421.4654952172,3490.5106845069,12617.9989469654,-47050.4029381600,-4026.1935371369,-52608.6311822735,-60143.0150674011,-14985.0053453260,-40603.9084905780,-54361.5825927675,-23763.1468643010,-37720.4685359613,-9532.3197034546,-17640.3983260871,-3964.9413513302
10880587271,17999,-2,0,29019.9082519294,6427.5128405382,3493.6134471968,12618.3396424765,-47046.9838153527,-4024.3440472198,-52605.3094010409,-60139.7297892589,-14982.2067750567,-40601.4506158198,-54357.9687868111,-23759.8615861588,-37717.2927670906,-9530.5918905058,-17640.6538477204,-3963.9679355844
10880587271,17999,-2,0,29027.0871930549,6439.2546679723,3496.6310360088,12625.3239004528,-47046.2294181497,-4019.8663347890,-52600.6126700672,-60134.4490088377,-14980.1869373841,-40597.4596112619,-54352.7975156613,-23755.9070846914,-37713.1070793835,-9530.5432197185,-17638.4758299891,-3966.4014749490
10880621038,18000,4,0,29026.6126528788,6417.5353291434,3497.7869672070,12626.0661299590,-47042.7129537679,-4019.0267637082,-52598.9213602088,-60132.1249787446,-14977.6682241418,-40597.1310834476,-54350.5343240523,-23753.5587192046,-37712.7907192661,-9533.2566161100,-17637.7944389670,-3966.1459533157
10880621038,18000,4,0,29030.7131667081,6429.2406534870,3500.2691773589,12629.6921036123,-47040.4254267652,-4016.5932243436,-52597.4612365901,-60130.3849980989,-14975.9160757993,-40594.5636994180,-54350.6438333237,-23751.0643413559,-37710.6492046252,-9534.8627520906,-17637.0887125513,-3965.1360344794
10880621038,18000,4,0,29032.5869920189,6449.2321793671,3499.3687677940,12632.4298353974,-47041.9707242617,-4018.1993603243,-52599.8826082578,-60134.0474748426,-14976.2811067039,-40595.5006120734,-54353.1260434756,-23755.8097431168,-37713.8614765865,-9535.4833046286,-17637.8552774511,-3966.4258103426
10880621038,18000,4,0,29026.4788082138,6430.6521063185,3497.3002593341,12627.5262535778,-47045.4993563403,-4022.8839236011,-52604.5793392315,-60137.8924670386,-14981.2698624013,-40600.0513306852,-54358.0782960825,-23761.2122005062,-37718.7407230125,-9538.5495642280,-17644.6813553688,-3975.6732599281
10880621038,18000,4,0,29022.2322820226,6422.2807309043,3495.6576202630,12624.1314661642,-47049.8797271966,-4027.9456854794,-52607.2927356230,-60141.7252915379,-14986.2829534924,-40605.3077757127,-54361.5947604643,-23764.6678264039,-37723.9484972527,-9545.1322882092,-17653.1257369639,-3982.9008718409
10880621038,18000,4,0,29019.0200100613,6429.7881998441,3490.4620137196,12623.6325905945,-47054.3817750211,-4032.6059133626,-52611.2837401809,-60144.9862342864,-14989.9819333266,-40608.9945878500,-54365.8899574428,-23769.1942096220,-37728.2923650185,-9548.6122495006,-17657.6886232725,-3983.3145735329
10880621038,18000,4,0,29019.3242024819,6419.7498499651,3491.4719325559,12623.3040627802,-47044.7206237437,-4031.7785099787,-52609.2760702052,-60144.2075016898,-14987.6092324461,-40607.0842594488,-54363.5659273496,-23767.1378688590,-37725.1652669350,-9547.5171567865,-17657.7859648471,-3978.4353271069
10880621038,18000,4,0,29023.5463932794,6423.3149851343,3497.9086441753,12626.7596886780,-47045.0856546484,-4023.4679730486,-52603.6910973634,-60140.8005465793,-14980.2477758682,-40599.4916166313,-54358.9056994665,-23762.2707901298,-37718.6555491347,-9542.6865811478,-17651.3249178341,-3973.3370621381
10880648612,18001,4,0,29027.7564163802,6443.9513989460,3502.1186672760,12630.7871963263,-47040.8147930635,-4018.6495651067,-52601.3670672702,-60136.5175172977,-14976.0985912516,-40595.2085873496,-54355.2918935100,-23760.6768218460,-37717.5361210270,-9540.7519173529,-17646.6038514668,-3973.2275528667
10880648612,18001,4,0,29027.0020191772,6425.8093629830,3504.1385049486,12630.2639853630,-47040.3524205842,-4018.4670496544,-52599.9191113483,-60137.2475791070,-14975.0643370216,-40594.0161530610,-54354.3063100674,-23760.2144493667,-37717.7308041762,-9541.3968052846,-17648.1004781760,-3975.6489245344
10880648612,18001,4,0,29024.5563121157,6410.9161020717,3503.2989338678,12627.1490549763,-47039.8170419240,-4020.6328996888,-52601.6225889035,-60138.5860257576,-14976.1837651294,-40595.2694258337,-54354.5861670943,-23760.7741634206,-37718.9110707680,-9543.2827982921,-17651.9698057657,-3977.0725450627
10880648612,18001,4,0,29028.7419998228,6432.9031302307,3502.8973998727,12631.8214505563,-47040.5714391271,-4022.0200171267,-52601.3427318766,-60136.9677220801,-14977.0476716038,-40596.6078724843,-54356.2774769527,-23760.0319339144,-37719.5437910028,-9544.2318786443,-17653.4299293845,-3977.9972900213
10880648612,18001,4,0,29029.1678692116,6431.3213296438,3503.1042507186,12632.3811646102,-47041.6908672348,-4020.6450673857,-52602.3769861066,-60138.1358209751,-14976.4149513690,-40597.0824126604,-54358.4554946840,-23761.8935915283,-37719.5072879123,-9545.6433314758,-17650.6313591152,-3977.3280666960
10880648612,18001,4,0,29028.2674596467,6419.6525083906,3501.9969903078,12629.7529420964,-47042.8102953425,-4021.5333092537,-52604.7618546838,-60141.5792791760,-14977.4978763862,-40598.3235177363,-54360.0251275742,-23764.9355157340,-37718.1810089586,-9547.4198152119,-17649.4267571297,-3976.4763279184
10880648612,18001,4,0,29028.2187888594,6430.0072183869,3499.3687677940,12627.0760487954,-47045.5723625213,-4023.8451716501,-52607.8889527673,-60144.1101601152,-14980.1747696873,-40600.4650323771,-54362.1058037309,-23768.9873587760,-37719.8479834234,-9549.0867896767,-17647.6137703031,-3979.1653889163
10880648612,18001,4,0,29023.5707286731,6416.7444288499,3498.7725506497,12624.8493602768,-47046.1442442720,-4024.3075441294,-52607.9497912515,-60143.8181353914,-14980.8804961030,-40600.6353801327,-54362.9210394180,-23768.4276447222,-37718.6798845284,-9545.4243129329,-17648.1004781760,-3978.6908487402
10880682488,18002,4,0,29023.7532441254,6407.8985132596,3502.4228596966,12626.9422041303,-47042.9563077043,-4022.9082589947,-52603.8979482094,-60141.5549437824,-14979.1040123669,-40598.4816977950,-54358.6258424395,-23764.3636339833,-37716.5627052812,-9541.9200162479,-17648.3316644157,-3975.4299059916
10880682488,18002,4,0,29027.3427146882,6432.0635591500,3500.9627360778,12630.2274822725,-47045.1099900420,-4024.1371963738,-52603.6667619698,-60140.6180311270,-14979.7123972080,-40600.3920261962,-54359.4775812171,-23765.7020806339,-37722.0016657610,-9543.6721645904,-17648.9278815600,-3977.7782714784
10880682488,18002,4,0,29027.6347394119,6432.6841116879,3499.5877863368,12628.9985448934,-47049.4051870205,-4028.9556043157,-52606.8790339310,-60143.8059676946,-14984.4212958785,-40605.5998004364,-54362.7506916625,-23768.6588309618,-37728.1463526566,-9550.0115346352,-17652.4930167291,-3982.9008718409
10880682488,18002,4,0,29026.3327958519,6413.6538338568,3501.3155992857,12626.5285024383,-47051.3276831185,-4031.8758515532,-52608.5703437894,-60145.1809174356,-14986.5019720352,-40607.2302718107,-54362.9575425085,-23769.0725326538,-37728.9615883438,-9553.2238065965,-17654.0991527097,-3987.0743918512
10880682488,18002,4,0,29029.3503846640,6423.8990345818,3500.8045560191,12627.5505889714,-47046.1564119688,-4030.2332124821,-52604.8835316521,-60139.6932861684,-14983.4478801327,-40604.4803723287,-54360.5605062344,-23764.6921617975,-37724.8610745144,-9546.9817781263,-17647.1270624302,-3983.4240828043
10880682488,18002,4,0,29031.4918993048,6428.7296102205,3503.6517970757,12630.9575440819,-47044.5989467754,-4023.4558053518,-52601.5130796321,-60136.1281509993,-14978.8484907336,-40598.8710640933,-54355.7542659893,-23759.4843875573,-37719.5437910028,-9539.4743091865,-17640.1306367570,-3976.4033217374
10880682488,18002,4,0,29027.8780933484,6413.6051630696,3503.4084431392,12628.4631662332,-47041.3015009364,-4021.3142907109,-52598.8970248152,-60133.6459408474,-14975.6605541660,-40596.1820030955,-54351.3373920426,-23755.7489046327,-37715.4067740830,-9538.9997690104,-17640.5321707521,-3972.6921742064
10880682488,18002,4,0,29024.5076413284,6425.7363568020,3501.4251085571,12628.8038617442,-47042.8346307361,-4023.4071345645,-52597.9479444630,-60132.3561649842,-14977.5465471735,-40597.2284250222,-54350.9845288347,-23755.2865321534,-37719.6289648806,-9544.2440463411,-17645.5695972368,-3971.8039323384
10880713839,18003,4,0,29021.5022202132,6424.0572146405,3496.9473961262,12626.0539622622,-47048.9914853285,-4028.1282009318,-52600.2111360721,-60133.9136301775,-14981.6835640933,-40601.4871189103,-54353.0530372946,-23757.2333636451,-37726.6253905538,-9548.4297340482,-17648.2586582347,-3970.2221317514
10880713839,18003,4,0,29015.6617257382,6395.5361332875,3495.2195831774,12621.1868835330,-47051.9969064438,-4032.3017209420,-52604.0196251776,-60136.8338774150,-14985.6137301671,-40604.5898816001,-54355.4379058719,-23760.2752878508,-37729.4726316103,-9548.5879141069,-17651.4952655896,-3972.4853233605
10880713839,18003,4,0,29019.6040595088,6410.4172265019,3495.6332848694,12623.7786029563,-47048.8698083603,-4034.3823970988,-52603.7884389380,-60138.6833673321,-14985.2852023529,-40605.6728066174,-54359.0273764347,-23763.1225289074,-37728.3897065931,-9547.2372997596,-17647.8084534523,-3975.5880860503
10880713839,18003,4,0,29024.3007904825,6431.0293049200,3497.3854332119,12628.0129614507,-47049.0644915095,-4030.4887341154,-52604.3238175982,-60138.7198704226,-14982.5596382646,-40601.4019450325,-54358.4798300777,-23762.6114856408,-37725.5911363238,-9544.8159280918,-17641.3595741361,-3973.4952421968
10880713839,18003,4,0,29025.6027340425,6420.3460671095,3501.0722453492,12631.5659289230,-47046.6674552353,-4026.4733941639,-52602.1823029574,-60137.2232437134,-14979.8827449635,-40598.5303685823,-54356.8371910066,-23760.6403187555,-37722.5370444212,-9542.4797303018,-17637.5632527273,-3971.2077151940
10880713839,18003,4,0,29024.4589705412,6426.5880955796,3502.4471950902,12632.5515123657,-47046.6431198417,-4026.3760525893,-52601.9024459305,-60136.1159833025,-14979.4812109684,-40597.2040896286,-54355.4014027814,-23759.9102569461,-37722.5857152085,-9542.2607117590,-17636.2734768641,-3967.3140522107
10880713839,18003,4,0,29025.6027340425,6433.4385088909,3499.1010784639,12631.0548856565,-47049.1131622968,-4028.7609211666,-52603.7641035444,-60138.0871501878,-14982.6204767487,-40600.6353801327,-54356.9953710653,-23760.8593372983,-37726.8322413997,-9544.0493631920,-17638.6826808351,-3968.3118033502
10880713839,18003,4,0,29021.3075370640,6413.4104799204,3497.3732655150,12628.7065201696,-47050.4394412505,-4032.4355656071,-52605.8569473979,-60139.6689507748,-14984.1536065484,-40603.5312919765,-54359.8669475155,-23763.8282553231,-37730.4582150530,-9549.4883236718,-17646.7620315255,-3974.7363472727
10880743777,18004,4,0,29022.5486421400,6420.5650856523,3496.3268435883,12628.4631662332,-47050.2082550108,-4031.6446653136,-52607.3779095008,-60140.9587266380,-14983.7885756437,-40603.9206582749,-54361.4365804056,-23764.8503418563,-37729.0467622215,-9550.5347455986,-17652.3226689736,-3982.1343069411
10880743777,18004,4,0,29028.1336149817,6443.2213371366,3497.6166194515,12633.3545803560,-47047.6773740717,-4028.9312689221,-52604.5063330506,-60136.6391942659,-14980.1260989000,-40601.6818020594,-54357.3482342731,-23761.1878651125,-37724.7880683335,-9546.0813685614,-17648.0396396919,-3986.8067025211
10880743777,18004,4,0,29028.3648012213,6427.9995484111,3501.6319594031,12638.1121498138,-47045.2681701007,-4026.0840278655,-52599.4324034754,-60131.5896000844,-14977.9359134719,-40597.9949899221,-54351.7510937346,-23755.4203768185,-37720.6632191105,-9540.7640850498,-17644.9977154862,-3979.6764321828
10880743777,18004,4,0,29029.4355585417,6421.7088491536,3502.7635552076,12637.7957896964,-47042.4817675283,-4027.4468099097,-52596.0011129713,-60128.7423590278,-14978.7511491590,-40598.9684056679,-54351.3617274362,-23754.3496194981,-37719.8966542107,-9541.4333083750,-17644.3406598577,-3970.3559764164
10880743777,18004,4,0,29033.8037617012,6437.7093704758,3503.0069091441,12640.7038692370,-47044.8423007119,-4030.5130695091,-52597.8749382821,-60129.1925638102,-14981.4523778537,-40601.6087958785,-54354.8660241212,-23756.6371465008,-37723.7416464067,-9543.9641893142,-17643.6836042293,-3964.7953389684
10880743777,18004,4,0,29031.4918993048,6426.1135554035,3500.2326742684,12636.3356660776,-47051.8265586883,-4033.2629689911,-52602.4743276811,-60135.6779462169,-14984.6889852086,-40604.4925400255,-54357.5794205128,-23761.1878651125,-37730.3730411752,-9548.3445601705,-17647.3339132762,-3965.0265252080
10880743777,18004,4,0,29029.2530430894,6422.1955570265,3500.0866619066,12633.9507975003,-47053.2015084293,-4036.5725825269,-52604.5793392315,-60137.1380698356,-14985.9665933750,-40607.2181041139,-54359.3924073394,-23761.7475791664,-37731.6384816448,-9550.7415964446,-17649.5362664011,-3967.9589401423
10880743777,18004,4,0,29030.8105082827,6438.4394322852,3497.5801163610,12633.4762573242,-47054.2966011433,-4036.2197193190,-52606.1854752121,-60137.3935914689,-14987.9620956540,-40607.8508243487,-54360.1468045424,-23763.6944106581,-37733.0134313858,-9549.7438453051,-17649.9986388804,-3973.2153851698
10880777407,18005,4,0,29025.5540632552,6421.9156999996,3493.6012794999,12629.1202218616,-47057.9225747966,-4040.2350592706,-52606.6356799946,-60139.5959445939,-14990.0184364170,-40608.8242400945,-54360.7916924740,-23763.8769261104,-37732.6970712684,-9550.1088762098,-17650.9233838389,-3976.6953464612
10880777407,18005,4,0,29024.1182750301,6408.3730534357,3494.0028134951,12628.1711415094,-47055.5377062193,-4039.5536682485,-52605.1755563758,-60136.7243681436,-14988.6678220697,-40608.6295569453,-54358.0539606888,-23761.1148589316,-37729.6916501531,-9548.9042742243,-17650.1811543327,-3973.2518882603
10880777407,18005,4,0,29030.0439433829,6435.2636634144,3495.6089494757,12630.3004884534,-47052.7878067373,-4034.3093909178,-52602.6203400430,-60134.1569841140,-14984.5673082404,-40603.5921304606,-54355.9124460480,-23757.5862268530,-37727.1851046076,-9546.9087719453,-17644.4745045228,-3968.1049525042
10880777407,18005,4,0,29031.9056009968,6434.3389184558,3498.7847183465,12632.2229845515,-47048.6629575143,-4029.7951753965,-52602.0362905955,-60132.7698666762,-14980.6249744697,-40601.6574666658,-54354.5374963070,-23756.7588234690,-37725.6641425047,-9546.7627595835,-17644.0364674372,-3968.2509648661
10880777407,18005,4,0,29030.4576450749,6418.6182541606,3500.9140652905,12629.7042713091,-47045.3411762816,-4027.7753377239,-52600.3328130403,-60131.2975753606,-14977.3761994180,-40599.4429458440,-54352.9191926296,-23756.7101526817,-37724.2526896733,-9545.8623500186,-17642.7588592707,-3970.8791873798
10880777407,18005,4,0,29033.7915940044,6430.8224540740,3501.6076240094,12631.5172581357,-47044.9518099833,-4027.6171576652,-52600.8560240037,-60131.8937925049,-14976.9259946356,-40598.9319025774,-54354.6956763657,-23757.0143451023,-37724.0093357368,-9543.9033508301,-17642.4424991533,-3972.8990250524
10880777407,18005,4,0,29030.7740051923,6422.0495446647,3501.0235745619,12630.6046808740,-47046.4727720862,-4028.3715548682,-52600.6005023704,-60132.6238543143,-14978.6903106749,-40601.1829264897,-54355.6204213243,-23759.4843875573,-37723.4131185925,-9545.1566236028,-17643.8052811975,-3971.6700876733
10880777407,18005,4,0,29029.7884217496,6409.4194753625,3501.4372762539,12625.0197080323,-47047.6165355875,-4031.7420068882,-52601.4035703607,-60135.5562692486,-14979.9922542349,-40602.1806776292,-54357.2387250017,-23760.8958403888,-37724.6420559716,-9546.8235980676,-17649.6944464598,-3972.4853233605
10880808628,18006,4,0,29035.3125561072,6435.5191850477,3504.7955605770,12630.3004884534,-47045.7183748832,-4030.2453801790,-52601.6347566003,-60135.7752877915,-14978.4712921321,-40599.7106351741,-54357.9931222047,-23761.7597468632,-37726.0778441967,-9546.4463994661,-17651.9819734625,-3972.2419694240
10880808628,18006,4,0,29036.5293257895,6440.7756300752,3507.0587521861,12631.8457859499,-47043.5525248487,-4028.1890394159,-52600.2111360721,-60134.5341827155,-14976.0012496770,-40597.9828222253,-54356.2409738622,-23760.0197662175,-37724.6055528811,-9545.3756421457,-17650.7165329929,-3972.8138511747
10880808628,18006,4,0,29033.7064201266,6418.3992356178,3508.7743974381,12632.0891398864,-47042.3114197727,-4026.8627604622,-52598.1912983995,-60132.2223203192,-14974.9913308407,-40597.4961143523,-54355.1580488450,-23759.6547353129,-37724.2405219765,-9545.4486483266,-17647.2974101857,-3973.6290868618
10880808628,18006,4,0,29033.2927184346,6428.9486287633,3507.6428016336,12633.1355618132,-47040.8877992444,-4026.8384250685,-52596.2201315141,-60130.4215011894,-14975.4050325327,-40595.1964196528,-54352.2256339107,-23756.6371465008,-37723.6929756194,-9545.6798345662,-17640.1063013633,-3970.3194733260
10880808628,18006,4,0,29031.4675639112,6437.5633581139,3503.4206108360,12632.6245185466,-47042.3114197727,-4027.0331082177,-52596.5851624188,-60129.1073899325,-14975.3076909581,-40597.1067480540,-54352.5054909376,-23756.1869417183,-37723.5591309544,-9546.3855609820,-17639.8507797301,-3967.6790831154
10880808628,18006,4,0,29029.0826953339,6426.7949464256,3504.3088527041,12633.3667480528,-47043.0779846726,-4028.0308593572,-52597.2057149568,-60130.0564702847,-14976.2932744008,-40596.6687109684,-54353.1868819597,-23757.3672083101,-37724.7880683335,-9547.3346413341,-17645.9832989288,-3970.2099640546
10880808628,18006,4,0,29030.2872973193,6439.8995559039,3503.9316541026,12635.0093871239,-47042.1532397140,-4028.7244180761,-52597.4734042869,-60130.8352028813,-14975.7092249533,-40595.7196306162,-54354.3184777642,-23759.6790707065,-37726.1751857713,-9549.4761559750,-17651.5926071642,-3974.5416641235
10880808628,18006,4,0,29029.5450678131,6441.9072258797,3502.9947414472,12637.3455849139,-47044.4894375040,-4027.9091823890,-52600.5518315831,-60131.7477801431,-14976.9990008165,-40595.9508168558,-54356.0827938035,-23762.2586224330,-37727.4892970282,-9552.1530492760,-17654.3546743430,-3979.0558796448
10880841011,18007,4,0,29025.5905663457,6415.7588454072,3503.4936170170,12635.3014118477,-47045.9008903355,-4031.3526405899,-52601.0872102433,-60133.2809099427,-14980.8683284062,-40599.6254612964,-54357.4577435445,-23762.1369454647,-37729.0832653120,-9553.0412911441,-17655.3889285730,-3980.9053695619
10880841011,18007,4,0,29026.6613236661,6424.6777671784,3502.2038411538,12638.4163422343,-47045.6210333086,-4030.1115355139,-52599.2498880231,-60130.6161843385,-14978.2522735893,-40598.0679961030,-54355.4987443560,-23758.8273319289,-37726.4185397078,-9549.7195099114,-17649.6214402789,-3977.5592529356
10880841011,18007,4,0,29032.2219611142,6442.6859584764,3506.6328827973,12644.5001906458,-47041.6056933570,-4024.4048857040,-52594.7356725017,-60125.4449131888,-14972.3631083270,-40593.6389544595,-54350.1571254508,-23756.0165939628,-37722.9385784164,-9543.1246182334,-17642.5520084248,-3972.4001494827
10880841011,18007,4,0,29028.8758444879,6423.7773576135,3508.4945404112,12643.6727872618,-47037.9918874006,-4021.6914893124,-52592.6428286482,-60123.3155662448,-14969.8078919941,-40590.2685024395,-54347.9304369322,-23752.6826450333,-37720.8335668660,-9539.2674583405,-17641.3474064393,-3971.5240753114
10880841011,18007,4,0,29032.1732903269,6422.9986250169,3511.0984275313,12643.4172656286,-47037.4565087404,-4022.6040665742,-52591.7789221738,-60123.7657710272,-14969.9052335687,-40591.3514274567,-54348.6239956511,-23753.2301913903,-37720.3468589931,-9539.5351476706,-17642.8075300580,-3970.2829702355
10880841011,18007,4,0,29032.0516133587,6429.2284857902,3506.8762367338,12643.0765701175,-47040.3280851906,-4024.5874011563,-52594.5409893526,-60125.1285530714,-14972.5091206888,-40593.8701406991,-54350.4856532650,-23755.0796813074,-37721.9286595801,-9541.6523269178,-17642.0653005518,-3967.5452384503
10880841011,18007,4,0,29029.9709372019,6412.2302133286,3504.2115111295,12639.5601057357,-47039.9387188923,-4025.3417983593,-52594.4436477780,-60125.5057516729,-14972.5942945666,-40593.4807744008,-54350.9845288347,-23754.1792717425,-37721.8556533992,-9544.4022263998,-17643.7931135007,-3965.4888976873
10880841011,18007,4,0,29033.2927184346,6421.2464766744,3507.5332923622,12639.9616397308,-47038.3690860021,-4021.6063154347,-52593.6162443940,-60122.5733367386,-14968.7493023705,-40590.1833285617,-54348.5023186828,-23752.3662849159,-37720.1278404503,-9545.7528407472,-17643.1847286595,-3969.2365483087
10880872367,18008,4,0,29035.5924131341,6441.8342196988,3507.4602861813,12641.8354650416,-47036.0328882121,-4019.4526330970,-52593.1417042179,-60120.5778344596,-14967.4473588105,-40588.0539816177,-54347.3098843942,-23751.0400059622,-37717.5361210270,-9543.1732890207,-17639.2545625857,-3974.5173287299
10880872367,18008,4,0,29032.8181782585,6427.8900391397,3509.1637637365,12639.2437456183,-47035.2176525250,-4018.5400558353,-52591.4260589659,-60118.2903074569,-14966.5104461551,-40586.8493796323,-54346.6528287658,-23748.9836651991,-37716.6600468558,-9540.4233895387,-17636.7358493434,-3973.7629315269
10880872367,18008,4,0,29031.8934333000,6420.5772533491,3509.1515960396,12639.1220686501,-47035.4853418551,-4018.9294221336,-52590.2822954645,-60116.6841714763,-14967.1675017836,-40587.2509136274,-54344.4991464281,-23748.1927649056,-37716.4531960098,-9537.5639807853,-17636.8575263116,-3970.1734609641
10880872367,18008,4,0,29034.1687926059,6439.5710280897,3505.9028209879,12639.4505964643,-47037.3713348626,-4021.1196075618,-52591.3530527850,-60117.3290594079,-14969.0778301848,-40587.8958015590,-54345.1805374502,-23748.9106590182,-37718.7650584061,-9536.4932234649,-17635.3487319056,-3964.5641527287
10880872367,18008,4,0,29029.7154155687,6432.6841116879,3502.5445366648,12637.2725787330,-47039.2938309606,-4022.3120418504,-52592.9105179783,-60119.7017602883,-14970.2945998671,-40589.6114468111,-54347.6627476021,-23750.7601489353,-37720.1278404503,-9538.0141855678,-17635.0202040914,-3961.6317377944
10880872367,18008,4,0,29026.3814666392,6427.2208158144,3503.4084431392,12633.6709404734,-47041.3380040269,-4023.5044761391,-52593.6040766972,-60121.6242563864,-14969.9660720528,-40590.5118563760,-54349.9746099984,-23753.3031975713,-37722.1720135166,-9538.3427133820,-17637.1495510354,-3963.6515754670
10880872367,18008,4,0,29029.4477262386,6445.6792118948,3503.5909585916,12636.6398584982,-47043.2118293376,-4025.9501832005,-52593.5432382131,-60120.2493066454,-14972.2049282683,-40590.9863965521,-54350.2909701158,-23752.7069804270,-37725.2991116001,-9536.6514035236,-17635.0567071818,-3965.2942145381
10880872367,18008,4,0,29028.6324905514,6432.1000622404,3503.7126355598,12635.0458902144,-47043.1266554599,-4026.9235989463,-52591.9736053229,-60118.0956243077,-14972.8741515935,-40590.4996886791,-54348.4414801987,-23751.6483908034,-37725.9561672285,-9536.3228757094,-17634.5943347025,-3964.1869541272
10880915981,18009,4,0,29028.5716520673,6422.7917741709,3504.8929021516,12636.1044798380,-47041.2771655428,-4026.0718601687,-52588.3841347602,-60109.3348825952,-14971.0124939796,-40590.1346577745,-54345.5942391422,-23747.7790632137,-37722.9872492037,-9535.0330998462,-17634.1441299201,-3962.3374642101
10880915981,18009,4,0,29034.6068296915,6451.0329984969,3508.1295095065,12640.5456891783,-47039.8535450145,-4024.4048857040,-52587.9217622809,-60112.5714899501,-14969.0291593975,-40587.6767830162,-54344.9980219978,-23746.2215980203,-37724.5082113066,-9536.7974158855,-17632.3068076998,-3961.9724333054
10880915981,18009,4,0,29034.5459912074,6449.9865765701,3508.4945404112,12639.8642981563,-47030.7642754878,-4024.7820843055,-52585.2813720703,-60109.9919382236,-14968.7614700674,-40587.6524476226,-54345.8375930786,-23746.6961381964,-37725.4207885683,-9541.1534513481,-17634.4483223407,-3963.4447246210
10880915981,18009,4,0,29032.5383212316,6434.2294091844,3511.6581415852,12637.7592866059,-47038.1987382466,-4023.2002837185,-52589.5157305647,-60115.2118801607,-14967.9827374707,-40588.9543911826,-54346.8718473086,-23748.1440941184,-37726.1021795904,-9544.5725741553,-17638.9747055588,-3965.1603698730
10880915981,18009,4,0,29033.6699170361,6443.8418896746,3510.2831918442,12636.8953801315,-47037.9918874006,-4023.4193022613,-52591.9371022325,-60116.2461343906,-14967.6663773533,-40588.3095032510,-54349.0863681303,-23750.4559565147,-37722.6952244799,-9543.9885247078,-17637.0035386735,-3966.2067917998
10880915981,18009,4,0,29034.0957864249,6439.1573263977,3508.5553788953,12637.0778955838,-47038.5272660608,-4023.1637806280,-52592.6184932546,-60119.2515555059,-14970.5744568940,-40589.4532667524,-54350.7046718078,-23751.2711922018,-37723.2062677465,-9542.5892395732,-17635.8962782626,-3965.6957485333
10880915981,18009,4,0,29032.4044765665,6427.1356419367,3508.2146833843,12635.0580579112,-47038.2717444275,-4024.1736994643,-52592.4481454990,-60120.1397973740,-14968.3721037690,-40590.4631855887,-54350.4613178713,-23751.2468568082,-37724.3013604606,-9541.9930224289,-17638.6218423509,-3969.9787778149
10880915981,18009,4,0,29034.4364819360,6446.4457767947,3509.9911671204,12636.8345416474,-47036.7994531119,-4022.8839236011,-52592.1074499880,-60118.9351953885,-14966.7659677884,-40588.4920187034,-54348.7578403161,-23751.0035028717,-37723.0359199910,-9542.4432272113,-17637.1617187322,-3974.8580242409
10880948706,18010,4,0,29034.9110221121,6448.7576391910,3511.6946446756,12641.1419063227,-47036.2762421486,-4021.3994645887,-52589.9294322567,-60113.9586073879,-14965.3301795633,-40587.1170689624,-54347.7844245703,-23750.2004348814,-37722.3788643625,-9541.2872960131,-17631.9782798856,-3974.8093534536
10880948706,18010,4,0,29028.7419998228,6424.0937177309,3509.8451547586,12639.2559133151,-47035.6435219138,-4021.4724707696,-52589.6495752297,-60117.6332518284,-14965.1233287173,-40586.9345535100,-54348.2102939591,-23749.4217022848,-37720.4442005677,-9541.4819791623,-17630.4451500859,-3971.3537275559
10880948706,18010,4,0,29031.8447625127,6436.2370791602,3508.5553788953,12639.8764658531,-47040.2550790097,-4026.0475247750,-52595.9889452745,-60123.6927648463,-14970.9881585860,-40591.5582783027,-54353.5762482580,-23756.4059602611,-37723.8998264654,-9545.7771761408,-17633.3167265361,-3970.0031132086
10880948706,18010,4,0,29034.2052956963,6447.4800310246,3504.5887097310,12638.8908824104,-47045.5966979149,-4029.4788152791,-52603.5450850015,-60130.9690475464,-14974.6141322392,-40595.8169721908,-54360.8403632613,-23764.1932862278,-37729.2414453707,-9553.2359742933,-17639.1450533143,-3972.3514786954
10880948706,18010,4,0,29028.6933290355,6430.0680568710,3500.5125312954,12633.9507975003,-47048.8698083603,-4032.2895532452,-52609.1422255401,-60135.6657785200,-14978.1062612274,-40600.0148275947,-54365.4640880540,-23767.8192598810,-37731.8818355813,-9554.6717625184,-17644.1459767086,-3976.6101725834
10880948706,18010,4,0,29030.7131667081,6437.7215381726,3502.0821641855,12635.3744180286,-47047.4461878320,-4030.7320880519,-52608.6555176672,-60134.2178225981,-14976.6339699118,-40597.6542944110,-54364.2473183717,-23765.7385837243,-37730.5798920212,-9549.8168514860,-17641.1770586838,-3978.2406439577
10880948706,18010,4,0,29031.7230855445,6438.7071216153,3502.6175428457,12637.0292247965,-47045.0004807706,-4029.7465046092,-52606.1733075153,-60130.4336688862,-14974.2734367282,-40595.3911028020,-54360.6456801121,-23762.1369454647,-37727.6839801774,-9543.7573384682,-17636.3586507419,-3974.8823596346
10880948706,18010,4,0,29031.5405700921,6415.3208083216,3503.3232692615,12635.5204303905,-47042.9806430980,-4029.1867905554,-52603.7884389380,-60129.4115823531,-14974.4802875741,-40594.0891592419,-54358.5650039554,-23760.6159833619,-37725.7249809889,-9543.9641893142,-17635.2757257246,-3970.6114980497
10880961408,18011,4,0,29035.2273822295,6424.2032270023,3503.7126355598,12636.6641938918,-47043.1144877631,-4028.8217596507,-52602.8758616763,-60129.8374517419,-14973.3973625569,-40594.3690162688,-54358.9056994665,-23761.8205853473,-37726.3211981332,-9546.0448654709,-17636.3099799546,-3969.8571008467
10880961408,18011,4,0,29038.1232940733,6443.0753247747,3504.2358465232,12639.9859751245,-47044.4042636263,-4028.5905734110,-52604.1899729332,-60129.3750792626,-14973.0688347427,-40593.8214699118,-54359.0030410410,-23762.1126100711,-37726.8322413997,-9546.6775857057,-17632.8178509664,-3972.1689632431
10880961408,18011,4,0,29036.7848474228,6427.9873807143,3507.4967892717,12638.0148082392,-47041.9585565649,-4027.3738037287,-52603.6424265761,-60128.3894958199,-14971.9980774223,-40593.2252527675,-54358.0904637793,-23760.9566788729,-37727.9760049011,-9547.9430261753,-17633.1585464774,-3973.7020930428
10880961408,18011,4,0,29034.1809603027,6423.4244944057,3507.1317583670,12636.3721691681,-47041.1433208777,-4029.1016166776,-52604.7983577743,-60129.1317253261,-14971.9494066350,-40594.1013269387,-54358.5163331681,-23761.4798898363,-37729.0589299183,-9548.2350508990,-17635.7137628103,-3975.9896200455
10880961408,18011,4,0,29033.8280970948,6431.5403481866,3504.3940265819,12634.2306545272,-47039.9752219827,-4032.6910872404,-52605.0295440140,-60126.0532980299,-14975.5267095009,-40595.6101213448,-54361.8381144008,-23762.5263117631,-37730.4217119625,-9548.2107155054,-17635.2027195437,-3973.9819500697
10880961408,18011,4,0,29030.6036574367,6417.9977016226,3503.3962754424,12632.8435370894,-47043.6011956360,-4033.4089813529,-52607.0615493834,-60127.8784525534,-14976.6461376086,-40595.9143137654,-54361.2905680438,-23763.2320381788,-37729.0710976152,-9545.0227789378,-17635.2757257246,-3971.3415598591
10880961408,18011,4,0,29033.0006937109,6424.2640654864,3504.2115111295,12631.7484443754,-47044.8301330151,-4030.8659327169,-52608.6311822735,-60130.1781472529,-14974.0909212758,-40593.6997929436,-54361.1567233787,-23761.8449207410,-37728.0125079916,-9542.2607117590,-17633.6939251376,-3970.8183488957
10880961408,18011,4,0,29038.1597971638,6446.0564104963,3508.2390187779,12635.5082626937,-47041.8003765062,-4026.9235989463,-52605.3945749186,-60128.2556511549,-14970.4284445321,-40591.4974398186,-54359.3802396426,-23761.7597468632,-37724.9462483922,-9539.8636754849,-17629.7515913670,-3973.6899253459
10880995051,18012,4,0,29036.1764625817,6427.9022068365,3509.5044592475,12633.5249281115,-47041.0216439095,-4025.3296306625,-52605.0295440140,-60129.6914393800,-14969.6983827227,-40592.6655387136,-54360.3779907820,-23763.0251873328,-37724.4473728224,-9542.7352519351,-17630.7736779001,-3976.9021973072
10880995051,18012,4,0,29030.3359681066,6418.7399311288,3508.6162173794,12631.4807550453,-47040.4740975525,-4026.3638848924,-52607.4509156817,-60132.5508481334,-14971.4626987621,-40594.8313887481,-54362.9210394180,-23765.4708943942,-37723.9606649495,-9548.0038646594,-17633.1220433870,-3978.9463703734
10880995051,18012,4,0,29031.8812656032,6442.4182691463,3506.0975041371,12631.4442519548,-47044.5381082913,-4028.9191012253,-52608.8380331195,-60133.8892947839,-14973.5555426156,-40596.0359907336,-54366.3766653157,-23767.8557629715,-37726.4915458887,-9548.4175663514,-17632.2338015189,-3980.5281709604
10880995051,18012,4,0,29026.8316714216,6439.9603943880,3505.1605914817,12629.6312651282,-47045.5115240372,-4031.3039698026,-52610.8578707921,-60135.5197661582,-14975.7943988310,-40599.2239273012,-54366.4740068903,-23768.8291787174,-37728.3410358058,-9545.3513067520,-17634.9715333041,-3981.8301145205
10880995051,18012,4,0,29028.7785029133,6434.2902476686,3508.5432111985,12630.3004884534,-47045.4385178562,-4032.5207394849,-52606.9763755056,-60131.3705815415,-14974.6993061170,-40599.6254612964,-54365.5249265381,-23767.9044337588,-37730.3122026911,-9546.0935362582,-17636.3099799546,-3979.5060844273
10880995051,18012,4,0,29033.4265630997,6451.6170479444,3509.3341114920,12633.9994682876,-47045.4020147658,-4030.6955849614,-52605.1268855885,-60129.7279424704,-14972.6551330507,-40596.2793446700,-54362.6776854816,-23763.6457398708,-37729.8741656055,-9546.0570331677,-17635.0932102723,-3977.2793959087
10880995051,18012,4,0,29034.0592833345,6443.5742003445,3510.5630488711,12635.4230888159,-47043.2970032154,-4028.4810641396,-52603.8614451189,-60127.4160800741,-14972.7524746253,-40596.1576677018,-54361.9597913690,-23762.1126100711,-37727.5866386028,-9545.7528407472,-17637.4537434559,-3975.1865520552
10880995051,18012,4,0,29036.4076488213,6433.1586518640,3512.5828865437,12637.1874048552,-47041.1433208777,-4027.4711453033,-52603.1313833096,-60128.8397006024,-14970.2580967766,-40593.9918176673,-54361.7772759167,-23761.6015668045,-37724.6542236684,-9544.5969095490,-17639.6560965809,-3973.4222360158
10881015710,18013,4,0,29042.9782051057,6456.5084620672,3513.4954638054,12642.5411914573,-47038.7949553909,-4024.7334135182,-52603.8614451189,-60128.4868373945,-14967.6663773533,-40591.6434521805,-54361.0837171978,-23761.8205853473,-37722.8534045386,-9540.3260479641,-17637.5145819401,-3974.0062854633
10881015710,18013,4,0,29043.6109253405,6450.9721600128,3512.9235820548,12641.1054032322,-47039.9508865891,-4024.0641901929,-52605.4919164932,-60129.6792716832,-14967.6055388692,-40592.9453957406,-54362.9575425085,-23763.2685412693,-37724.1431804019,-9539.4499737929,-17635.7746012944,-3974.1036270379
10881015710,18013,4,0,29037.6365862004,6424.6655994816,3510.4048688124,12634.7903685811,-47037.1279809262,-4027.2642944573,-52607.8646173737,-60130.8717059718,-14970.8421462241,-40596.1211646113,-54367.3257456679,-23767.9044337588,-37725.3599500842,-9546.6654180089,-17636.6628431624,-3975.4907444757
10881015710,18013,4,0,29037.4784061417,6428.0238838047,3507.9348263574,12631.6024320135,-47043.4186801836,-4030.8781004138,-52612.5491806505,-60135.2642445249,-14975.7700634374,-40600.3676908026,-54371.0977316830,-23770.8855194804,-37728.8520790724,-9551.4108197698,-17639.3884072508,-3980.6133448382
10881015710,18013,4,0,29034.6068296915,6424.1545562150,3505.0267468167,12630.7141901454,-47046.9959830496,-4032.3260563357,-52611.6852741761,-60136.4323434199,-14976.5852991245,-40601.2315972770,-54369.5767695802,-23769.3523896807,-37730.2513642070,-9554.8177748803,-17636.2856445609,-3981.5624251904
10881015710,18013,4,0,29035.0570344739,6412.3640579936,3507.3386092130,12630.9575440819,-47044.6597852596,-4031.5351560422,-52607.9741266451,-60131.7842832335,-14975.0521693248,-40598.7372194283,-54364.1378091003,-23764.4001370738,-37730.8110782608,-9553.9903714963,-17634.1684653137,-3981.0270465302
10881015710,18013,4,0,29038.2693064352,6432.5624347197,3509.1029252524,12635.4109211191,-47045.0978223452,-4032.5815779690,-52604.7740223807,-60127.5255893455,-14974.3099398186,-40597.3987727777,-54362.5925116038,-23762.5993179440,-37732.3320403637,-9552.1530492760,-17636.4316569228,-3981.8057791268
10881015710,18013,4,0,29034.9353575057,6434.0955645194,3506.3773611640,12634.5713500383,-47047.6408709812,-4034.0417015877,-52605.8447797011,-60128.9613775706,-14976.6948083959,-40599.4429458440,-54364.3203245527,-23764.4366401643,-37736.2865418312,-9554.4405762787,-17642.3694929724,-3982.4019962712
10881057292,18014,4,0,29028.9610183656,6413.7755108251,3505.1605914817,12630.7385255391,-47050.2325904045,-4037.9353645711,-52608.2904867625,-60133.4269223046,-14979.6880618144,-40601.9373236927,-54367.7881181472,-23767.0040241939,-37738.8052550735,-9557.5433389686,-17648.3925028998,-3983.6309336503
10881057292,18014,4,0,29030.6644959209,6427.3789958731,3502.4106919997,12630.3248238471,-47051.5832047518,-4038.6167555931,-52611.4175848460,-60133.7189470284,-14980.5519682888,-40603.2757703432,-54368.0558074773,-23767.9044337588,-37739.2189567655,-9556.2413954085,-17646.2753236526,-3981.7327729459
10881057292,18014,4,0,29034.4851527233,6445.7887211662,3504.3453557946,12634.5835177351,-47050.4151058568,-4035.6965083556,-52609.8722873495,-60131.1393953019,-14978.8119876431,-40601.1220880056,-54366.8755408855,-23765.7994222084,-37735.6781569900,-9551.7393475841,-17639.1450533143,-3980.1753077526
10881057292,18014,4,0,29031.7595886349,6431.6498574580,3506.4016965577,12632.3568292165,-47047.8842249176,-4032.7154226340,-52610.3589952224,-60131.7112770526,-14975.3320263518,-40599.7958090519,-54366.1698144698,-23765.0328573086,-37733.6583193174,-9549.2206343417,-17637.2712280036,-3976.5249987057
10881057292,18014,4,0,29034.9353575057,6435.6286943191,3507.2899384257,12632.7096924244,-47048.8211375730,-4033.1534597196,-52611.0525539413,-60131.3584138447,-14975.3198586549,-40599.2239273012,-54366.6686900395,-23765.6777452402,-37734.0355179189,-9550.1332116034,-17636.1639675927,-3976.3546509502
10881057292,18014,4,0,29036.8091828164,6443.4890264667,3508.0078325383,12634.0846421654,-47046.8134675972,-4032.8614349959,-52609.6045980194,-60132.1128110477,-14976.0620881611,-40600.4772000740,-54367.0580563378,-23765.1667019736,-37733.6583193174,-9550.7780995350,-17638.5123330795,-3977.7904391753
10881057292,18014,4,0,29033.2075445569,6422.8769480486,3507.1925968512,12630.9575440819,-47048.1884173382,-4035.5504959938,-52610.4563367970,-60133.6824439379,-14977.1206777847,-40601.6696343626,-54369.6132726706,-23767.1500365558,-37734.0841887062,-9552.8466079949,-17641.6881019503,-3983.2415673519
10881057292,18014,4,0,29034.9596928994,6430.5060939566,3507.8374847828,12630.9575440819,-47047.6043678907,-4032.8492672991,-52609.5680949289,-60132.9280467349,-14975.9282434961,-40599.6862997805,-54368.0314720837,-23766.3591362623,-37731.2126122560,-9549.6343360337,-17640.2401460284,-3985.9549637435
10881086171,18015,4,0,29036.6023319705,6448.2587636213,3508.0321679319,12631.1157241406,-47047.4826909225,-4032.2895532452,-52608.7771946354,-60131.3462461479,-14975.4293679263,-40600.0391629883,-54367.8124535408,-23767.2595458272,-37732.3077049701,-9548.3445601705,-17638.3298176272,-3987.0013856702
10881086171,18015,4,0,29030.9930237351,6426.9409587875,3505.6959701419,12625.4212420274,-47050.3420996759,-4034.1755462528,-52610.6996907334,-60135.1303998598,-14978.3374474670,-40601.9616590864,-54367.3744164552,-23768.3789739349,-37735.2401199044,-9550.1332116034,-17639.0963825270,-3984.8842064230
10881086171,18015,4,0,29030.2994650162,6421.3438182489,3506.2678518926,12623.4744105358,-47051.5345339645,-4036.0007007762,-52611.4540879365,-60137.4179268626,-14978.9214969145,-40603.5191242797,-54369.9052973944,-23769.4740666490,-37735.0941075425,-9552.0313723078,-17639.3275687667,-3979.1410535226
10881086171,18015,4,0,29031.5284023953,6435.6165266223,3504.4061942787,12623.3283981739,-47051.4493600868,-4036.9984519157,-52613.4495902154,-60137.4179268626,-14979.8949126604,-40603.3974473115,-54371.1585701672,-23770.5448239694,-37734.5343934887,-9550.1697146939,-17635.2392226342,-3975.6489245344
10881086171,18015,4,0,29031.3580546398,6427.7075236873,3504.7225543961,12622.2333054598,-47052.2159249866,-4038.2273892948,-52614.1431489343,-60137.0407282610,-14980.0409250222,-40603.8719874876,-54370.4650114483,-23769.8147621600,-37734.3275426427,-9544.6820834267,-17633.1098756901,-3975.5637506567
10881086171,18015,4,0,29030.4941481653,6426.9044556970,3504.9294052421,12621.5762498314,-47051.5953724486,-4036.4995763460,-52614.3134966899,-60138.0384794005,-14978.8728261272,-40603.3366088273,-54370.4041729641,-23768.3303031476,-37733.5609777428,-9539.6203215484,-17632.1486276411,-3976.3668186470
10881086171,18015,4,0,29032.1732903269,6441.3596795227,3505.8298148070,12623.5352490199,-47052.6417943754,-4035.3314774510,-52615.6276079467,-60138.3548395179,-14978.4834598289,-40602.8742363481,-54371.3654210131,-23770.2771346393,-37734.7412443347,-9539.1701167660,-17632.9151925410,-3976.5371664025
10881086171,18015,4,0,29032.4288119602,6426.2839031591,3506.8275659465,12626.2729808050,-47052.0942480184,-4037.0836257935,-52614.4838444454,-60137.2597468039,-14979.8827449635,-40603.3244411305,-54370.3189990864,-23770.1554576711,-37737.3938022421,-9546.5437410407,-17634.1562976169,-3975.6367568376
10881116023,18016,4,0,29029.6059062973,6412.8872689570,3506.3651934672,12625.1292173037,-47051.1086645757,-4037.8745260869,-52612.2571559268,-60136.5418526913,-14979.7123972080,-40601.4992866071,-54367.8854597218,-23770.4596500916,-37736.8584235818,-9548.4297340482,-17633.6452543504,-3975.6245891408
10881116023,18016,4,0,29035.3977299850,6436.6507808522,3507.0100813988,12629.5095881599,-47049.3565162332,-4034.1877139496,-52609.4950887480,-60134.9113813170,-14976.9381623324,-40599.2117596044,-54367.2405717902,-23768.4884832063,-37735.5443123250,-9545.6433314758,-17630.7736779001,-3977.3158989992
10881116023,18016,4,0,29037.0403690561,6433.6453597369,3509.6139685189,12631.6997735881,-47046.4971074798,-4031.4499821644,-52606.7816923565,-60133.1348975809,-14972.9593254713,-40595.8413075844,-54364.0891383130,-23766.0549438417,-37732.7092389652,-9542.4067241209,-17629.6177467020,-3978.3258178355
10881116023,18016,4,0,29036.1642948848,6420.6502595300,3511.0497567440,12629.5582589472,-47043.7593756947,-4030.7685911424,-52605.7474381265,-60132.8915436444,-14971.1341709478,-40596.3401831542,-54363.7241074083,-23764.8868449467,-37731.0665998941,-9542.6744134510,-17633.7912667122,-3979.3844074591
10881116023,18016,4,0,29037.1377106307,6430.8467894677,3512.2178556390,12629.8259482773,-47047.2150015924,-4031.9853608246,-52608.0836359165,-60136.5905234786,-14973.1661763173,-40597.4474435650,-54366.4983422840,-23767.7097506096,-37734.2788718554,-9546.3490578915,-17636.2491414705,-3981.4042451317
10881116023,18016,4,0,29034.0714510313,6415.7345100136,3509.1880991301,12627.1612226731,-47049.3078454459,-4033.2508012942,-52610.4320014033,-60138.8537150877,-14974.5532937551,-40599.1509211203,-54368.1044782646,-23768.9751910792,-37735.5564800218,-9550.2062177844,-17637.0522094608,-3981.3069035571
10881116023,18016,4,0,29035.2517176231,6406.3167126726,3512.0475078835,12627.8912844825,-47047.2150015924,-4032.8249319054,-52608.9475423909,-60137.2597468039,-14973.7623934616,-40597.8733129538,-54366.6808577363,-23767.2230427367,-37733.8773378602,-9551.8610245523,-17638.4149915050,-3981.6475990681
10881116023,18016,4,0,29041.0192059172,6429.4961751203,3512.7288989056,12632.8557047862,-47043.2118293376,-4028.7365857729,-52605.8691150947,-60132.2101526223,-14968.8831470356,-40593.9674822737,-54361.8867851881,-23763.7795845358,-37732.0886864273,-9548.2593862927,-17634.5821670057,-3983.4240828043
10881145963,18017,4,0,29043.8056084896,6432.6841116879,3516.5130526175,12637.7592866059,-47039.1478185988,-4022.5675634837,-52600.0651237102,-60125.7612733062,-14964.7461301158,-40588.2243293733,-54356.8736940970,-23759.0341827749,-37727.0512599426,-9544.6090772458,-17629.6177467020,-3979.7494383638
10881145963,18017,4,0,29043.7934407928,6414.9314420233,3521.3679636499,12639.4749318579,-47034.1712305982,-4019.1362729796,-52595.9889452745,-60121.1618839071,-14960.6334485896,-40583.9047970011,-54352.4689878471,-23754.0332593807,-37722.9750815069,-9537.3936330298,-17624.4586432490,-3972.9111927493
10881145963,18017,4,0,29046.3243217320,6426.2230646749,3523.3878013225,12642.9305577556,-47030.6425985195,-4015.7049824755,-52593.0078595529,-60119.6895925915,-14958.2364123155,-40579.6339354163,-54347.8452630544,-23752.4514587937,-37719.0814185235,-9531.9181694595,-17621.1003589259,-3969.5407407293
10881145963,18017,4,0,29045.7159368908,6435.3488372921,3521.2584543785,12644.4271844649,-47032.5407592239,-4017.0312614292,-52593.8230952400,-60121.1983869976,-14959.5748589660,-40582.7245304093,-54351.9214414901,-23754.9945074297,-37722.5248767244,-9533.5973116210,-17624.7628356696,-3972.4731556636
10881145963,18017,4,0,29042.2724786899,6426.6732694574,3518.9709273758,12642.4316821859,-47035.8260373661,-4020.8519182317,-52596.9866964140,-60123.7901064209,-14962.4342677194,-40586.7642057545,-54354.9998687863,-23757.9025869703,-37727.0390922457,-9538.8780920422,-17633.2558880520,-3978.3136501386
10881145963,18017,4,0,29045.8741169495,6442.3817660558,3520.0051816057,12645.5587802694,-47039.3546694448,-4024.2223702516,-52600.6005023704,-60125.9194533649,-14966.1575829473,-40589.4654344492,-54357.3969050604,-23761.0905235380,-37730.4217119625,-9543.2219598080,-17634.0954591328,-3979.5060844273
10881145963,18017,4,0,29047.2612343874,6446.4092737042,3518.5450579870,12646.3861836534,-47040.8147930635,-4024.1736994643,-52599.9677821356,-60126.5521735997,-14966.7416323948,-40589.8669684444,-54358.8691963760,-23761.1878651125,-37730.6285628085,-9544.5360710649,-17633.8886082868,-3976.9995388818
10881145963,18017,4,0,29044.6695149641,6420.8571103760,3519.2264490090,12643.9526442888,-47038.4785952735,-4024.8307550928,-52599.7487635928,-60127.0632168662,-14966.1332475536,-40588.4068448256,-54357.8957806302,-23759.8494184620,-37727.6596447837,-9540.8127558371,-17631.6619197682,-3974.3104778839
10881187261,18018,4,0,29047.5532591111,6435.3001665049,3519.7496599724,12644.2325013157,-47037.0306393516,-4021.7401600997,-52599.0552048739,-60126.5400059028,-14963.3833480716,-40586.3018332752,-54356.4234893146,-23759.2166982272,-37724.3987020352,-9537.1381113965,-17628.3888093228,-3969.9666101181
10881187261,18018,4,0,29048.2589855268,6446.1294166773,3517.6446484221,12641.8476327384,-47036.3249129358,-4020.2922041778,-52602.1944706542,-60128.1461418835,-14963.5171927367,-40585.9976408547,-54359.3680719457,-23761.3338774744,-37724.3987020352,-9537.4909746044,-17629.6055790051,-3971.0495351354
10881187261,18018,4,0,29043.4527452818,6427.3789958731,3518.3260394441,12636.8345416474,-47038.2595767307,-4020.9857628967,-52605.4432457059,-60131.8937925049,-14964.2107514556,-40588.2608324637,-54363.3955795941,-23764.3149631960,-37726.1995211649,-9541.4941468591,-17634.4483223407,-3977.7417683880
