timestamp,sequence,battery,flags,EEG-ch1,EEG-ch2,EEG-ch3,EEG-ch4,EEG-ch5,EEG-ch6,EEG-ch7,EEG-ch8,EEG-ch9,EEG-ch10,EEG-ch11,EEG-ch12,EEG-ch13,EEG-ch14,EEG-ch15,EEG-ch16
560444526375,23251,-2,0,963.0975389295,4184.1059065051,8466.1252693443,-2458.1424475644,-9917.2326247516,-7520.4153691748,-10298.8602679063,-22211.4856623490,-13383.3470771285,-5457.4310436323,-7206.5252942334,-3600.2876452435,-24658.1904748998,3568.1162548436,6919.4041523024,10128.4881769915
560444526375,23251,-2,0,964.7036749101,4185.4930239429,8474.8738433600,-2455.7819143807,-9917.9383511673,-7512.8470617510,-10300.9652794567,-22216.1093871417,-13387.8004541657,-5454.7663180281,-7209.1048459599,-3603.6094264761,-24663.5320938051,3563.7845547747,6914.9264398716,10123.2317319640
560444526375,23251,-2,0,963.5842468024,4183.1568261529,8473.5475644063,-2457.7287458724,-9917.5976556563,-7519.1620964021,-10302.7295954960,-22215.9877101735,-13385.5737656471,-5453.0385050792,-7214.7019864984,-3602.3804890970,-24660.6361819612,3565.6705477822,6916.4595696713,10125.6896067222
560444526375,23251,-2,0,966.4679909495,4185.2009992191,8464.8598288748,-2460.7706700781,-9911.6233165162,-7528.5920614398,-10298.6047462731,-22211.0354575666,-13377.8107750741,-5448.9744943404,-7213.1566890019,-3594.4836538589,-24653.2747253834,3573.0198366633,6923.8818647333,10134.2313298919
560444526375,23251,-2,0,969.5707536393,4186.8071351998,8467.5488898726,-2456.5606469774,-9906.3425360951,-7523.4572933806,-10293.7985060280,-22207.5068254879,-13371.9094421149,-5442.2092549068,-7203.3981961499,-3593.2912195703,-24650.4153166300,3575.5872206929,6925.2081436870,10135.4480995742
560444526375,23251,-2,0,971.2985665882,4190.0680779483,8478.1226184118,-2450.2334446295,-9905.9044990094,-7503.8186307083,-10291.6083205999,-22208.5532474147,-13372.7976839830,-5438.4616042853,-7197.3143477384,-3595.6882558444,-24652.9096944787,3574.0297554996,6922.3730703272,10130.2038222435
560444526375,23251,-2,0,969.8871137567,4189.6422085595,8484.1942991264,-2447.3618681793,-9907.6444796551,-7495.2890752354,-10293.7985060280,-22211.1449668380,-13376.5331669076,-5439.4593554248,-7199.4923654697,-3598.2191367836,-24655.5865877797,3571.3650298954,6919.7570155103,10125.6774390254
560444526375,23251,-2,0,966.4923263431,4186.9409798648,8482.8315170822,-2451.2555311626,-9911.0636024624,-7507.1890827283,-10298.9089386936,-22211.7898547696,-13378.1271351914,-5442.3187641782,-7207.3405299205,-3598.5963353851,-24656.4626619510,3571.7908992842,6921.1806360386,10127.5025935488
560444546367,23252,-2,0,965.8839415020,4184.6047820748,8471.1626958290,-2455.5750635347,-9910.9540931909,-7525.4284602659,-10299.8458513490,-22208.6384212924,-13375.2190556508,-5444.5332850000,-7210.5041310945,-3593.2060456925,-24651.4617385567,3575.3682021501,6924.6727650268,10135.2169133346
560444546367,23252,-2,0,970.0209584218,4188.8999790533,8469.8120814817,-2453.4092135003,-9907.0482625108,-7527.1927763052,-10292.8980964631,-22202.2382127636,-13370.5831631612,-5442.1119133322,-7203.3008545753,-3587.4142220048,-24645.4630640230,3581.1113550505,6929.0288004894,10138.3440114181
560444546367,23252,-2,0,973.3670750481,4195.4948707313,8480.5561577764,-2446.4127878271,-9906.2086914300,-7508.8195541026,-10289.4059674749,-22202.6397467587,-13369.7679274741,-5436.9163067888,-7193.6032002074,-3589.6409105234,-24645.5117348103,3580.1136039110,6927.0454659072,10135.3507579996
560444546367,23252,-2,0,974.9367079382,4196.5899634454,8492.5048360565,-2441.2658520710,-9908.2771998899,-7498.9758873728,-10289.5398121400,-22206.4847389548,-13372.1284606577,-5436.4295989159,-7195.3310131563,-3592.7801763037,-24649.3567270064,3576.2564440182,6923.5290015254,10128.6463570502
560444546367,23252,-2,0,973.4400812290,4193.1100021540,8487.7350989019,-2445.1108442670,-9910.1631928975,-7507.8461383567,-10291.8151714459,-22207.9326948767,-13374.1969691176,-5442.0024040608,-7204.5662950449,-3592.7315055164,-24650.1111242094,3574.5529664630,6922.8719458970,10127.6851090012
560444546367,23252,-2,0,974.9123725446,4193.5237038460,8479.9842760257,-2448.6029732552,-9907.1334363885,-7523.9683366471,-10290.7687495191,-22205.4383170280,-13371.0577033373,-5444.6671296650,-7207.7663993093,-3587.2682096429,-24644.9155176660,3578.8846665319,6927.7998631103,10137.5896142151
560444546367,23252,-2,0,978.1733152931,4196.6873050200,8479.6557482115,-2445.5002105654,-9903.3857857671,-7525.7204849896,-10285.6583168534,-22201.0822815654,-13366.4096431510,-5443.0366582908,-7201.5000354455,-3582.1334415837,-24641.9100965507,3582.0726030995,6931.1459797366,10143.2232578441
560444546367,23252,-2,0,980.2661591467,4201.3231975095,8485.4840749896,-2439.1121697333,-9901.2929419135,-7510.6812117165,-10282.9570881588,-22200.4617290274,-13368.9770271806,-5443.5963723446,-7196.0854103593,-3584.1776146499,-24643.8812634360,3581.0261811728,6928.8827881275,10138.7820485037
560444600178,23253,-2,0,980.2174883594,4199.3276952306,8493.3200717436,-2437.9197354447,-9905.2839464715,-7498.6108564681,-10286.8142480516,-22205.0367830328,-13373.1018764036,-5443.2556768336,-7197.4116893130,-3591.3322203818,-24649.8434348793,3575.5872206929,6924.2833987284,10131.6882812559
560444600178,23253,-2,0,975.4477512048,4193.4020268778,8488.1001298066,-2444.2956085799,-9910.4795530149,-7506.1183254079,-10293.6038228788,-22210.1715510921,-13378.0784644042,-5447.4170291470,-7205.8195678177,-3594.6540016145,-24653.9074456182,3571.5353776509,6921.1441329481,10130.1064806690
560444600178,23253,-2,0,970.7753556248,4185.9675641190,8473.3407135604,-2453.9324244637,-9913.5093095238,-7527.5578072099,-10298.6290816667,-22208.5775828083,-13378.8085262135,-5454.1944362774,-7214.9818435253,-3591.9406052229,-24653.9804517991,3571.0608374748,6921.6065054274,10134.4138453443
560444600178,23253,-2,0,968.5364994094,4186.0770733904,8464.3122825177,-2457.0351871535,-9912.4750552938,-7534.6880775481,-10296.0251945466,-22205.3774785439,-13375.8274404919,-5452.4179525412,-7211.1855221166,-3587.9374329682,-24651.2548877108,3573.4213706584,6923.7236846746,10139.1714148020
560444600178,23253,-2,0,970.7266848375,4188.2429234249,8471.0410188608,-2452.5209716322,-9912.2682044478,-7520.7560646859,-10293.6889967566,-22204.9881122456,-13374.6228385064,-5447.9645755041,-7203.8605686292,-3589.0325256823,-24651.7415955837,3573.7985692599,6922.8597782001,10136.9447262834
560444600178,23253,-2,0,968.7433502554,4186.8801413807,8477.5264012674,-2449.3452027614,-9915.4804764091,-7507.9556476281,-10296.6092439941,-22208.5289120210,-13379.2100602087,-5448.0375816850,-7203.2400160912,-3594.2768030130,-24655.6109231734,3571.4258683795,6921.1806360386,10131.3110826544
560444600178,23253,-2,0,962.2579678487,4180.2730820058,8473.4258874381,-2454.9910140872,-9921.9415234221,-7514.1368376142,-10301.5371612074,-22213.2378106915,-13384.5516791140,-5451.1768474653,-7212.3414533148,-3597.7324289107,-24658.8231951346,3569.2235152545,6918.3820657693,10129.5711020087
560444600178,23253,-2,0,958.9240189192,4175.9170465432,8465.2370274763,-2462.1212844255,-9921.8806849379,-7529.1152724032,-10303.2528064594,-22211.5830039236,-13381.6435995733,-5450.1912640226,-7217.0381842884,-3593.6440827782,-24655.8299417162,3572.0099178270,6919.9151955690,10134.7910439458
560444608965,23254,-2,0,965.6770906560,4183.1689938497,8465.2005243858,-2458.0816090803,-9913.3389617682,-7531.2932901345,-10294.1513692359,-22201.5324863478,-13372.0432867800,-5444.3751049413,-7208.1557656077,-3582.9000064835,-24646.5581567371,3580.9410072950,6927.7511923230,10143.0407423917
560444608965,23254,-2,0,973.7199382559,4192.1974248923,8475.0076880251,-2447.9824207172,-9906.3182007014,-7511.7398013401,-10284.7092365013,-22197.6144879709,-13365.6795813416,-5435.0789845686,-7194.5279451660,-3580.4177963316,-24644.5139836708,3583.7517452611,6931.1338120397,10141.9213142840
560444608965,23254,-2,0,974.5960124272,4193.6940516015,8486.8468570338,-2443.5290436800,-9908.6178954009,-7495.9096277734,-10284.9404227409,-22202.4815667000,-13368.7093378505,-5432.4994328421,-7193.6153679042,-3587.3412158239,-24651.0115337743,3578.0329277543,6926.3154040979,10135.2899195155
560444608965,23254,-2,0,968.3661516538,4187.5006939187,8483.5494111948,-2448.5421347711,-9912.0735212987,-7499.6451106981,-10291.4866436316,-22207.6285024561,-13374.7931862620,-5437.0014806666,-7203.0209975484,-3592.8531824847,-24656.1949726209,3574.3339479201,6922.3852380240,10129.5832697056
560444608965,23254,-2,0,964.0101161912,4182.8161306418,8472.6106517510,-2455.6845728062,-9912.6575707462,-7517.5924635119,-10295.2464619499,-22206.9471114340,-13373.8562736066,-5441.9050624862,-7209.9687524343,-3589.0325256823,-24655.1485506941,3575.1370159105,6924.5754234522,10133.8419635936
560444608965,23254,-2,0,967.1372142747,4182.9499753069,8468.8630011295,-2457.5583981169,-9907.1334363885,-7524.9295846961,-10290.9390972746,-22200.7780891448,-13366.6529970874,-5439.0821568233,-7206.0385863605,-3583.3137081755,-24649.0403668890,3579.8702499746,6929.6858561178,10140.7288799954
560444608965,23254,-2,0,974.0362983733,4191.1266675719,8478.6214939815,-2448.6394763457,-9901.2807742167,-7512.4211923622,-10283.6263114840,-22196.3733828949,-13361.0315211552,-5434.5436059083,-7194.8564729802,-3578.4466294463,-24644.7816730009,3584.0316022880,6932.5209294776,10140.6315384208
560444608965,23254,-2,0,979.1832341294,4196.4682864772,8492.9793762326,-2440.7061380171,-9899.8814890821,-7494.7658642721,-10283.3829575476,-22197.2129539757,-13362.7715018009,-5432.1952404215,-7188.9308046274,-3583.1433604200,-24647.7627587226,3580.5394732999,6929.0044650957,10135.0465655791
560444666384,23255,-2,0,976.5671793125,4192.2217602860,8495.2912386289,-2444.3077762767,-9905.2839464715,-7496.4328387368,-10288.2622039736,-22202.2990512477,-13367.5412389555,-5435.4196800796,-7195.9637333911,-3587.8035883031,-24651.2548877108,3575.8184069325,6924.1130509729,10130.4350084832
560444666384,23255,-2,0,972.5883424514,4187.4155200409,8484.4498207597,-2452.5696424195,-9907.7904920170,-7513.7109682254,-10291.5474821157,-22201.9583557366,-13369.2082134202,-5441.0776591023,-7204.8218166782,-3585.2970427576,-24650.7681798378,3577.2176920672,6925.2081436870,10134.0853175301
560444666384,23255,-2,0,970.7023494438,4185.9797318158,8471.9779315162,-2456.4876407965,-9907.4132934155,-7527.4239625448,-10290.5253955826,-22199.1354500737,-13366.7868417525,-5442.5864535083,-7203.7875624482,-3580.2961193634,-24647.3977278179,3580.0040946396,6928.4447510419,10140.9600662350
560444666384,23255,-2,0,970.6171755661,4187.7927186424,8474.9468495410,-2453.5917289526,-9908.8247462469,-7521.5226295857,-10287.6781545261,-22199.1476177705,-13367.0910341730,-5439.9947340850,-7197.5211985844,-3581.9022553440,-24649.7339256079,3578.4953002336,6927.4226645087,10140.1691659415
560444666384,23255,-2,0,973.2697334735,4192.5624557970,8485.7760997134,-2446.9359987905,-9910.0780190197,-7506.0331515301,-10286.2910370882,-22201.3134678050,-13371.4470696357,-5439.4715231216,-7194.3941005009,-3587.1830357652,-24654.0047871927,3572.5696318808,6922.9936228652,10131.6639458623
560444666384,23255,-2,0,974.9002048478,4193.9739086285,8490.8743646822,-2442.9936650198,-9911.2582856115,-7500.5333525661,-10287.8728376752,-22203.1751254189,-13372.9558640417,-5440.0799079628,-7198.6162912985,-3589.0325256823,-24655.2337245719,3571.1216759589,6921.4118222782,10128.2691584487
560444666384,23255,-2,0,975.6424343540,4193.2925176064,8489.0492101588,-2445.3420305067,-9908.2771998899,-7510.2066715404,-10288.3108747608,-22202.2990512477,-13369.5975797186,-5438.7171259186,-7203.5198731181,-3584.8346702783,-24652.2769742439,3578.7751572605,6927.2644844500,10136.0443167186
560444666384,23255,-2,0,973.9146214051,4192.6841327652,8479.2420465195,-2450.2091092358,-9902.9477486815,-7521.1941017715,-10286.0233477581,-22197.1521154916,-13364.2924639038,-5436.8067975174,-7202.6924697342,-3577.9355861797,-24645.2927162675,3585.3700489386,6929.7223592083,10141.6049541666
560444680315,23256,-2,0,970.5441693851,4193.9130701444,8473.0973596239,-2451.7422390355,-9902.0108360261,-7516.6555508565,-10283.8574977237,-22196.5315629536,-13362.6254894390,-5438.2060826521,-7196.9736522274,-3577.2176920672,-24644.1367850693,3584.1532792563,6926.9846274231,10138.4413529927
560444680315,23256,-2,0,967.1007111843,4189.6908793468,8480.3249715367,-2450.5376370500,-9905.5394681047,-7500.9105511676,-10285.3784598265,-22202.2017096731,-13368.0401145252,-5437.7802132632,-7193.8100510534,-3585.1753657894,-24650.0016149380,3578.8238280478,6919.8908601753,10129.7536174611
560444680315,23256,-2,0,963.1218743232,4184.8116329208,8482.3934799966,-2453.2997042289,-9910.9905962814,-7496.7248634606,-10290.6835756413,-22205.9980310819,-13372.7611808925,-5440.5787835325,-7200.6726320616,-3590.3101338487,-24653.8344394372,3574.9666681549,6917.4086500235,10124.2051477098
560444680315,23256,-2,0,963.1462097168,4183.2785031211,8473.1460304112,-2457.2177026058,-9912.2560367510,-7509.4766097310,-10294.2365431136,-22205.8520187200,-13372.7003424084,-5444.0709125207,-7209.2995291090,-3589.5192335552,-24651.5834155250,3576.1712701404,6918.5402458280,10125.0203833970
560444680315,23256,-2,0,964.1926316436,4184.4222666225,8467.3785421171,-2458.6899939214,-9908.3623737677,-7522.2526913951,-10290.3915509176,-22200.4495613306,-13366.4583139382,-5441.1019944959,-7208.0097532458,-3581.4398828647,-24645.5725732944,3583.8734222293,6924.2590633348,10134.8397147331
560444680315,23256,-2,0,967.8794437809,4190.3844380657,8468.4371317407,-2453.7742444050,-9904.1523506669,-7518.4076991990,-10283.6384791808,-22195.8015011442,-13363.3677189452,-5436.2714188572,-7199.2003407460,-3577.9477538766,-24641.8979288539,3585.6742413591,6926.3640748851,10136.6648692565
560444680315,23256,-2,0,969.2787289156,4193.0856667604,8475.3848866266,-2447.6538929030,-9907.1699394790,-7502.3098363023,-10282.6893988286,-22197.4684756090,-13368.1374560998,-5438.0357348965,-7195.4161870340,-3581.7927460726,-24647.1422061846,3580.8314980236,6921.8133562734,10131.1529025957
560444680315,23256,-2,0,964.9348611498,4188.3402649994,8477.2708796342,-2449.1018488249,-9913.6431541888,-7499.5842722139,-10290.3185447366,-22204.4405658885,-13376.2898129712,-5441.9172301830,-7201.3418553868,-3589.7260844012,-24655.1120476036,3574.0175878028,6914.6465828447,10124.4119985558
560444700256,23257,-2,0,959.2525467335,4183.8138817813,8471.4790559464,-2455.5628958379,-9919.5444871479,-7513.3581050175,-10295.5263189769,-22207.6041670625,-13380.9622085512,-5447.6725507803,-7213.5460553002,-3592.2813007340,-24657.9714563570,3571.5840484382,6913.6244963115,10125.7991159936
560444700256,23257,-2,0,957.3908891195,4179.7255356488,8457.9485770793,-2462.3646383619,-9919.0334438814,-7530.6605698997,-10296.3780577545,-22204.3675597076,-13379.7089357784,-5451.3106921304,-7216.4906379314,-3588.3754700538,-24654.3333150070,3575.6602268739,6916.9706129378,10131.3354180481
560444700256,23257,-2,0,956.8190073689,4182.3050873753,8455.5272054116,-2462.4133091492,-9916.4417244581,-7529.9913465745,-10294.0053568740,-22203.6496655950,-13376.2654775775,-5449.1935128832,-7209.1778521408,-3587.7305821222,-24651.5955832218,3578.5561387177,6918.6010843121,10132.9415540287
560444700256,23257,-2,0,961.1385397410,4186.6124520506,8467.8895853837,-2454.7233247571,-9914.1907005458,-7512.5915401177,-10291.8030037490,-22204.7569260059,-13375.5475834650,-5443.9979063398,-7202.4856188882,-3591.2348788072,-24652.4594896962,3576.7066488006,6916.3257250062,10127.7216120917
560444700256,23257,-2,0,963.2070482009,4186.2230857523,8475.9202652868,-2451.9369221847,-9914.7869176902,-7502.2611655150,-10294.1270338422,-22207.9448625735,-13377.1172163551,-5443.6937139192,-7204.3229411084,-3596.7711808617,-24655.1850537846,3574.3826187074,6910.2418765948,10119.4232428584
560444700256,23257,-2,0,960.7613411395,4183.5948632385,8473.4623905286,-2455.4533865665,-9919.6783318130,-7513.8934836777,-10299.0671187523,-22211.5343331363,-13381.6679349669,-5448.0254139882,-7213.9840923859,-3598.1217952090,-24656.5843389192,3571.3041914112,6911.7506710008,10123.3655766290
560444700256,23257,-2,0,957.4273922100,4178.5209336633,8461.8057369722,-2462.9243524158,-9920.7734245271,-7534.5055620958,-10304.1532160243,-22211.8628609505,-13380.7918607957,-5451.2741890399,-7220.7614995162,-3595.1285417906,-24654.7956874862,3573.3605321743,6914.1233718813,10128.7315309280
560444700256,23257,-2,0,956.0159393786,4179.4091755314,8455.9165717099,-2465.9662766215,-9921.9536911189,-7541.3073046198,-10304.2505575989,-22212.0088733124,-13381.7409411479,-5455.8614107421,-7218.2914570612,-3593.9361075019,-24652.6176697549,3572.7886504236,6914.0260303067,10128.4030031137
560444735516,23258,-2,0,959.1187020684,4183.3271739084,8464.2636117304,-2460.5151484449,-9923.1582931044,-7527.6794841781,-10301.9386952025,-22213.7001831708,-13384.5151760235,-5455.5207152311,-7212.4996333735,-3596.7590131648,-24658.6163442886,3570.1360925162,6912.3955589324,10123.4020797195
560444735516,23258,-2,0,956.5513180388,4180.7232867883,8472.5863163573,-2458.3736338040,-9926.7355959703,-7519.1255933116,-10303.6056696673,-22216.3649087750,-13388.6156898528,-5455.8979138326,-7211.5992238086,-3602.3561537034,-24663.6902738638,3565.9260694155,6908.5018959491,10116.2353062908
560444735516,23258,-2,0,956.9650197307,4181.4046778104,8470.2014477800,-2461.1113655892,-9927.8428563812,-7524.1873551899,-10306.2338921810,-22219.1269759538,-13390.5016828604,-5460.0349307524,-7221.3455489637,-3602.5386691557,-24664.7366957906,3564.7579705205,6909.5969886631,10113.6192514739
560444735516,23258,-2,0,956.7581688848,4178.5452690570,8460.5646318963,-2466.0027797120,-9925.4093170166,-7540.1392057248,-10305.9418674573,-22215.9512070830,-13386.5106783025,-5461.5193897648,-7224.0346099616,-3596.7225100744,-24661.7069392817,3568.8949874403,6914.4032289082,10119.6422614012
560444735516,23258,-2,0,959.6540807286,4180.5772744264,8458.8368189474,-2466.2096305580,-9921.3453062777,-7541.8670186737,-10300.2108822537,-22210.5609173905,-13379.7941096562,-5458.1367700480,-7217.3667121026,-3591.0401956580,-24656.9250344302,3572.7886504236,6918.4064011629,10124.2538184971
560444735516,23258,-2,0,967.4535743921,4188.3280973026,8469.5808952421,-2457.6070689042,-9915.0789424139,-7522.9584178108,-10292.8372579790,-22208.4437381433,-13376.6426761790,-5452.0042508493,-7207.8759085807,-3591.5755743183,-24654.4914950657,3570.9999989907,6916.2283834316,10118.7905226236
560444735516,23258,-2,0,969.7897721821,4188.6687928137,8478.7553386466,-2453.0320148988,-9916.2713767026,-7506.6658717649,-10293.8106737248,-22212.6537612440,-13378.0662967073,-5448.8528173721,-7207.4378714951,-3595.8099328126,-24660.8186974136,3566.0720817774,6911.4099754898,10113.7652638357
560444735516,23258,-2,0,963.6815883770,4183.3880123925,8476.2122900106,-2457.6679073883,-9920.7612568302,-7512.1656707289,-10300.4177330997,-22218.3482433571,-13382.7386922873,-5451.8704061842,-7216.6488179901,-3601.2975640798,-24667.6082722408,3561.7525494052,6906.0075181004,10110.5773272681
560444765277,23259,-2,0,958.4616464400,4179.0319769299,8464.0689285813,-2464.5548237901,-9921.2601324000,-7529.5046387016,-10302.8877755547,-22217.3626599145,-13381.4002456368,-5454.9001626931,-7222.6231571301,-3597.6107519424,-24664.8340373652,3564.7579705205,6908.5140636459,10115.4079029068
560444765277,23259,-2,0,961.7955953695,4182.5971120990,8457.7052231429,-2463.0095262936,-9915.5169794996,-7534.1770342816,-10297.8260136764,-22208.6384212924,-13375.7544343110,-5452.7221449618,-7214.6776511048,-3588.3876377506,-24656.5600035256,3572.5452964872,6915.3036384731,10122.3678254896
560444765277,23259,-2,0,967.3684005144,4190.6399596990,8467.3177036330,-2453.8837536764,-9910.6012299831,-7517.1300910326,-10289.7953337732,-22201.8975172525,-13371.2280510928,-5444.4724465159,-7201.9137371375,-3585.8202537210,-24654.3454827038,3574.7233142185,6918.4794073439,10124.0104645607
560444765277,23259,-2,0,967.3440651207,4192.1730894987,8478.8283448275,-2447.0820111523,-9912.0491859050,-7500.2656632360,-10288.1891977926,-22202.9317714825,-13374.1239629367,-5442.3674349655,-7199.1273345650,-3590.2006245773,-24658.9692074965,3570.8418189320,6914.8412659938,10116.0649585353
560444765277,23259,-2,0,967.6360898445,4192.7571389462,8480.8238471065,-2447.1793527269,-9914.3123775141,-7502.3706747864,-10291.9976868982,-22205.8155156295,-13378.5530045802,-5443.6815462224,-7207.3040268301,-3593.1817102989,-24663.3860814432,3566.4614480757,6909.9255164774,10111.7575938600
560444765277,23259,-2,0,964.7645133942,4188.6566251168,8473.6692413746,-2453.7499090113,-9915.4196379250,-7519.3689472481,-10295.5871574610,-22205.0124476392,-13377.0685455679,-5444.8739805110,-7214.6289803175,-3591.9041021325,-24662.3883303037,3565.6705477822,6910.7894229518,10115.2132197577
560444765277,23259,-2,0,966.0299538638,4189.7517178309,8465.5168845032,-2457.0838579408,-9912.4872229906,-7528.6163968335,-10292.3262147124,-22202.2868835509,-13373.0167025258,-5444.7766389364,-7211.8060746545,-3586.3312969876,-24657.0102083080,3568.2135964182,6913.8070117639,10120.0194600027
560444765277,23259,-2,0,970.7145171407,4194.9473243743,8472.5984840541,-2448.7124825266,-9908.8247462469,-7517.0570848517,-10287.0210988976,-22201.2526293209,-13369.8896044423,-5440.7004605008,-7202.2422649517,-3585.3092104544,-24656.4748296478,3571.4745391668,6915.1697938080,10118.3524855380
560444795231,23260,-2,0,972.2111438499,4197.1131744088,8483.9509451900,-2444.6606394846,-9910.5282238021,-7500.8618803804,-10287.7876637975,-22204.5135720695,-13371.1185418214,-5436.4661020064,-7197.9349002764,-3589.1663703473,-24659.1030521615,3570.5132911177,6913.7340055829,10112.1469601583
560444795231,23260,-2,0,971.6879328865,4195.1420075235,8487.7959373860,-2446.0964277097,-9911.8545027558,-7502.2855009086,-10290.2577062525,-22206.9957822213,-13373.2113856750,-5437.4881885395,-7202.9601590643,-3590.1154506995,-24659.5167538535,3569.7710616115,6913.2472977100,10108.9225205002
560444795231,23260,-2,0,968.6460086808,4191.3578538115,8477.0761964850,-2452.5209716322,-9914.4705575728,-7520.3423629939,-10293.8106737248,-22204.8664352773,-13374.2578076018,-5443.1826706526,-7210.8204912119,-3587.3655512175,-24657.5942577555,3571.6935577096,6914.4762350891,10111.3195567743
560444795231,23260,-2,0,967.6360898445,4188.2672588185,8467.1960266648,-2456.9013424884,-9914.1298620617,-7533.6538233182,-10292.6547425266,-22203.4793178395,-13371.6904235721,-5444.7036327555,-7210.3094479453,-3583.5327267183,-24654.9903706354,3572.4722903062,6916.5325758522,10116.6003371955
560444795231,23260,-2,0,969.8627783631,4194.2537656554,8473.1338627144,-2453.8350828891,-9911.2339502179,-7525.0025908771,-10288.9435949956,-22202.6762498492,-13370.7413432199,-5443.7667201001,-7202.6559666437,-3582.7539941216,-24653.3598992611,3574.3826187074,6916.7029236077,10115.2983936354
560444795231,23260,-2,0,970.9578710771,4195.9450755138,8481.7242566714,-2448.3596193187,-9913.0712724381,-7508.9290633740,-10289.6128183209,-22206.9836145245,-13372.7125101052,-5444.1195833080,-7199.7722224967,-3588.2172899951,-24656.2193080145,3572.7156442427,6913.8313471575,10111.0640351411
560444795231,23260,-2,0,970.3129831455,4194.8378151029,8487.2970618163,-2450.4646308691,-9914.8234207806,-7506.1548284983,-10294.3217169914,-22212.0940471902,-13375.0365401984,-5444.4724465159,-7206.3062756906,-3593.0235302402,-24656.3774880732,3569.0044967117,6911.2031246438,10108.1194525099
560444795231,23260,-2,0,965.7622645337,4187.5980354932,8476.7598363676,-2459.5052296086,-9918.2303758911,-7523.7249827107,-10301.2208010900,-22216.5352565305,-13377.4092410789,-5448.9501589467,-7217.7074076137,-3592.5733254577,-24658.0566302348,3570.1360925162,6913.1377884386,10114.2033009214
560444822778,23261,-2,0,964.5941656387,4186.9531475616,8465.1518535985,-2465.0902024503,-9918.1573697101,-7538.6425790156,-10301.8656890216,-22214.2598972246,-13374.3794845700,-5451.8095677001,-7219.7637483768,-3588.3511346602,-24653.7005947722,3574.5651341598,6916.5934143363,10119.7517706726
560444822778,23261,-2,0,969.1448842505,4190.7616366672,8467.7557407186,-2460.6489931099,-9915.6508241646,-7531.9503457630,-10298.7750940286,-22213.1161337233,-13371.3740634547,-5448.4147802865,-7211.7574038673,-3587.7792529095,-24652.0214526106,3576.1104316563,6918.0778733487,10120.1411369710
560444822778,23261,-2,0,971.2255604072,4191.7715555035,8476.9910226072,-2456.1347775886,-9916.1375320375,-7515.8159797758,-10298.1058707033,-22214.0652140755,-13373.8197705161,-5444.9591543888,-7206.9998344095,-3592.4638161863,-24655.1850537846,3573.7012276854,6914.3058873336,10113.4975745056
560444822778,23261,-2,0,968.6095055903,4189.5448669849,8478.4876493165,-2457.2177026058,-9920.4570644097,-7511.5086151004,-10303.3136449435,-22219.4311683744,-13379.2587309960,-5449.1205067022,-7215.1035204936,-3598.4746584169,-24659.5897600345,3568.5421242324,6908.9034299442,10106.9513536149
560444822778,23261,-2,0,961.4792352521,4181.5385224754,8467.3785421171,-2467.2438847879,-9926.4679066402,-7527.9836765987,-10310.1640582549,-22223.3491667514,-13383.9919650601,-5454.6689764535,-7226.9791925928,-3601.2002225052,-24661.1228898342,3565.0378275474,6906.9565984526,10106.0266086564
560444822778,23261,-2,0,959.0821989779,4177.1581516192,8457.6565523556,-2474.3498197325,-9926.7234282735,-7543.8868563463,-10312.5489268321,-22221.3779998661,-13381.0230470353,-5456.2507770405,-7230.4348184905,-3598.8275216247,-24657.5942577555,3567.8485655135,6908.9642684283,10110.5894949650
560444822778,23261,-2,0,963.1827128073,4182.3294227689,8458.6908065855,-2469.1420454923,-9920.6639152557,-7538.1558711427,-10307.6331773157,-22215.8660332053,-13376.4114899394,-5453.0628404729,-7222.4528093746,-3596.1019575364,-24653.6397562880,3573.0441720569,6913.1499561354,10112.3173079138
560444822778,23261,-2,0,968.0984623237,4187.6223708869,8473.2068688953,-2458.6656585278,-9916.6242399104,-7514.5748746998,-10301.6223350851,-22215.6226792688,-13374.0509567558,-5445.0929990538,-7212.5726395544,-3595.7612620254,-24651.4252354663,3574.0175878028,6913.8435148543,10111.4290660457
560444855313,23262,-2,0,973.3792427449,4193.9495732348,8485.8369381975,-2452.0829345466,-9914.9450977489,-7504.5730279114,-10300.8314347917,-22215.6348469656,-13373.5764165797,-5441.5887023688,-7212.1832732561,-3597.4890749742,-24651.2913908012,3575.2708605755,6913.2107946195,10106.5619873166
560444855313,23262,-2,0,971.4445789500,4190.2505934007,8479.8504313606,-2456.0861068013,-9916.1983705216,-7515.1832595410,-10303.2406387626,-22215.0021267308,-13375.0730432889,-5445.6527131077,-7221.0291888463,-3596.6981746807,-24650.2571365713,3575.9035808103,6914.4884027860,10107.2190429450
560444855313,23262,-2,0,966.4558232526,4186.3447627205,8466.3807909776,-2462.3037998778,-9917.9383511673,-7533.7633325896,-10303.0702910071,-22213.0796306328,-13374.8175216556,-5447.7942277485,-7223.8764299029,-3593.1695426021,-24649.0160314953,3577.1933566735,6916.5569112459,10112.6945065153
560444855313,23262,-2,0,966.1272954384,4188.6444574200,8465.4925491096,-2463.2285448364,-9917.8166741991,-7534.7124129418,-10300.2230499505,-22210.2810603635,-13373.8319382129,-5447.1006690296,-7217.4032151931,-3591.7824251642,-24649.8921056666,3576.1347670499,6917.0922899061,10114.0572885595
560444855313,23262,-2,0,967.6847606318,4189.6665439531,8472.0874407876,-2457.4002180582,-9919.1916239401,-7519.0404194338,-10298.2640507620,-22211.0841283538,-13376.3871545458,-5446.1515886774,-7210.1634355834,-3594.0699521670,-24654.9416998481,3572.5331287904,6910.5460690153,10105.8319255072
560444855313,23262,-2,0,971.0552126517,4193.0004928826,8481.7364243682,-2452.3992946640,-9920.6639152557,-7509.4401066405,-10296.3050515735,-22210.1472156985,-13378.8815323945,-5444.0465771271,-7208.8493243266,-3596.2479698983,-24657.3874069095,3569.4912045846,6911.2761308247,10106.4281426515
560444855313,23262,-2,0,969.1448842505,4187.8778925202,8478.1226184118,-2457.6922427819,-9922.3065543268,-7518.1886806562,-10300.5272423711,-22213.7731893517,-13380.7431900084,-5445.9690732251,-7216.8313334424,-3596.6008331061,-24660.1373063915,3566.1329202615,6908.7330821887,10108.2898002654
560444855313,23262,-2,0,966.5775002209,4185.5416947302,8467.4758836917,-2462.9851908999,-9920.6517475588,-7534.7610837291,-10300.3325592219,-22210.8529421142,-13379.2100602087,-5450.3859471718,-7222.1729523477,-3592.5003192768,-24656.2801464986,3569.1383413768,6911.9818572404,10114.4831579483
560444886689,23263,-2,0,970.1426353900,4190.5304504276,8466.6241449141,-2460.7828377750,-9914.1907005458,-7533.9701834356,-10294.5407355342,-22205.9615279914,-13373.1748825845,-5447.4900353280,-7214.1301047477,-3587.1708680684,-24650.9020245029,3574.9545004581,6916.7272590014,10118.2916470539
560444886689,23263,-2,0,974.8880371509,4196.8333173819,8478.7918417370,-2451.5232204927,-9910.5890622863,-7514.2585145824,-10288.3473778513,-22204.1485411648,-13370.5223246771,-5441.3331807355,-7203.0453329420,-3587.6819113349,-24650.1476272999,3576.5363010451,6916.7759297887,10117.7075976064
560444886689,23263,-2,0,975.7762790190,4196.3709449026,8488.0879621098,-2448.7489856171,-9910.6133976799,-7500.7645388058,-10289.4303028686,-22206.6915898008,-13371.4592373325,-5440.5909512293,-7202.8993205802,-3589.5922397361,-24651.4739062536,3573.9445816218,6916.8002651823,10112.0252831901
560444886689,23263,-2,0,971.1403865295,4191.6012077480,8482.3204738157,-2453.2632011384,-9912.5602291716,-7506.4346855253,-10293.2266242773,-22207.3729808228,-13373.1992179782,-5442.7689689607,-7209.2751937154,-3589.3975565870,-24651.1575461362,3573.0806751474,6917.0801222092,10112.4754879725
560444886689,23263,-2,0,967.5630836635,4187.7805509456,8470.4204663228,-2459.8094220291,-9912.1100243891,-7524.7592369406,-10294.7232509865,-22204.4405658885,-13370.7778463104,-5443.8275585843,-7213.7164030557,-3585.6864090560,-24648.5414913192,3576.0495931722,6919.5866677548,10117.8901130587
560444886689,23263,-2,0,967.1615496684,4187.6102031901,8462.6088049625,-2461.1722040733,-9909.1411063643,-7527.7038195718,-10290.9999357587,-22201.8001756779,-13366.3244692732,-5443.6937139192,-7208.0584240331,-3580.1257716079,-24642.9808538712,3577.6313937592,6921.7281823956,10118.6688456554
560444886689,23263,-2,0,969.0840457664,4191.2361768433,8466.7214864887,-2456.5971500679,-9907.9365043789,-7512.3360184844,-10286.6560679929,-22200.5955736925,-13368.1252884030,-5441.5765346720,-7199.0908314746,-3580.4908025126,-24646.3634735879,3577.4367106100,6921.6673439115,10116.0406231416
560444886689,23263,-2,0,968.7190148617,4192.1000833177,8477.8305936880,-2453.0806856860,-9910.3578760466,-7499.9371354218,-10288.2743716704,-22204.6230813409,-13369.8774367455,-5439.5201939089,-7196.8398075623,-3584.9563472466,-24652.2526388502,3573.2388552061,6916.6299174268,10110.8571842951
560444916686,23264,-2,0,965.9082768956,4185.7363778793,8475.7985883186,-2457.1690318186,-9912.8035831080,-7504.7920464542,-10291.1946189079,-22204.9516091551,-13371.3253926674,-5440.5666158357,-7204.8339843750,-3586.0514399606,-24653.0192037501,3572.0342532206,6917.7980163218,10109.9324393365
560444916686,23264,-2,0,964.6428364260,4185.0306514636,8465.6142260778,-2463.5692403474,-9909.8955035674,-7519.1012579179,-10291.3041281793,-22201.3621385923,-13367.9427729506,-5440.3597649897,-7208.4112872409,-3579.6025606445,-24647.6410817543,3579.4078774953,6923.6141754032,10117.8049391810
560444916686,23264,-2,0,964.3994824896,4184.9211421922,8461.7814015786,-2463.8247619807,-9905.9531697967,-7523.6519765297,-10287.4226328928,-22197.3589663376,-13363.7449175467,-5436.9771452729,-7203.7267239641,-3575.5142145120,-24641.8005872793,3583.7639129579,6927.2644844500,10123.1343903894
560444916686,23264,-2,0,966.6383387050,4188.7174636010,8467.4880513885,-2460.1501175402,-9905.6368096793,-7511.9588198829,-10286.2910370882,-22197.8091711200,-13364.9981903195,-5435.3588415955,-7199.3098500174,-3578.1911078130,-24643.6622448932,3582.5714786693,6924.0522124888,10117.6345914254
560444916686,23264,-2,0,969.8262752726,4192.1609218019,8478.4268108323,-2453.2632011384,-9909.5548080563,-7499.5356014267,-10288.5177256068,-22202.4937343968,-13370.2059645597,-5436.3565927350,-7200.0155764331,-3585.1266950021,-24649.2593854318,3575.9522515976,6914.8534336906,10107.8882662703
560444916686,23264,-2,0,965.5797490814,4190.3235995816,8477.5507366611,-2455.6845728062,-9915.8820104042,-7507.0430703664,-10294.1026984486,-22205.6816709645,-13376.8373593282,-5441.1019944959,-7207.4500391919,-3589.9572706408,-24653.1773838088,3571.9612470397,6912.9674406831,10109.2388806176
560444916686,23264,-2,0,961.6252476139,4187.2573399822,8465.9670892856,-2461.4155580098,-9919.3741393924,-7527.0710993370,-10298.3857277302,-22207.5311608816,-13378.2366444629,-5446.9911597582,-7216.3324578727,-3587.7914206063,-24654.2116380387,3572.9224950887,6915.1819615049,10115.0793750926
560444916686,23264,-2,0,960.4814841126,4187.9995694884,8453.1058337438,-2464.7495069392,-9918.0965312260,-7538.1923742331,-10297.1081195638,-22205.1219569106,-13376.1559683061,-5449.8992392989,-7213.2905336669,-3583.8247514420,-24650.3909812363,3577.3637044291,6920.2072202927,10121.0780496263
560444971712,23265,-2,0,960.9073535014,4189.0946622025,8458.2162664094,-2462.7540046603,-9918.5345683116,-7527.9593412050,-10295.2586296467,-22206.0467018691,-13376.6913469663,-5448.0740847755,-7207.4257037983,-3586.1366138384,-24653.6762593785,3576.7918226784,6919.0512890946,10117.5129144572
560444971712,23265,-2,0,960.8465150173,4189.1189975961,8469.0941873691,-2457.6557396915,-9920.7004183461,-7512.2751800003,-10295.5506543705,-22209.0764583781,-13380.7310223116,-5447.4656999343,-7207.0363375000,-3591.8067605579,-24659.6992693059,3571.4623714699,6914.2085457590,10109.5674084318
560444971712,23265,-2,0,959.4107267922,4186.4299365982,8466.9040019410,-2461.4155580098,-9923.3529762535,-7513.2485957461,-10298.2640507620,-22212.3130657330,-13385.3547471043,-5452.3692817540,-7215.3347067332,-3595.3962311207,-24661.0742190469,3566.8021435867,6912.0791988150,10106.8661797371
560444971712,23265,-2,0,957.8410939020,4184.2154157765,8462.5236310848,-2464.3844760346,-9922.4647343855,-7528.1175212637,-10300.7827640044,-22211.0962960507,-13384.7220268695,-5454.6081379694,-7222.8665110666,-3593.3642257512,-24660.5266726898,3568.5299565356,6912.4807328102,10110.5408241777
560444971712,23265,-2,0,958.8753481319,4184.5926143780,8457.2915214509,-2467.0492016388,-9919.4106424829,-7540.4799012359,-10299.0427833587,-22208.6627566861,-13381.0473824290,-5455.7519014707,-7223.2193742745,-3589.6530782202,-24656.7425189779,3571.3406945017,6913.5514901306,10114.8481888530
560444971712,23265,-2,0,962.5134894820,4188.9973206279,8461.2825260088,-2461.7440858240,-9917.8531772896,-7532.8507553279,-10294.3582200818,-22206.8254344658,-13379.8914512308,-5453.8780761600,-7215.0548497063,-3589.6895813107,-24655.2823953591,3573.2145198124,6916.7394266982,10114.7508472784
560444971712,23265,-2,0,965.2268858735,4191.0414936941,8473.2798750762,-2455.2830388110,-9919.1307854560,-7515.4022780838,-10293.8106737248,-22210.6825943587,-13382.3371582922,-5450.7753134702,-7210.0052555248,-3592.7193378196,-24660.9282066850,3569.3695276164,6913.5636578274,10108.9468558939
560444971712,23265,-2,0,962.5743279661,4188.4011034836,8474.7765017855,-2456.6458208552,-9924.8982737500,-7514.8912348172,-10297.9598583414,-22213.6758477771,-13385.9996350359,-5452.3206109667,-7215.3712098237,-3595.4814049984,-24664.4568387636,3564.9891567601,6910.9232676168,10106.7201673753
560445002742,23266,-2,0,961.6252476139,4186.2839242364,8465.9184184984,-2461.1843717701,-9926.8086021512,-7530.0278496649,-10300.7584286107,-22213.4446615375,-13386.9852184785,-5456.8226587912,-7222.4284739810,-3592.8288470910,-24662.6438519370,3566.3884418948,6914.6222474510,10110.2001286666
560445002742,23266,-2,0,960.1042855111,4183.9598941432,8455.9044040131,-2465.6134134137,-9926.1758819164,-7544.4222350065,-10300.4299007965,-22211.7046808918,-13383.4809217935,-5457.9664222925,-7223.6817467537,-3588.9716871981,-24659.8817847582,3569.7710616115,6916.9584452410,10114.9820335180
560445002742,23266,-2,0,960.1529562984,4185.4686885492,8456.7318073970,-2464.0316128267,-9926.0542049482,-7539.7741748201,-10299.3834788697,-22210.8529421142,-13383.8216173046,-5456.8226587912,-7218.5713140881,-3591.6729158928,-24659.9061201519,3568.9193228339,6914.6830859351,10111.7697615568
560445002742,23266,-2,0,961.1993782251,4188.5106127550,8465.8454123174,-2458.7995031928,-9927.2223038432,-7522.7028961775,-10299.9431929236,-22215.1238036991,-13386.8270384199,-5457.1511866054,-7215.5050544887,-3597.4160687933,-24662.8993735703,3566.2789326234,6909.6456594504,10102.8386720887
560445002742,23266,-2,0,960.1042855111,4186.7462967156,8467.9017530805,-2459.2010371880,-9928.4390735255,-7519.4176180353,-10304.5425823227,-22219.5285099490,-13390.0514780779,-5456.9200003657,-7221.3942197510,-3603.3174017524,-24667.7664522995,3561.8133878893,6905.3869655624,10098.0324318437
560445002742,23266,-2,0,958.4738141368,4186.2595888427,8465.5655552905,-2462.4984830270,-9927.6116701416,-7530.9160915330,-10307.8278604648,-22218.7254419587,-13387.6909448943,-5457.6013913878,-7228.3906454242,-3599.4724095563,-24663.1670629004,3561.6795432243,6906.0561888877,10101.6949085874
560445002742,23266,-2,0,960.9560242887,4187.2086691949,8457.5592107810,-2463.8369296775,-9920.8951014953,-7541.5019877690,-10302.9364463420,-22212.4225750044,-13379.9644574117,-5454.6081379694,-7226.3343046611,-3590.3101338487,-24656.1463018336,3570.5497942082,6916.2405511285,10114.1302947404
560445002742,23266,-2,0,964.7645133942,4190.0437425547,8460.1874332948,-2460.6976638972,-9916.2957120962,-7534.2135373720,-10297.2541319257,-22207.1417945832,-13374.7323477778,-5449.7288915434,-7216.3567932663,-3587.0248557065,-24653.1895515056,3573.8107369568,6919.3798169088,10118.2308085698
560445014193,23267,-2,0,965.9447799861,4194.9351566775,8470.5908140784,-2454.8328340285,-9916.9406000278,-7517.0570848517,-10296.5119024195,-22209.6605078256,-13376.5575023013,-5447.0641659392,-7209.5915538328,-3592.1109529785,-24656.4383265573,3570.9026574161,6914.6465828447,10111.6967553758
560445014193,23267,-2,0,965.6770906560,4194.3389395332,8474.8495079664,-2453.2510334416,-9919.6296610257,-7511.9466521861,-10297.9598583414,-22213.4324938407,-13381.4367487273,-5448.0862524723,-7214.0692662636,-3597.0632055854,-24659.9061201519,3567.3496899438,6911.6046586389,10104.9193482455
560445014193,23267,-2,0,966.8695249446,4192.7936420366,8472.2091177558,-2455.4655542633,-9919.3133009083,-7520.6343877176,-10301.0747887281,-22214.0530463786,-13381.4245810305,-5450.6658041987,-7222.2702939223,-3596.2358022014,-24659.4194122789,3568.7611427752,6912.1643726928,10106.3308010769
560445014193,23267,-2,0,967.8794437809,4190.8224751513,8464.7259842097,-2459.8215897260,-9915.8211719201,-7536.2455427415,-10301.8048505375,-22211.8628609505,-13377.0807132647,-5451.4323690986,-7223.5965728760,-3591.7580897706,-24654.5766689434,3572.1315947952,6914.5127381796,10112.3294756106
560445014193,23267,-2,0,970.0209584218,4193.3411883937,8463.6795622829,-2458.9941863420,-9912.0735212987,-7533.5199786531,-10297.4974858622,-22210.1837187890,-13373.2722241591,-5450.3251086877,-7217.1355258630,-3589.3610534965,-24652.1918003661,3574.3704510106,6913.8070117639,10108.2411294781
560445014193,23267,-2,0,970.6536786566,4193.9860763253,8471.9170930321,-2454.4313000334,-9912.5480614748,-7517.2882710913,-10295.8548467911,-22211.4248238649,-13375.4867449809,-5448.4756187706,-7209.5915538328,-3593.2060456925,-24654.2238057355,3569.6250492497,6913.7218378861,10105.5642361771
560445014193,23267,-2,0,967.6239221476,4193.0613313668,8479.6922513019,-2453.9932629478,-9915.9428488884,-7508.0043184154,-10299.1157895396,-22215.0873006086,-13377.9081166486,-5447.3926937534,-7210.6866465468,-3596.3818145633,-24660.5023372962,3567.1793421883,6909.2806285457,10101.2690391986
560445014193,23267,-2,0,968.0254561428,4193.2925176064,8476.7720040644,-2455.7089081998,-9916.3200474899,-7517.0084140644,-10300.7584286107,-22215.9633747798,-13378.7233523358,-5449.4368668196,-7218.4861402103,-3594.4958215558,-24659.7844431836,3568.6394658070,6910.6312428931,10102.3641319126
560445052885,23268,-2,0,967.4657420889,4193.1586729413,8466.0279277698,-2459.3957203372,-9914.4827252696,-7532.7047429660,-10299.6511681998,-22210.4757435127,-13374.8540247461,-5450.3251086877,-7221.0656919368,-3590.1762891836,-24654.9051967576,3573.1780167220,6915.6078308937,10109.0928682557
560445052885,23268,-2,0,970.6293432629,4195.2150137044,8466.8674988505,-2456.8405040043,-9909.6764850245,-7532.5587306041,-10293.6889967566,-22205.9980310819,-13370.9238586723,-5445.7378869855,-7211.9155839260,-3586.1366138384,-24651.2792231044,3577.1081827958,6919.1729660628,10111.9766124028
560445052885,23268,-2,0,974.4986708526,4200.0455893431,8477.2222088469,-2449.1505196122,-9908.4597153422,-7513.5649558635,-10290.2455385557,-22203.9173549251,-13369.9869460169,-5441.2845099483,-7204.6149658322,-3586.7936694668,-24652.9583652660,3576.1469347468,6918.9904506104,10109.7377561874
560445052885,23268,-2,0,974.8150309700,4198.6341365117,8483.7197589503,-2446.9481664873,-9908.9220878215,-7502.1516562436,-10290.6592402477,-22207.2026330673,-13372.4204853815,-5439.9703986914,-7204.4081149862,-3589.6652459171,-24655.0512091195,3574.9545004581,6917.2139668743,10105.5520684803
560445052885,23268,-2,0,971.1403865295,4194.8743181934,8480.7508409255,-2451.8760837006,-9912.6088999589,-7510.1580007531,-10295.6358282483,-22206.6915898008,-13373.6250873670,-5441.1871683737,-7210.9056650896,-3589.8964321567,-24655.7569355352,3573.8837431377,6917.8345194123,10108.1559556004
560445052885,23268,-2,0,967.4292389985,4192.2095925891,8468.0112623519,-2459.7729189387,-9911.9883474209,-7528.9935954350,-10297.7165044050,-22205.2679692725,-13370.8265170977,-5444.3264341540,-7216.4176317504,-3584.3236270118,-24649.4419008841,3574.1149293773,6921.8133562734,10113.4245683247
560445052885,23268,-2,0,970.6658463534,4194.2050948681,8462.4262895102,-2460.0649436624,-9911.2704533083,-7533.1549477484,-10294.7475863802,-22203.6496655950,-13368.5268223981,-5444.9713220856,-7211.4775468403,-3582.3524601265,-24649.7582610015,3578.6169772018,6922.4825795986,10116.5516664082
560445052885,23268,-2,0,969.6802629107,4197.0888390151,8469.9459261467,-2455.3682126888,-9911.7328257876,-7520.1476798447,-10294.1392015390,-22205.9250249009,-13369.8409336550,-5442.3430995719,-7205.3571953384,-3586.0514399606,-24650.9263598965,3576.6944811038,6919.0391213977,10113.5219098993
560445077761,23269,-2,0,968.2688100793,4194.3754426236,8475.6282405631,-2454.0662691287,-9915.8820104042,-7508.6005355597,-10298.3005538525,-22210.3175634540,-13375.8882789760,-5442.8054720511,-7206.9876667127,-3591.9771083134,-24655.5135815988,3572.0829240079,6914.3180550304,10107.0486951895
560445077761,23269,-2,0,965.1417119958,4192.5867911907,8472.3794655113,-2457.0108517599,-9919.1551208496,-7516.1931783773,-10304.6885946845,-22213.8096924422,-13379.7576065657,-5449.1205067022,-7217.4275505867,-3595.7855974190,-24658.1783072030,3568.7976458657,6912.5172359006,10105.0410252137
560445077761,23269,-2,0,959.2890498239,4184.9333098890,8460.9661658914,-2467.4872387244,-9921.2723000968,-7536.5497351620,-10309.1663071154,-22215.9998778703,-13381.8017796320,-5453.4643744680,-7225.4217273994,-3596.2358022014,-24658.6650150759,3568.7246396848,6913.7096701893,10108.6061603828
560445077761,23269,-2,0,958.3764725622,4181.4776839913,8453.9210694309,-2471.4174047982,-9921.6008279110,-7544.8846074858,-10308.9837916630,-22214.3937418897,-13380.2929852259,-5455.9465846199,-7223.3775543332,-3594.1916291352,-24656.9006990366,3569.9535770639,6916.5690789427,10112.1712955519
560445077761,23269,-2,0,963.3043897755,4186.0527379967,8460.3577810503,-2465.7837611692,-9919.3863070892,-7530.9282592298,-10304.7372654718,-22213.5176677184,-13380.7553577052,-5455.3260320819,-7215.0305143126,-3593.5102381131,-24657.2657299413,3570.8661543256,6916.2162157348,10109.9567747302
560445077761,23269,-2,0,963.9492777071,4186.8071351998,8470.6151494720,-2462.7418369635,-9921.1141200381,-7516.6920539470,-10305.4308241907,-22215.6591823593,-13382.8482015587,-5452.3814494508,-7212.3536210116,-3597.9757828471,-24658.9813751933,3568.6881365943,6912.3833912356,10104.5664850376
560445077761,23269,-2,0,963.0367004454,4186.4299365982,8473.0608565334,-2462.9365201126,-9922.6959206251,-7519.1864317957,-10306.7327677508,-22218.2995725699,-13384.5273437203,-5453.8172376759,-7219.0945250515,-3598.2678075709,-24660.5145049930,3569.9049062766,6912.5415712943,10103.1550322061
560445077761,23269,-2,0,963.8397684357,4184.6169497716,8462.1586001801,-2467.6089156926,-9920.6760829525,-7534.6029036704,-10307.4019910760,-22213.3838230534,-13380.4268298910,-5454.8514919058,-7225.3608889153,-3592.8775178783,-24654.6010043371,3574.2974448297,6916.7637620918,10107.9004339671
560445103074,23270,-2,0,963.9979484944,4185.7120424857,8456.1842610400,-2469.4097348224,-9916.9284323310,-7542.3780619402,-10304.8954455305,-22211.2909791998,-13375.8517758856,-5452.5761325999,-7220.5059778829,-3588.2902961761,-24650.2206334808,3578.2276109035,6919.9516986595,10113.3758975374
560445103074,23270,-2,0,965.0322027244,4186.6489551411,8460.7593150454,-2466.3921460103,-9915.6386564678,-7529.7601603348,-10302.1698814422,-22211.6316747109,-13374.1482983303,-5449.3273575482,-7212.8159934908,-3591.2227111104,-24652.2891419407,3576.4511271673,6918.0292025614,10107.9369370576
560445103074,23270,-2,0,964.0466192817,4187.2451722854,8468.2302808947,-2463.3137187141,-9918.7170837640,-7515.6456320202,-10303.2649741562,-22216.4865857432,-13379.1735571182,-5450.9578289225,-7212.8159934908,-3596.1019575364,-24656.0976310463,3572.9589981792,6914.0138626099,10101.4515546509
560445103074,23270,-2,0,960.8100119268,4182.9256399132,8469.1550258533,-2467.4385679371,-9921.5643248206,-7519.8069843337,-10309.8720335311,-22221.7186953771,-13382.6048476223,-5452.5883002968,-7221.3577166606,-3601.3340671703,-24658.0079594475,3569.6250492497,6910.4852305312,10097.8134133009
560445103074,23270,-2,0,956.4904795546,4177.4866794334,8459.0315020966,-2475.4692478403,-9922.5985790505,-7538.2045419300,-10313.5588456685,-22220.3315779393,-13381.0838855194,-5455.2165228105,-7229.9116075271,-3599.3507325881,-24656.2071403177,3570.1847633035,6911.5924909421,10102.8751751792
560445103074,23270,-2,0,957.9992739607,4180.0297280694,8450.9764867998,-2477.6716009652,-9917.4881463849,-7546.7097620092,-10309.4583318391,-22216.8516166479,-13376.0829621252,-5455.1070135391,-7226.6628324754,-3593.2668841766,-24648.8821868303,3575.2343574850,6916.8611036664,10108.6913342606
560445103074,23270,-2,0,964.1804639467,4186.4299365982,8460.3821164439,-2468.6431699226,-9913.6674895825,-7533.4226370785,-10301.9143598089,-22213.8948663199,-13371.6660881785,-5448.8163142817,-7214.8236634666,-3590.9671894771,-24647.8601002971,3577.4853813973,6919.7813509039,10110.1757932730
560445103074,23270,-2,0,969.9722876345,4192.8179774303,8475.6647436535,-2459.5904034863,-9912.6575707462,-7512.5793724208,-10297.2297965321,-22212.8362766964,-13371.6904235721,-5442.3309318750,-7205.9047416954,-3591.8797667388,-24650.1841303903,3576.7674872847,6918.5402458280,10107.3163845196
560445158044,23271,-2,0,973.4400812290,4196.6873050200,8482.2352999379,-2454.2366168842,-9912.7427446239,-7508.8073864057,-10297.5218212558,-22212.8971151805,-13374.3794845700,-5442.6229565988,-7210.2486094612,-3591.4173942596,-24651.5712478281,3575.3316990596,6919.2703076374,10105.2600437565
560445158044,23271,-2,0,969.8384429694,4192.6597973716,8473.8517568269,-2461.9022658827,-9915.5048118027,-7525.3797894786,-10302.1577137454,-22213.8705309263,-13376.1194652157,-5447.4900353280,-7218.4009663326,-3590.3831400296,-24654.0534579800,3574.0540908932,6919.6231708452,10107.0973659768
560445158044,23271,-2,0,967.0520403970,4190.0194071610,8462.7791527180,-2466.7815123087,-9915.6021533773,-7540.4312304486,-10303.8125205133,-22211.2666438062,-13374.7201800810,-5449.4125314260,-7220.5303132766,-3587.9374329682,-24653.7249301658,3574.9666681549,6919.9638663563,10111.4412337426
560445158044,23271,-2,0,967.0763757906,4193.0004928826,8461.3555321898,-2463.6300788315,-9915.2736255631,-7534.0796927070,-10300.2838884346,-22211.2909791998,-13375.1825525603,-5449.3516929419,-7214.3491232905,-3588.6309916871,-24654.2724765228,3575.0640097295,6920.4262388356,10107.8395954830
560445158044,23271,-2,0,965.7257614433,4194.8013120124,8470.3352924451,-2458.4588076818,-9918.3642205561,-7518.3955315022,-10300.5637454615,-22213.9435371072,-13379.1248863309,-5449.1691774895,-7210.4311249136,-3593.3885611449,-24659.2368968266,3571.0365020811,6914.8777690843,10102.0599394921
560445158044,23271,-2,0,967.1980527588,4194.1807594745,8476.4313085534,-2456.5971500679,-9921.1871262190,-7514.6113777903,-10301.4519873296,-22215.1603067895,-13382.2519844144,-5447.8550662326,-7212.9011673686,-3596.5278269252,-24660.6483496581,3565.6462123886,6912.5294035975,10099.4925554624
560445158044,23271,-2,0,965.4945752036,4191.9784063495,8469.6904045135,-2460.1744529338,-9919.8851826590,-7525.6109757182,-10303.1798002785,-22215.1116360022,-13382.0329658716,-5452.2476047857,-7221.9174307144,-3593.0843687243,-24659.3829091885,3568.5299565356,6914.0138626099,10103.6660754727
560445158044,23271,-2,0,966.5044940399,4191.9662386527,8460.0900917202,-2463.8369296775,-9917.2569601452,-7540.4677335390,-10302.6200862246,-22211.3274822903,-13379.1127186341,-5453.1723497443,-7223.1220326999,-3588.9960225918,-24655.4649108115,3571.2555206239,6917.5546623853,10107.8152600893
560445179307,23272,-2,0,968.8285241331,4193.3655237873,8462.4627926006,-2462.8635139317,-9916.6242399104,-7537.7908402380,-10300.5637454615,-22211.8750286473,-13376.8373593282,-5451.7608969128,-7217.8290845819,-3590.8941832962,-24654.3576504006,3571.8152346778,6915.0724522335,10105.2113729692
560445179307,23272,-2,0,969.9114491504,4196.6508019295,8472.1239438781,-2457.0230194567,-9917.2934632357,-7520.7195615954,-10301.2451364836,-22214.4910834643,-13379.0518801500,-5451.1768474653,-7212.5726395544,-3596.1749637173,-24656.1463018336,3570.2577694845,6911.8723479690,10099.2005307387
560445179307,23272,-2,0,970.6415109597,4195.7625600614,8476.8693456390,-2455.0640202682,-9919.1429531528,-7514.8790671204,-10303.0824587039,-22218.2995725699,-13382.1424751430,-5451.2863567367,-7216.0769362394,-3599.8374404610,-24657.7037670269,3567.8607332103,6909.2197900616,10094.7593213983
560445179307,23272,-2,0,967.7090960254,4191.1631706624,8472.5133101764,-2461.1965394669,-9921.0167784635,-7527.9836765987,-10307.5601711347,-22218.5429265063,-13381.7166057542,-5452.6734741745,-7225.1297026757,-3598.3529814486,-24657.3509038190,3570.1360925162,6910.7285844677,10098.3852950515
560445179307,23272,-2,0,968.0011207492,4192.4651142224,8462.3776187229,-2465.7715934724,-9919.6783318130,-7543.9111917399,-10308.4605806996,-22215.6105115720,-13379.6115942038,-5457.3458697545,-7227.6849190085,-3594.2889707098,-24652.0944587915,3575.3195313628,6916.8367682728,10106.1117825341
560445179307,23272,-2,0,970.7388525343,4196.9914974406,8460.7106442581,-2462.1456198191,-9916.8919292405,-7542.6335835735,-10305.8445258827,-22214.9656236404,-13378.7963585167,-5457.6135590846,-7222.7935048857,-3592.9505240593,-24650.1597949967,3576.7309841943,6917.2748053584,10106.8296766467
560445179307,23272,-2,0,972.6735163292,4200.7513157589,8471.6859067924,-2458.0086028993,-9919.5444871479,-7527.4726333321,-10306.5745876921,-22219.6136838267,-13382.3493259890,-5456.0317584977,-7217.2937059217,-3599.4845772532,-24655.7326001416,3570.9148251129,6911.4099754898,10098.9571768022
560445179307,23272,-2,0,972.0286283975,4201.1406820572,8478.7675063434,-2453.9324244637,-9922.3187220236,-7518.4563699863,-10308.4605806996,-22222.0472231913,-13386.9730507817,-5455.4355413533,-7221.3942197510,-3603.2930663588,-24660.3563249343,3567.6660500612,6908.5749021300,10092.8368253003
560445214237,23273,-2,0,970.0331261186,4196.5047895676,8473.1216950175,-2458.1059444739,-9925.2146338674,-7528.3852105939,-10311.1253063039,-22222.8624588785,-13388.7495345179,-5458.7451548892,-7228.9868625685,-3602.9645385445,-24662.6195165434,3564.9283182760,6908.9155976411,10093.5912225033
560445214237,23273,-2,0,967.2710589398,4192.4407788288,8462.7426496276,-2465.2605502058,-9924.3628950898,-7544.8967751826,-10311.6606849641,-22219.9300439441,-13386.8392061167,-5458.9763411288,-7231.9679482902,-3599.5454157373,-24660.5145049930,3568.4569503547,6911.0084414946,10099.6264001275
560445214237,23273,-2,0,967.2223881525,4195.1785106139,8459.1166759743,-2464.0802836140,-9921.5156540333,-7546.1135448649,-10306.8057739317,-22216.1945610195,-13383.6634372459,-5457.0781804244,-7225.5677397613,-3595.7247589349,-24656.2679788018,3571.0243343843,6914.2815519400,10102.1694487635
560445214237,23273,-2,0,968.6460086808,4198.2326025165,8466.6363126109,-2457.1933672122,-9921.5764925174,-7528.3730428970,-10304.3357314767,-22216.8881197384,-13384.9167100186,-5455.6302245025,-7219.8367545577,-3598.4989938105,-24658.0809656284,3572.0707563111,6911.7871740913,10097.7525748168
560445214237,23273,-2,0,968.8406918299,4198.6584719053,8475.3848866266,-2454.5651446984,-9923.5354917059,-7517.7263081770,-10305.6741781272,-22221.2563228978,-13388.1898204640,-5453.5373806490,-7219.0336865674,-3602.5021660653,-24662.0598024895,3568.3839441737,6909.6213240568,10095.0756815157
560445214237,23273,-2,0,963.6450852865,4194.1442563840,8470.9315095894,-2460.8071731686,-9927.0276206941,-7526.4627144958,-10311.9040389005,-22222.4000863992,-13390.6598629191,-5455.8614107421,-7226.5898262944,-3603.8162773221,-24663.5564291987,3566.3884418948,6908.6844114014,10097.0833514915
560445214237,23273,-2,0,963.9006069198,4191.4551953861,8459.4330360917,-2465.9906120152,-9925.0442861119,-7543.7165085908,-10313.3276594288,-22221.1103105360,-13387.9951373149,-5459.9010860874,-7232.3694822853,-3599.4359064659,-24662.0719701863,3569.2600183450,6913.7705086734,10103.3253799617
560445214237,23273,-2,0,966.6626740986,4195.4218645504,8458.6786388887,-2465.3092209931,-9921.4791509428,-7544.2153841605,-10308.5700899710,-22217.9832124525,-13383.3105740380,-5454.9731688741,-7224.9836903138,-3595.7004235412,-24655.7934386257,3572.5574641840,6917.0071160283,10105.8319255072
560445240332,23274,-2,0,969.4734120647,4198.6341365117,8468.6439825867,-2459.4565588213,-9919.7635056908,-7527.6794841781,-10304.6277562004,-22216.7177719829,-13384.0041327569,-5451.2011828590,-7217.5978983423,-3596.6616715902,-24659.0787167679,3572.5939672745,6917.4086500235,10103.6052369886
560445240332,23274,-2,0,969.3030643092,4199.1208443846,8474.2897939125,-2455.2830388110,-9924.1195411534,-7517.7141404801,-10307.5358357411,-22221.4996768343,-13389.5404348114,-5452.9898342919,-7219.3743820784,-3602.1249674637,-24665.0043851207,3567.8242301199,6912.3103850547,10095.1730230903
560445240332,23274,-2,0,962.9150234772,4190.7129658799,8469.6904045135,-2461.9022658827,-9929.9478679316,-7527.3387886671,-10313.4371687002,-22226.6344448936,-13393.0690668900,-5457.7839068402,-7230.3983154000,-3607.0042138897,-24669.5551037325,3564.2955980412,6908.5749021300,10092.6664775448
560445240332,23274,-2,0,958.1574540194,4185.2496700064,8458.6664711919,-2471.2227216491,-9930.7631036187,-7546.0040355935,-10317.5741856200,-22228.2162454806,-13392.0591480537,-5461.8600852759,-7238.0761320953,-3605.8117796011,-24666.2211548030,3566.3884418948,6909.0981130934,10095.4407124204
560445240332,23274,-2,0,961.1385397410,4186.7949675029,8451.7065486092,-2471.7094295220,-9925.4944908944,-7549.6300092467,-10312.7071068908,-22221.6213538025,-13385.7927841899,-5459.5847259700,-7232.1991345298,-3599.8861112483,-24658.8475305283,3572.4966256999,6914.3788935146,10100.5511450860
560445240332,23274,-2,0,968.8528595268,4194.7283058315,8466.9526727283,-2461.8170920049,-9919.0091084877,-7530.3563774792,-10303.8611913006,-22217.8128646969,-13379.2100602087,-5450.4954564432,-7216.9651781075,-3595.9437774777,-24654.3819857942,3576.2199409277,6917.7128424440,10102.3276288222
560445240332,23274,-2,0,974.6081801240,4200.4227879446,8481.5295735222,-2451.5840589768,-9914.9207623552,-7511.3504350417,-10299.9188575299,-22216.9611259193,-13376.3628191521,-5443.8883970684,-7211.1976898134,-3596.0776221427,-24654.0047871927,3575.8305746294,6917.9440286837,10099.1275245577
560445240332,23274,-2,0,972.3936593022,4198.7071426926,8481.1767103143,-2455.0883556618,-9915.9793519788,-7513.6014589540,-10302.6079185278,-22217.9102062715,-13378.6990169421,-5447.6482153867,-7218.9971834769,-3598.2069690868,-24655.9029478971,3574.4312894947,6917.7615132313,10096.3776250758
560445269030,23275,-2,0,970.7631879280,4193.6088777238,8471.6007329147,-2461.4155580098,-9917.0866123897,-7533.0576061739,-10306.0757121223,-22217.1314736748,-13377.9932905264,-5451.4445367954,-7227.5024035561,-3595.7855974190,-24655.0025383322,3575.1005128200,6919.1486306691,10101.3298776827
560445269030,23275,-2,0,970.3494862360,4192.0635802273,8463.6795622829,-2467.0613693356,-9917.3543017198,-7544.8967751826,-10306.2703952715,-22217.6425169414,-13376.4844961203,-5453.2575236220,-7225.9206029692,-3593.6684181718,-24653.7370978626,3577.2541951577,6920.7425989530,10104.3596341916
560445269030,23275,-2,0,973.6347643782,4195.6530507900,8468.1937778042,-2461.3547195256,-9916.9527677247,-7533.6173202277,-10303.6908435450,-22218.8349512301,-13376.9225332060,-5452.9776665951,-7219.1188604451,-3595.3840634238,-24653.8709425277,3576.6823134070,6920.7304312561,10100.9405113844
560445269030,23275,-2,0,974.1579753416,4197.0645036215,8477.6237428420,-2455.8914236521,-9919.0821146687,-7517.8236497515,-10304.0315390561,-22219.8205346727,-13378.8571970008,-5451.7243938223,-7216.0282654521,-3597.8541058789,-24657.1075498826,3573.8837431377,6917.8345194123,10097.2536992470
560445269030,23275,-2,0,970.9092002898,4195.1541752203,8478.3416369546,-2457.9964352025,-9922.4769020823,-7520.6343877176,-10307.9373697363,-22222.5339310642,-13382.3614936858,-5453.3548651966,-7222.1121138636,-3601.6504272877,-24659.5045861567,3570.8174835383,6915.0602845366,10092.0945957941
560445269030,23275,-2,0,970.0817969059,4193.7305546920,8469.9094230563,-2460.8315085623,-9921.3696416714,-7537.3771385460,-10310.8697846706,-22221.7551984676,-13381.4854195146,-5457.7839068402,-7231.4204019331,-3600.4944960895,-24657.8741147824,3572.2897748539,6917.7493455345,10096.9981776137
560445269030,23275,-2,0,972.6491809355,4194.0590825062,8464.5191333637,-2461.7075827335,-9918.1086989228,-7546.5637496473,-10309.4461641423,-22217.9832124525,-13377.1780548393,-5457.7839068402,-7229.5465766224,-3595.7369266317,-24654.8443582735,3575.8549100230,6919.1242952755,10101.2690391986
560445269030,23275,-2,0,979.4752588532,4202.2357747712,8474.8373402696,-2454.7476601508,-9914.1055266681,-7534.5420651863,-10305.4308241907,-22217.3504922177,-13374.0144536653,-5452.5274618127,-7221.8322568367,-3596.1384606269,-24654.9782029386,3576.4876302578,6918.6254197058,10101.1595299272
560445313087,23276,-2,0,983.0160586287,4205.9834253927,8486.8225216402,-2446.6683094604,-9913.0469370445,-7518.1521775658,-10303.3988188213,-22217.7520262128,-13374.5620000223,-5451.2620213431,-7219.8002514672,-3599.5210803436,-24653.8222717404,3576.6093072260,6916.7394266982,10096.6088113154
560445313087,23276,-2,0,987.2139140326,4210.3516285522,8494.1718105212,-2443.2126835626,-9911.0514347655,-7513.2364280493,-10303.0824587039,-22218.1170571175,-13373.8927766971,-5448.5364572547,-7220.1044438878,-3598.1826336931,-24651.9849495201,3580.6489825713,6918.8809413390,10096.3654573789
560445313087,23276,-2,0,988.1873297784,4210.0717715252,8490.6066753521,-2445.0865088734,-9908.4962184327,-7524.1386844026,-10304.0193713593,-22215.5131699974,-13369.9991137137,-5445.5797069268,-7224.9593549201,-3594.5931631303,-24646.3026351038,3585.5525643909,6924.7457712077,10101.6584054969
560445313087,23276,-2,0,987.0070631866,4208.5386417255,8479.9234375416,-2449.0166749472,-9908.1920260121,-7535.1261146338,-10301.6101673883,-22212.8849474836,-13367.4195619873,-5447.6968861739,-7225.4338950962,-3589.7260844012,-24641.8127549761,3587.4993958826,6928.4812541323,10105.9657701722
560445313087,23276,-2,0,985.3035856314,4209.5972313491,8477.1735380596,-2449.4912151233,-9910.0658513229,-7530.1008558459,-10299.5538266252,-22213.9678725009,-13369.4759027503,-5448.3904448929,-7220.6884933353,-3593.4980704163,-24645.0615300279,3584.2262854372,6925.1594728997,10098.4339658388
560445313087,23276,-2,0,982.5901892399,4210.3759639458,8485.4232365055,-2447.4835451475,-9911.6111488194,-7515.6821351107,-10300.4299007965,-22217.8006970001,-13373.8684413034,-5445.7257192886,-7217.5978983423,-3598.0609567249,-24650.6099997791,3580.1501070015,6920.1098787182,10090.8778261118
560445313087,23276,-2,0,980.0958113912,4206.2024439355,8486.8225216402,-2447.2888619983,-9913.2416201937,-7511.0949134085,-10302.1577137454,-22217.7641939096,-13374.2821429954,-5445.9569055283,-7220.5303132766,-3598.9248631993,-24652.1431295788,3578.8359957446,6919.5745000579,10089.0161684979
560445313087,23276,-2,0,976.9930487013,4198.4637887561,8479.4245619718,-2453.3727104098,-9908.2041937090,-7520.8047354732,-10299.8580190458,-22212.6050904567,-13369.9261075328,-5446.1515886774,-7225.4947335804,-3593.0235302402,-24646.5094859498,3581.2208643219,6923.9913740047,10094.2726135254
560445341572,23277,-2,0,964.8861903625,4189.8247240118,8463.8864131289,-2462.4133091492,-9907.3889580218,-7535.6371579003,-10298.8237648159,-22211.4856623490,-13368.1861268871,-5448.1227555627,-7225.8840998787,-3590.0789476090,-24646.4121443752,3582.1212738868,6925.6340130758,10099.9792633354
560445341572,23277,-2,0,959.7757576968,4190.6277920022,8458.9341605220,-2462.5471538143,-9914.4097190887,-7538.9711068298,-10304.2262222053,-22217.3991630050,-13375.1338817730,-5456.4576278865,-7228.8773532971,-3597.4282364901,-24652.7271790263,3573.2996936902,6917.7371778377,10092.1676019750
560445341572,23277,-2,0,961.7104214917,4197.0280005310,8465.1883566890,-2457.4610565423,-9924.3142243025,-7532.1693643058,-10311.6363495704,-22228.2649162678,-13386.5350136961,-5465.8875929242,-7232.9413640360,-3609.1213931369,-24663.6781061670,3563.3100145986,6906.7740830002,10078.6127877143
560445341572,23277,-2,0,967.1737173652,4203.4647121504,8471.7102421861,-2454.2852876715,-9932.0407117851,-7533.3983016849,-10319.8373772291,-22236.2712607773,-13396.2326680640,-5470.7911747439,-7240.6921869122,-3617.4684331575,-24672.9498911461,3556.0215642016,6900.3252036841,10071.9692252489
560445341572,23277,-2,0,970.9700387739,4207.6382321606,8471.2600374036,-2456.0009329236,-9935.7275239225,-7548.0847117502,-10324.0108972394,-22235.9792360536,-13398.5566981572,-5475.9137751063,-7249.3799224438,-3617.4440977638,-24673.9719776792,3555.4375147541,6900.3373713809,10073.3441749899
560445341572,23277,-2,0,971.3959081628,4206.9933442290,8459.9440793583,-2460.4178068703,-9935.7518593161,-7562.4790970917,-10323.5606924569,-22235.0423233982,-13396.3665127290,-5479.4545748818,-7251.6674494465,-3613.8302918074,-24670.0053085149,3557.8953895124,6902.9899292883,10077.0553225209
560445341572,23277,-2,0,975.1557264810,4213.7342482689,8461.1243459501,-2457.2420379995,-9934.4134126656,-7561.2501597126,-10323.0496491903,-22235.5046958775,-13397.0600714479,-5478.6758422852,-7245.7052780033,-3615.5702724531,-24671.4167613464,3557.8710541187,6901.5176379727,10077.5907011811
560445341572,23277,-2,0,977.9542967503,4219.3435565043,8471.0531865576,-2450.6958171087,-9937.0172997857,-7545.9675325030,-10323.4755185791,-22238.9116509879,-13399.0312383333,-5477.5807495711,-7241.3370748438,-3620.3521773045,-24673.9719776792,3556.1554088667,6898.4027075860,10071.3243373173
560445376352,23278,-2,0,975.7884467158,4217.4697311936,8473.4137197413,-2450.6714817151,-9940.2539071406,-7540.6989197787,-10326.7242936309,-22243.0973386950,-13404.7257204464,-5480.0507920261,-7247.1897370157,-3626.0709948113,-24678.3766839291,3552.4077582452,6895.7866527691,10066.6519417373
560445376352,23278,-2,0,969.8384429694,4210.4124670363,8464.6043072415,-2458.6534908310,-9946.4350971266,-7554.7647773060,-10333.6477131231,-22246.4677907150,-13408.9235758503,-5484.3094859142,-7256.7048759312,-3626.3265164446,-24681.6497943745,3548.7452815015,6894.1075106075,10068.9638041337
560445376352,23278,-2,0,962.6229987534,4204.5598048644,8448.9931522176,-2467.8157665386,-9949.9515615085,-7573.1866702959,-10335.2051783165,-22244.3871145582,-13408.5828803393,-5486.6943544915,-7259.8076386211,-3622.7005427913,-24680.0314906970,3552.2252427929,6897.2224409942,10075.8142174450
560445376352,23278,-2,0,961.6130799171,4206.3119532069,8444.4789366963,-2467.2925555752,-9948.0534008041,-7570.6801247504,-10328.8293051812,-22239.3983588608,-13406.1980117620,-5484.4798336697,-7252.2758342877,-3617.9794764240,-24677.5006097578,3557.6033647886,6901.0309300998,10079.0873278904
560445376352,23278,-2,0,958.7415034669,4205.2655312802,8450.8426421347,-2463.8247619807,-9949.7447106625,-7554.8256157901,-10326.6877905404,-22239.9459052179,-13408.7897311853,-5479.8439411802,-7244.1599805067,-3620.8632205711,-24680.0801614843,3554.7682914289,6897.7821550481,10074.1837460707
560445376352,23278,-2,0,957.3908891195,4202.8076565219,8457.1576767858,-2463.0825324745,-9952.1904177239,-7547.2816437599,-10329.2430068732,-22244.4236176487,-13413.0119219828,-5479.6979288183,-7246.1554827857,-3626.4116903223,-24681.9418190982,3551.6898641327,6895.7136465882,10069.0976487987
560445376352,23278,-2,0,956.7703365816,4201.9194146539,8453.5682062231,-2465.3700594772,-9952.4216039635,-7555.2514851789,-10332.7108004678,-22244.3627791646,-13412.8294065305,-5482.0706296988,-7253.8941379651,-3623.5887846594,-24680.7007140223,3554.0382296195,6898.2323598305,10071.7988774934
560445376352,23278,-2,0,956.1011132563,4200.8364896366,8444.8561352978,-2470.4318213556,-9949.0633196404,-7568.4534362318,-10330.7883043697,-22240.3961100003,-13406.0276640065,-5481.5595864322,-7253.9306410556,-3617.3102530988,-24675.8579706867,3558.3820973853,6905.0706054450,10081.4356933772
560445391359,23279,-2,0,959.5202360636,4204.9613388596,8445.1481600216,-2465.9784443184,-9942.0425585736,-7567.2853373368,-10325.6292009168,-22234.2149200143,-13400.0289894727,-5478.5663330138,-7244.8048684384,-3612.2119881300,-24671.7452891606,3561.5335308624,6909.2197900616,10085.9864119890
560445391359,23279,-2,0,960.1286209047,4208.5751448160,8450.3802696555,-2460.2717945084,-9942.1277324513,-7554.1077216776,-10321.9180533858,-22234.4461062539,-13403.3872737959,-5479.1017116740,-7238.9400385697,-3614.5116828295,-24674.2761700998,3558.3820973853,6904.8759222958,10077.9800674795
560445391359,23279,-2,0,957.1718705767,4205.5210529134,8455.1621745069,-2460.2474591148,-9947.3841774788,-7546.6002527378,-10326.2619211516,-22239.3131849831,-13409.9699977771,-5482.3383190289,-7242.3348259833,-3621.0822391139,-24681.8931483109,3553.0891492673,6898.2688629210,10071.8110451902
560445391359,23279,-2,0,952.5481457840,4198.4029502720,8450.1247480222,-2466.3434752231,-9952.3485977826,-7557.4416706070,-10331.6278754505,-22243.1825125728,-13414.6180579634,-5488.3734966530,-7252.8112129479,-3622.7127104882,-24683.5844581693,3551.2883301375,6895.8718266469,10071.5190204665
560445391359,23279,-2,0,949.1533583704,4194.2050948681,8436.4360890964,-2474.6053413658,-9952.8231379587,-7575.1456694844,-10333.4773653676,-22241.1748425970,-13414.2895301492,-5493.1188984140,-7257.6296208897,-3618.6730351430,-24680.2870123303,3555.1819931208,6900.3738744713,10078.9169801348
560445391359,23279,-2,0,951.6234008255,4198.3907825752,8433.5645126462,-2472.6341744805,-9948.6009471611,-7575.2916818463,-10328.5494481543,-22236.8918133153,-13407.0862536300,-5489.7727817877,-7250.7183690943,-3613.6234409614,-24674.3613439775,3560.9616491117,6905.0706054450,10084.5019529766
560445391359,23279,-2,0,956.1497840436,4202.7103149473,8445.7078740754,-2465.9419412279,-9944.9749735079,-7558.9261296194,-10323.7918786965,-22236.8918133153,-13404.5310372972,-5482.4599959971,-7240.7043546090,-3615.7527879054,-24674.7020394886,3561.0468229895,6903.4279663739,10083.0296616610
560445391359,23279,-2,0,960.4936518094,4205.4967175198,8456.2207641305,-2459.9919374815,-9944.5126010286,-7544.9211105762,-10324.0839034203,-22239.2766818926,-13406.0641670969,-5479.9291150579,-7239.7552742568,-3618.2836688446,-24677.8656406625,3558.7957990773,6901.6879857282,10077.1161610050
560445431369,23280,-2,0,960.2746332666,4204.6449787422,8458.3622787713,-2460.8315085623,-9944.7316195714,-7547.8413578137,-10325.6657040073,-22238.9968248657,-13406.5508749698,-5479.6614257278,-7243.3325771228,-3617.6387809130,-24677.5979513324,3556.4230981968,6903.2819540120,10076.5077761639
560445431369,23280,-2,0,958.9240189192,4201.8220730793,8451.0373252839,-2467.4994064212,-9943.3323344368,-7562.5764386663,-10325.8603871564,-22236.1860868996,-13403.0830813753,-5477.6172526616,-7244.4641729273,-3612.7351990934,-24674.7263748822,3560.1220780310,6907.8326726238,10082.2022582770
560445431369,23280,-2,0,960.0921178142,4202.3452840427,8445.5740294104,-2468.8135176781,-9940.6067703485,-7567.9058898748,-10319.8008741386,-22229.3478412851,-13397.7292947732,-5474.7213408177,-7238.5871753618,-3608.1723127848,-24666.6226887981,3564.5267842809,6911.8723479690,10084.6114622480
560445431369,23280,-2,0,960.9925273791,4205.0830158278,8451.5605362473,-2463.9099358585,-9939.2074852138,-7553.3168213841,-10316.1627327886,-22229.7615429771,-13397.0357360543,-5469.6960820298,-7229.4370673510,-3608.9875484719,-24665.6979438396,3568.9314905308,6914.4275643018,10084.3437729179
560445431369,23280,-2,0,961.0168627728,4205.3750405516,8459.9927501456,-2460.4178068703,-9940.8136211944,-7540.9422737151,-10317.0023038693,-22232.8156348796,-13398.8608905777,-5465.4738912323,-7229.2423842018,-3612.1146465554,-24667.9124646614,3568.1770933277,6912.1157019055,10079.2576756459
560445431369,23280,-2,0,957.4882306941,4201.3840359936,8458.2406018031,-2463.0581970809,-9942.9673035321,-7542.7674282386,-10321.1271530923,-22237.4758627628,-13401.7811378152,-5467.0556918192,-7237.7476042811,-3614.6455274946,-24669.3360851896,3568.3231056896,6911.5559878516,10078.2720922032
560445431369,23280,-2,0,957.9992739607,4198.0744224578,8447.7642148385,-2468.7405114972,-9941.8600431212,-7555.4461683281,-10325.0573191661,-22235.7358821171,-13399.7613001426,-5469.5013988807,-7243.7097757243,-3612.5648513378,-24666.0143039570,3572.2897748539,6915.5348247127,10083.5285372307
560445431369,23280,-2,0,958.0722801416,4197.9405777928,8446.0729049801,-2469.7017595462,-9937.6500200205,-7561.2744951063,-10320.9324699432,-22233.0589888161,-13393.3610916138,-5467.2625426652,-7238.7940262078,-3608.7563622323,-24660.9038712913,3577.6435614560,6918.9417798232,10088.7971499551
560445456431,23281,-2,0,958.9726897065,4201.9680854411,8450.4411081396,-2465.5525749296,-9934.2065618196,-7549.4839968848,-10317.5863533168,-22230.9296418721,-13391.3534216380,-5465.7659159560,-7230.4104830968,-3608.8050330195,-24658.8718659219,3579.7850760968,6918.5280781312,10086.8624861602
560445456431,23281,-2,0,961.5035706457,4205.7035683658,8460.8201535295,-2458.3614661072,-9933.9753755800,-7533.6051525309,-10314.6539383825,-22230.5159401801,-13393.0568991932,-5464.0381030072,-7227.2955527102,-3611.1290631127,-24660.8430328072,3577.3758721259,6916.2162157348,10081.9224012501
560445456431,23281,-2,0,960.6274964744,4205.1195189183,8465.5898906841,-2457.1446964249,-9935.1799775654,-7533.5078109563,-10316.6737760551,-22231.9760637988,-13394.6995382643,-5464.2692892468,-7231.0553710284,-3612.5648513378,-24663.4590876242,3573.9567493186,6915.1332907176,10081.8980658565
560445456431,23281,-2,0,959.3742237017,4201.7003961110,8458.7151419792,-2461.9266012763,-9934.7297727830,-7547.0382898234,-10317.7567010724,-22229.6763690993,-13393.7382902153,-5466.2526238289,-7238.9278708729,-3608.6468529608,-24661.9016224308,3574.5773018566,6916.7150913046,10087.3613617300
560445456431,23281,-2,0,960.8221796236,4203.5133829377,8449.7353817238,-2464.0802836140,-9932.4300780834,-7558.4880925338,-10316.1749004854,-22226.3424201698,-13390.0149749875,-5467.0191887288,-7238.4411630000,-3603.3539048429,-24658.7623566505,3578.3006170844,6919.2703076374,10094.8566629729
560445456431,23281,-2,0,961.4427321616,4205.8739161213,8453.7750570691,-2460.3204652957,-9932.7099351104,-7550.6155926894,-10313.8021996049,-22225.8678799937,-13389.1754039067,-5464.0381030072,-7231.3230603585,-3602.6481784271,-24658.7258535600,3577.9720892702,6918.9661152168,10094.0779303762
560445456431,23281,-2,0,960.2868009634,4207.0176796227,8462.2924448451,-2457.1568641217,-9934.6689342989,-7538.8129267711,-10313.5588456685,-22229.2261643169,-13394.0303149390,-5467.9317659905,-7230.7390109110,-3606.9312077088,-24662.2058148514,3575.0396743359,6915.6321662873,10090.1964350897
560445456431,23281,-2,0,954.6044865471,4199.5223783797,8458.1554279253,-2460.5516515353,-9941.4585091261,-7542.4997389085,-10320.0563957719,-22234.5191124348,-13402.0001563581,-5477.1305447886,-7240.2176467361,-3612.4553420664,-24666.4158379521,3570.9391605065,6912.1887080864,10084.3316052210
560445493261,23282,5,0,949.0073460085,4191.6863816258,8447.2288361783,-2470.5778337174,-9945.1574889602,-7560.1550669986,-10326.6999582372,-22237.4880304596,-13405.1150867447,-5485.3194047505,-7250.8522137594,-3614.0493103502,-24668.5330171993,3567.5565407898,6911.1422861596,10085.4388656319
560445493261,23282,5,0,946.7076513090,4190.1410841292,8437.1904862994,-2476.0654649846,-9944.4760979382,-7574.1844214354,-10328.2209203401,-22237.1473349486,-13402.4138580500,-5490.0039680273,-7251.0955676958,-3612.0051372840,-24665.4667575999,3570.9999989907,6913.1742915291,10089.8435718818
560445493261,23282,5,0,949.0560167958,4193.1708406382,8437.2148216930,-2472.5490006028,-9941.7748692435,-7567.3948466082,-10324.0230649362,-22233.4483551144,-13399.3232630570,-5488.2761550785,-7242.7120245848,-3608.8537038068,-24663.0818890227,3572.4357872158,6914.6587505415,10088.4564544440
560445493261,23282,5,0,953.7040769822,4198.9139935386,8449.9300648730,-2464.7251715456,-9940.9474658595,-7551.3456544987,-10321.0784823050,-22232.3289270067,-13400.6008712234,-5481.7786049750,-7236.6160084765,-3610.0461380955,-24665.4059191158,3569.6493846433,6914.2815519400,10084.1734251623
560445493261,23282,5,0,951.6964070064,4197.6850561595,8456.0139132845,-2462.9243524158,-9943.5270175860,-7549.6543446404,-10323.8527171807,-22235.9183975695,-13405.2489314098,-5480.7443507451,-7241.0085470296,-3613.9398010788,-24670.9300534734,3563.8332255620,6911.7263356072,10078.4789430492
560445493261,23282,5,0,950.9785128939,4192.6597973716,8447.8372210195,-2466.9883631547,-9945.8632153760,-7561.0068057762,-10326.9311444769,-22236.1860868996,-13406.5387072730,-5482.3869898162,-7248.2726620329,-3611.6157709856,-24671.5262706178,3562.8963129066,6912.6875836562,10080.3649360568
560445493261,23282,5,0,951.1366929526,4193.6575485111,8441.8020433953,-2468.6918407099,-9943.2106574686,-7570.6314539631,-10322.0762334445,-22229.9683938231,-13400.8077220694,-5477.7389296298,-7243.5880987561,-3605.3615748187,-24669.2509113119,3566.8629820709,6916.5690789427,10088.3347774758
560445493261,23282,5,0,953.0470213538,4196.6142988391,8443.5055209505,-2466.0149474088,-9939.8158700550,-7563.4890159280,-10316.5155959964,-22226.6222771967,-13396.3543450322,-5471.7037520056,-7233.7322643295,-3601.1758871116,-24666.4523410426,3568.7124719880,6918.9417798232,10091.4132047720
560445510707,23283,5,0,952.7549966300,4198.9261612354,8452.5339519931,-2460.2109560243,-9939.8037023581,-7546.8436066743,-10312.7679453750,-22226.6222771967,-13398.4593565826,-5469.2337095506,-7227.6240805244,-3603.3660725397,-24667.5474337567,3568.5664596261,6917.0314514220,10087.0450016126
560445510707,23283,5,0,950.1024387226,4194.9473243743,8455.8313978321,-2459.4322234276,-9941.3124967642,-7539.8836840915,-10314.9824661967,-22229.1288227423,-13400.9659021281,-5466.9705179415,-7229.3762288669,-3606.3714936550,-24668.3505017470,3567.1671744914,6914.9994460525,10084.3194375242
560445510707,23283,5,0,946.2087757393,4190.6764627895,8452.3271011471,-2465.3092209931,-9940.8257888913,-7548.2672272025,-10318.3529182167,-22229.3721766787,-13400.9415667345,-5466.6054870368,-7235.8737789703,-3604.8261961584,-24666.3793348617,3568.9923290149,6915.5956631968,10086.7286414952
560445510707,23283,5,0,944.9189998760,4188.3159296058,8443.1039869553,-2470.0059519668,-9937.4310014777,-7557.2348197610,-10316.8319561138,-22225.1864889716,-13395.7094571006,-5466.5446485527,-7236.4334930242,-3601.0663778402,-24661.6704361912,3573.0076689664,6918.4672396471,10092.6786452416
560445510707,23283,5,0,944.4931304872,4187.5980354932,8441.2910001287,-2470.7116783825,-9935.2529837464,-7553.9130385284,-10313.1329762796,-22223.8115392306,-13391.7549556331,-5462.7118240535,-7229.3640611701,-3599.4967449500,-24660.3563249343,3574.7598173090,6917.5424946885,10092.5326328797
560445510707,23283,5,0,946.7563220963,4190.8589782418,8452.4974489026,-2465.4430656582,-9935.9343747684,-7539.0076099203,-10311.9770450815,-22225.4785136954,-13393.3124208265,-5459.7185706350,-7224.5091501377,-3602.3318183097,-24664.6271865192,3571.1946821398,6917.0679545124,10088.3469451726
560445510707,23283,5,0,946.9996760328,4191.6985493226,8458.4717880427,-2461.0140240146,-9936.7982812429,-7532.0355196407,-10313.6196841526,-22227.2306620379,-13396.5733635750,-5460.3147877793,-7227.2712173165,-3604.1083020459,-24667.4744275757,3565.9747402028,6914.0990364876,10083.2365125070
560445510707,23283,5,0,945.4543785362,4187.8292217329,8456.6344658224,-2464.9441900884,-9939.4021683630,-7540.9666091088,-10317.0753100503,-22228.1310716028,-13397.3642638685,-5462.9551779899,-7236.0441267258,-3604.2543144078,-24668.8493773167,3564.1617533762,6914.1355395781,10083.7110526831
560445569470,23284,5,0,943.0573422621,4185.9310610285,8446.3527620071,-2469.7017595462,-9939.1831498202,-7557.4660060007,-10317.2578255026,-22227.0359788887,-13394.6752028706,-5464.3057923373,-7238.1613059730,-3599.0708755612,-24664.8462050620,3567.7512239389,6916.0823710698,10087.7750634219
560445569470,23284,5,0,944.2741119444,4185.8093840603,8441.9602234540,-2470.2371382064,-9935.9952132526,-7559.5345144606,-10313.2546532479,-22222.6191049420,-13390.2826643176,-5464.5613139705,-7230.9458617570,-3594.8000139763,-24660.9768774723,3571.2311852303,6919.4528230897,10090.0260873342
560445569470,23284,5,0,946.3912911916,4190.5061150339,8450.5506174110,-2464.1897928854,-9935.8005301034,-7544.9089428794,-10309.7260211692,-22224.0427254703,-13391.5724401808,-5461.9330914568,-7224.8863487392,-3596.6373361966,-24663.1062244163,3570.0874217289,6918.9174444295,10086.3027721064
560445569470,23284,5,0,945.6125585949,4188.0847433662,8457.7173908397,-2462.5228184206,-9937.2728214190,-7537.3041323651,-10312.4029144703,-22226.4884325317,-13394.4926874183,-5462.4076316329,-7227.1982111356,-3600.4579929990,-24666.0873101379,3567.7755593326,6916.5082404586,10082.5307860913
560445569470,23284,5,0,944.3349504285,4184.7021236494,8455.7462239544,-2465.8202642597,-9939.4873422407,-7544.2032164637,-10315.6516895220,-22228.9706426836,-13396.5855312719,-5467.7492505382,-7237.0662132590,-3601.2975640798,-24665.2355713603,3569.3938630100,6917.4329854171,10083.1391709324
560445569470,23284,5,0,944.3227827317,4183.9842295368,8445.7200417723,-2471.1132123776,-9936.6401011842,-7558.7436141671,-10314.3132428715,-22223.6290237783,-13392.0348126601,-5468.9781879173,-7240.0594666774,-3595.5057403921,-24658.6650150759,3574.5042956757,6921.0832944640,10091.0481738673
560445569470,23284,5,0,942.6801436606,4181.3803424167,8440.3054166861,-2474.2768135516,-9934.3282387878,-7558.7679495607,-10309.9815428025,-22221.1468136264,-13386.9852184785,-5463.9042583421,-7229.9967814048,-3590.3223015455,-24656.0854633495,3578.9698404097,6925.5610068948,10096.3167865916
560445569470,23284,5,0,940.7333121689,4182.2564165880,8443.1648254395,-2469.9451134826,-9932.1137179660,-7544.9576136667,-10306.5015815111,-22219.7475284918,-13386.4011690310,-5460.6068125031,-7222.4771447683,-3589.6287428266,-24655.9881217749,3580.8071626300,6925.6218453790,10094.6741475205
560445576567,23285,5,0,935.9149042271,4178.8981322648,8446.8273021832,-2468.8621884654,-9934.2917356974,-7533.6416556214,-10307.9738728267,-22222.6921111229,-13389.4430932368,-5459.3292043367,-7223.2558773649,-3593.6319150813,-24657.7281024206,3578.8603311383,6922.9206166843,10089.4055347962
560445576567,23285,5,0,939.2731885502,4178.5939398443,8447.7520471417,-2472.3299820599,-9938.6599388568,-7542.2928880625,-10316.3574159377,-22229.2748351041,-13393.3124208265,-5463.0038487772,-7235.5695865498,-3598.9126955025,-24661.7312746753,3575.3803698469,6918.5889166153,10086.7894799793
560445576567,23285,5,0,944.0794287952,4181.8062118055,8441.2058262510,-2474.7148506372,-9941.6775276689,-7561.0798119571,-10322.8062952539,-22231.8422191338,-13394.9185568071,-5469.9759390568,-7244.5493468051,-3600.7743531164,-24660.1859771788,3576.2321086245,6919.5136615738,10089.1621808598
560445576567,23285,5,0,946.8901667613,4184.7142913462,8436.1197289790,-2475.6760986862,-9941.6775276689,-7568.2830884763,-10323.6945371220,-22231.7692129528,-13393.0447314964,-5471.3022180105,-7241.5560933866,-3600.8960300846,-24657.7767732078,3577.9842569670,6920.9737851926,10090.9386645959
560445576567,23285,5,0,950.7473266542,4189.8612271023,8443.4203470727,-2469.3975671256,-9943.0524774099,-7558.0743908418,-10322.6724505888,-22234.4217708603,-13394.9672275944,-5469.5744050616,-7235.6182573370,-3604.3151528919,-24660.9038712913,3575.2830282723,6916.4474019745,10085.4388656319
560445576567,23285,5,0,945.1501861157,4187.3060107695,8446.4257681880,-2469.3732317320,-9950.1462446576,-7550.1653879069,-10328.0262371909,-22240.7246378145,-13403.2899322213,-5472.2147952722,-7240.8625346677,-3612.9298822425,-24668.7520357421,3567.8120624231,6909.6334917536,10074.9624786674
560445576567,23285,5,0,937.6427171759,4179.2874985632,8441.4370124906,-2476.5035020702,-9956.6681301547,-7556.9671304309,-10334.1830917833,-22245.4457041818,-13409.2521036645,-5476.7533461871,-7250.1099842532,-3616.5801912894,-24672.3293386081,3564.2955980412,6906.3968843987,10070.9228033222
560445576567,23285,5,0,933.8950665544,4174.4082521372,8433.1751463478,-2482.0033010342,-9955.7068821057,-7569.5606966427,-10334.9131535927,-22242.5132892475,-13406.6482165444,-5475.8651043191,-7252.2271635004,-3611.1533985064,-24667.7786199963,3568.9436582276,6910.0350257488,10078.3085952937
560445605405,23286,5,0,934.8563146035,4174.4082521372,8429.0989679121,-2482.3074934548,-9951.8862253033,-7571.7752174645,-10327.3813492593,-22235.3343481220,-13399.6396231744,-5472.9813601720,-7244.0261358417,-3603.9257865935,-24661.5122561325,3574.4069541011,6916.4352342776,10085.3050209669
560445605405,23286,5,0,941.0618399832,4182.0617334388,8437.5798525977,-2473.3520685931,-9947.8952207454,-7557.1253104896,-10320.6404452194,-22231.2946727768,-13397.6684562891,-5468.6253247094,-7232.7345131900,-3601.1637194147,-24661.1715606214,3575.0761774263,6916.3013896126,10082.7011338468
560445605405,23286,5,0,943.2155223208,4184.4344343193,8446.7299606086,-2467.8035988418,-9950.7059587115,-7544.9697813635,-10321.1879915764,-22235.5411989680,-13402.6815473801,-5467.7492505382,-7232.2721407107,-3606.2984874740,-24667.8881292677,3568.8341489562,6910.3270504725,10075.4491865403
560445605405,23286,5,0,942.2542742718,4183.5461924512,8450.5992881983,-2467.9982819910,-9954.8673110249,-7549.9585370609,-10326.6026166626,-22238.4249431150,-13407.5242907157,-5471.9714413357,-7241.7994473231,-3611.2385723841,-24673.2419158698,3563.0301575716,6905.8493380417,10069.4018412193
560445605405,23286,5,0,940.0032503596,4180.5042682455,8441.2423293414,-2474.0942980993,-9956.0840807072,-7563.7932083486,-10329.7297147461,-22237.9382352421,-13406.9159058745,-5476.1571290428,-7247.4452586489,-3609.0483869560,-24671.2099105004,3561.6430401338,6904.7785807213,10072.1639083981
560445605405,23286,5,0,939.9059087850,4179.0076415363,8432.4937553257,-2479.4845877918,-9953.5531997681,-7575.6202096605,-10327.6125354989,-22235.3465158188,-13402.9492367102,-5475.4514026271,-7244.0383035385,-3606.0794689312,-24669.5307683388,3566.3762741979,6909.1467838807,10079.3793526141
560445605405,23286,5,0,943.3858700763,4184.7142913462,8439.5145163926,-2472.9140315074,-9950.9736480416,-7566.7742940702,-10324.3272573568,-22236.4416085329,-13401.2214237614,-5474.2954714289,-7237.6989334938,-3607.4057478849,-24668.7520357421,3567.8242301199,6909.7186656314,10077.7123781494
560445605405,23286,5,0,942.4367897241,4185.2861730969,8444.6614521487,-2470.1884674191,-9955.4270250788,-7556.5169256485,-10327.2596722911,-22241.3816934430,-13407.3296075665,-5477.7510973266,-7240.5826776408,-3612.9542176362,-24671.5871091019,3564.0035733175,6906.2508720368,10069.3775058257
560445644375,23287,5,0,938.7013067995,4181.0761499962,8447.0219853323,-2472.7680191456,-9960.2210976270,-7559.3033282209,-10333.0514959788,-22246.8814924069,-13412.3061955671,-5479.4789102755,-7248.6620283312,-3618.7460413239,-24673.8016299237,3561.3631831069,6901.8826688774,10065.5446813264
560445644375,23287,5,0,935.3308547796,4175.1139785529,8439.4415102116,-2478.7301905888,-9960.5617931381,-7572.2375899437,-10335.8135631576,-22248.3294483289,-13411.1745997626,-5481.9124496401,-7256.3885158138,-3617.6266132162,-24673.5582759872,3563.6507101096,6904.8029161149,10069.9737229700
560445644375,23287,5,0,933.3596878942,4174.8827923133,8428.7339370074,-2482.9402136895,-9957.6415459006,-7582.8843246638,-10333.1975083407,-22245.3240272136,-13407.0375828428,-5481.8272757623,-7253.4074300922,-3613.4530932059,-24667.1580674583,3570.0995894258,6909.9133487805,10076.1792483497
560445644375,23287,5,0,936.5719598555,4179.8593803139,8434.2459036682,-2478.4746689555,-9954.8673110249,-7574.6467939147,-10330.3746026778,-22244.7399777661,-13403.9348201529,-5479.1382147644,-7246.6908614459,-3614.4873474359,-24666.1724840157,3572.4357872158,6911.6776648199,10074.9381432737
560445644375,23287,5,0,938.4336174694,4180.1635727344,8443.3108378013,-2475.9072849259,-9956.7411363357,-7561.4326751650,-10331.1289998808,-22248.9743362605,-13406.7820612095,-5477.7267619330,-7245.4740917636,-3619.9628110062,-24669.7011160943,3568.9071551371,6908.1612004380,10067.2846619721
560445644375,23287,5,0,937.2776862712,4179.2509954727,8445.8417187405,-2476.3939927988,-9957.5198689323,-7557.1983166706,-10334.6697996563,-22251.5052171997,-13410.8339042515,-5480.3184813563,-7251.8256295052,-3621.9339778915,-24669.9809731213,3564.7579705205,6904.4743883007,10059.8136961228
560445644375,23287,5,0,937.7400587505,4176.0508912083,8440.8894661336,-2480.0808049362,-9956.8141425166,-7569.3295104031,-10336.9329912653,-22249.7652365540,-13409.1790974836,-5481.1823878307,-7255.6462863076,-3618.6730351430,-24670.1999916641,3568.4204472642,6907.0661077240,10065.4108366614
560445644375,23287,5,0,938.3119405012,4175.3938355798,8436.2414059472,-2483.1227291419,-9953.8817275823,-7579.0028293773,-10334.0735825119,-22244.1802637122,-13402.9979074975,-5478.7610161629,-7251.0712323022,-3611.7374479539,-24665.3694160254,3572.2532717634,6910.3392181693,10073.6361997137
560445709362,23288,5,0,945.6490616854,4184.4100989256,8440.9138015272,-2474.9095337864,-9949.0268165499,-7569.9622306378,-10327.0528214451,-22238.7534709292,-13399.5422815998,-5475.6582534731,-7240.4123298853,-3607.4179155817,-24662.1328086705,3575.5020468152,6914.0625333972,10074.9259755769
560445709362,23288,5,0,949.7617432116,4189.3866869262,8451.7187163060,-2466.9153569737,-9948.5401086770,-7552.7449396334,-10324.5341082027,-22237.3176827041,-13399.8829771109,-5472.4946522991,-7234.8030216499,-3608.8537038068,-24662.7655289053,3575.0396743359,6912.7727575339,10070.9349710190
560445709362,23288,5,0,948.4841350452,4190.2262580070,8457.5470430842,-2465.8689350470,-9952.7014609905,-7548.4375749581,-10326.6999582372,-22240.6151285431,-13405.0055774733,-5473.3220556831,-7240.6678515186,-3611.8226218316,-24666.1238132284,3571.2920237144,6911.2517954311,10068.3067485052
560445709362,23288,5,0,945.6490616854,4187.1113276203,8448.2265873178,-2470.2371382064,-9957.3373534800,-7560.8607934143,-10330.3137641936,-22240.2622653353,-13407.3052721729,-5477.4590726029,-7250.2073258278,-3611.8591249221,-24667.5961045440,3570.5132911177,6912.1643726928,10070.0588968477
560445709362,23288,5,0,942.2421065750,4183.1446584561,8435.0489716586,-2477.0510484272,-9956.0354099199,-7575.5350357828,-10330.5814535237,-22238.4736139023,-13404.6648819623,-5480.3184813563,-7249.5502701993,-3609.3160762861,-24665.1990682698,3572.5939672745,6910.0106903551,10071.8597159775
560445709362,23288,5,0,942.4976282083,4185.6998747889,8435.4140025632,-2476.3088189210,-9955.0619941741,-7575.3768557241,-10327.9288956163,-22236.9161487090,-13404.0930002116,-5478.5176622265,-7243.6246018465,-3609.2430701052,-24662.7898642989,3573.0076689664,6910.5339013185,10075.2058326038
560445709362,23288,5,0,941.8040694894,4184.7264590430,8442.0332296349,-2473.8752795565,-9958.7609740083,-7563.6958667740,-10330.2285903159,-22242.2212645238,-13409.1425943931,-5481.9246173369,-7244.7075268638,-3613.7694533233,-24668.1801539915,3568.5056211420,6905.0097669609,10069.1706549797
560445709362,23288,5,0,940.3561135674,4183.2785031211,8445.4766878358,-2474.5445028817,-9962.5937985075,-7560.0333900303,-10335.3025198910,-22248.0495913019,-13416.9055849662,-5485.2829016600,-7251.2050769672,-3619.4030969523,-24673.0594004175,3563.1396668430,6900.2887005936,10063.5735144411
560445715327,23289,5,0,937.4845371172,4180.8327960597,8441.9723911508,-2479.4724200950,-9966.8403246987,-7571.1546649265,-10340.0600893488,-22250.4587952729,-13417.9398391961,-5486.1468081344,-7258.3475150023,-3619.9506433094,-24674.7020394886,3560.4627735420,6900.3860421682,10065.9097122311
560445715327,23289,5,0,936.4381151904,4179.2753308664,8432.1895629052,-2482.7576982372,-9964.9299962975,-7582.0325858862,-10337.1398421113,-22244.4966238296,-13412.4522079290,-5485.5870940806,-7256.7170436280,-3613.7329502328,-24670.8327118989,3564.3077657380,6906.3482136114,10074.9503109706
560445715327,23289,5,0,940.7819829562,4182.4510997371,8433.3454941033,-2480.4701712345,-9959.5883773922,-7577.6400473331,-10330.6666274015,-22239.5930420100,-13406.6360488476,-5480.6105060800,-7245.6201041255,-3607.7099403055,-24667.0728935806,3568.2987702960,6911.3248016120,10078.8683093475
560445715327,23289,5,0,942.2907773623,4184.8603037081,8443.1769931363,-2475.9316203195,-9959.8438990255,-7563.0753142361,-10328.3425973083,-22240.5907931495,-13406.3926949111,-5475.0133655415,-7239.8404481346,-3611.0317215381,-24669.5551037325,3567.2888514597,6908.7452498855,10074.5487769754
560445715327,23289,5,0,941.9379141544,4184.0572357178,8450.2220895968,-2473.8752795565,-9962.3261091774,-7555.9937146851,-10331.7008816315,-22244.6183007979,-13412.0263385402,-5475.7312596540,-7244.6466883797,-3616.6897005608,-24674.4830209457,3562.2635926718,6905.0949408386,10068.0512268720
560445715327,23289,5,0,941.1591815577,4181.2099946612,8447.0341530291,-2476.6738498257,-9962.1557614219,-7562.0167246125,-10334.0979179056,-22244.4357853455,-13411.9655000560,-5477.5199110870,-7251.1199030895,-3615.4607631817,-24673.6434498650,3564.0035733175,6906.7619153034,10069.7790398208
560445715327,23289,5,0,941.6337217338,4180.4921005487,8442.0940681190,-2479.4480847014,-9956.1449191914,-7570.4002677235,-10330.0825779540,-22238.2667630563,-13404.6770496591,-5473.1273725339,-7247.0072215633,-3607.1502262516,-24666.1724840157,3571.4258683795,6913.1134530450,10078.8561416507
560445715327,23289,5,0,948.3746257737,4187.0261537426,8444.3450920313,-2474.3254843389,-9946.4716002171,-7566.9081387353,-10321.0663146082,-22231.2581696863,-13395.4417677705,-5466.9705179415,-7236.4821638115,-3600.3484837276,-24657.8741147824,3578.9820081065,6918.4550719502,10083.2973509911
560445740385,23290,5,0,954.5801511534,4194.3389395332,8455.4298638370,-2466.0392828025,-9941.4828445197,-7548.7782704691,-10314.9094600158,-22227.8877176663,-13391.8644649045,-5463.3323765914,-7227.6849190085,-3598.5719999915,-24655.7326001416,3581.4885536520,6919.1364629723,10078.7344646825
560445740385,23290,5,0,957.8410939020,4196.6264665359,8467.7314053250,-2460.4056391735,-9942.7239495956,-7540.0783672407,-10314.6539383825,-22230.1995800627,-13395.7216247974,-5463.0768549581,-7229.4857381383,-3603.4877495079,-24659.2855676139,3577.5218844878,6915.9606941015,10072.3707592441
560445740385,23290,5,0,952.7306612364,4190.4696119435,8462.9251650799,-2466.0879535898,-9948.8199657039,-7550.3844064497,-10323.2199969459,-22235.3221804251,-13401.1605852773,-5472.0566152135,-7241.9576273818,-3607.8194495769,-24662.4004980006,3573.8959108345,6912.4198943261,10070.2900830874
560445740385,23290,5,0,947.8757502040,4185.3591792778,8446.4014327944,-2474.9582045737,-9951.1926665844,-7568.5629455032,-10327.1744984133,-22237.5488689437,-13402.2678456882,-5479.1260470676,-7248.9662207518,-3606.9920461929,-24662.6803550275,3572.0950917047,6912.2982173578,10074.6217831563
560445740385,23290,5,0,947.5837254803,4185.6877070920,8442.2522481777,-2474.0577950088,-9948.4305994056,-7571.7508820708,-10322.2952519873,-22233.2780073589,-13396.4516866068,-5475.8529366222,-7240.4001621885,-3602.5265014589,-24659.1882260393,3575.1491836073,6916.0580356761,10081.2531779248
560445740385,23290,5,0,952.5724811777,4191.4430276893,8451.6578778219,-2467.4629033308,-9942.6266080211,-7555.5070068122,-10315.6273541284,-22229.8102137644,-13392.6066944107,-5469.2458772474,-7231.2135510871,-3599.4359064659,-24658.2391456871,3578.5561387177,6918.1387118328,10080.4014391472
560445740385,23290,5,0,956.2106225277,4195.9450755138,8463.3388667719,-2459.4808942149,-9940.0957270819,-7539.5551562773,-10312.5489268321,-22228.8489657153,-13391.6819494522,-5464.7925002102,-7227.8309313704,-3600.5675022704,-24658.8718659219,3578.4466294463,6917.9075255932,10078.2964275969
560445740385,23290,5,0,954.5071449725,4192.3191018606,8463.8985808257,-2462.9730232031,-9941.0448074341,-7542.1468757006,-10315.0798077713,-22231.0026480530,-13392.4606820489,-5463.1498611391,-7233.7444320263,-3602.6968492144,-24660.4780019025,3576.3781209864,6916.3987311872,10077.4811919097
560445796405,23291,5,0,952.0492702143,4187.6588739774,8455.3811930497,-2469.7017595462,-9940.4120871993,-7556.5899318294,-10317.8175395565,-22229.6398660088,-13390.5868567381,-5463.8555875548,-7237.9787905207,-3599.6792604023,-24658.6771827727,3579.3105359207,6919.1486306691,10083.2365125070
560445796405,23291,5,0,952.6576550554,4188.5957866327,8447.8007179290,-2470.6508398984,-9936.5427596096,-7561.4083397713,-10313.8021996049,-22225.7827061160,-13383.9919650601,-5463.4297181660,-7232.0409544711,-3594.7756785827,-24653.8587748309,3583.7639129579,6923.7966908555,10089.6732241263
560445796405,23291,5,0,956.0281070754,4193.4628653619,8454.1887587610,-2466.8058477023,-9935.0704682940,-7550.6642634767,-10312.5124237417,-22227.4010097934,-13384.7463622631,-5458.8668318574,-7226.4194785389,-3597.8297704853,-24654.5645012466,3581.8900876472,6922.3487349336,10086.5947968301
560445796405,23291,5,0,958.0601124448,4196.3466095089,8466.0887662539,-2460.3691360830,-9938.3679141330,-7538.5330697442,-10316.3817513314,-22233.0468211193,-13389.0293915448,-5459.0128442193,-7227.7700928862,-3603.6702649603,-24657.8011086015,3576.7796549816,6916.1432095539,10078.5641169270
560445796405,23291,5,0,957.1110320926,4194.2294302618,8464.5921395447,-2462.8026754476,-9941.6653599721,-7540.4555658422,-10320.5066005544,-22235.0544910950,-13393.3732593106,-5462.6509855693,-7236.5064992051,-3605.7144380265,-24659.5897600345,3575.2830282723,6911.4829816707,10071.5433558601
560445796405,23291,5,0,953.5458969235,4189.5692023786,8456.7683104875,-2468.7161761035,-9943.7825392192,-7555.5556775995,-10322.1492396254,-22234.8841433395,-13392.8378806504,-5464.3422954277,-7240.8016961836,-3603.4025756302,-24657.7281024206,3577.5705552751,6916.7394266982,10078.8561416507
560445796405,23291,5,0,953.6189031044,4189.6787116500,8451.7917224869,-2470.1641320255,-9940.6432734389,-7563.1118173265,-10319.1073154197,-22229.0436488645,-13387.7274479847,-5461.5802282489,-7235.0585432832,-3598.8396893216,-24653.4572408357,3583.0338511486,6920.4870773197,10084.5141206734
560445796405,23291,5,0,955.3467160533,4192.7328035525,8454.9309882672,-2466.1852951644,-9938.1367278934,-7552.5867595747,-10314.9216277126,-22226.3789232603,-13385.6224364344,-5458.8911672511,-7227.8796021577,-3598.6206707787,-24651.9119433392,3583.9829315007,6921.9106978480,10081.8980658565
560445814108,23292,5,0,958.7901742542,4197.6972238563,8467.7192376282,-2459.0428571293,-9937.3823306904,-7539.0806161012,-10314.5322614143,-22228.1432392996,-13389.2240746940,-5457.1025158181,-7226.6871678690,-3601.7234334686,-24654.9416998481,3581.4398828647,6918.3090595884,10076.1305775624
560445814108,23292,5,0,957.2083736672,4195.4218645504,8470.7611618339,-2458.7508324055,-9938.7329450377,-7539.8228456074,-10317.8418749501,-22232.5722809432,-13392.0834834474,-5458.1367700480,-7233.7809351168,-3604.7531899775,-24657.0345437016,3578.2641139940,6915.6565016810,10072.5532746964
560445814108,23292,5,0,954.5679834566,4195.1420075235,8462.0004201214,-2463.5570726506,-9939.5360130280,-7553.5845107142,-10320.7012837035,-22232.4141008845,-13391.9618064791,-5464.5491462737,-7242.3591613770,-3603.1713893905,-24655.5014139020,3579.6147283413,6916.7515943950,10075.7168758704
560445814108,23292,5,0,952.5481457840,4191.9905740463,8450.8913129220,-2467.4142325435,-9940.3390810184,-7565.9590583831,-10320.3605881925,-22230.1752446690,-13390.0028072906,-5467.6032381763,-7239.8039450441,-3600.6161730577,-24653.3477315643,3582.2794539455,6919.4649907865,10082.2752644580
560445814108,23292,5,0,951.8910901556,4192.3799403447,8453.2640138025,-2467.6940895704,-9941.8843785149,-7561.4326751650,-10318.4867628817,-22230.8809710848,-13391.7062848458,-5468.5644862253,-7234.0121213564,-3602.6603461240,-24654.8808613640,3581.3060381997,6919.0877921850,10080.2067559981
560445814108,23292,5,0,954.2881264297,4195.2393490981,8460.4429549280,-2462.4254768461,-9944.8411288428,-7549.9585370609,-10319.2533277816,-22233.4240197208,-13397.9239779224,-5471.9592736389,-7233.3428980312,-3608.2088158752,-24659.5897600345,3576.4267917737,6914.9994460525,10073.2468334153
560445814108,23292,5,0,953.1930337156,4194.5701257728,8462.0369232118,-2463.3745571983,-9948.5279409802,-7549.5083322785,-10322.6967859825,-22237.0864964645,-13402.9979074975,-5474.4414837908,-7240.8260315773,-3610.2773243351,-24663.9822985875,3572.8859919982,6912.1887080864,10070.5699401143
560445814108,23292,5,0,948.9586752212,4188.5714512391,8453.6412124040,-2469.8477719081,-9953.4923612840,-7563.5011836249,-10327.2353368974,-22238.1815891785,-13404.3363541481,-5478.0674574440,-7247.9319665219,-3610.2529889415,-24664.3351617954,3571.1216759589,6910.5947398026,10074.5001061881
560445830121,23293,5,0,946.3426204043,4187.7075447647,8441.9480557572,-2474.2768135516,-9952.8231379587,-7575.7053835383,-10325.4831885549,-22235.3221804251,-13400.8685605535,-5479.9412827547,-7246.6665260523,-3605.2520655472,-24661.2323991056,3576.4997979546,6914.2937196368,10082.0684136120
560445830121,23293,5,0,947.2673653629,4190.7251335767,8440.6339445003,-2470.6630075952,-9951.2535050685,-7569.6702059141,-10321.0419792146,-22231.8543868306,-13396.9870652670,-5475.8286012286,-7237.8692812493,-3603.3539048429,-24658.7501889537,3579.0793496811,6917.7006747472,10083.0783324483
560445830121,23293,5,0,946.3912911916,4192.8788159144,8449.6380401493,-2467.5237418149,-9952.0565730588,-7556.2979071057,-10321.3461716351,-22233.7890506255,-13400.3088464997,-5473.4315649545,-7235.1802202514,-3606.6756860755,-24659.8817847582,3576.1712701404,6914.8047629034,10077.2743410637
560445830121,23293,5,0,944.5418012745,4189.9464009801,8452.9841567756,-2467.4385679371,-9954.0885784283,-7550.1167171196,-10323.9135556648,-22236.4659439265,-13404.0443294243,-5474.0642851893,-7240.0838020711,-3609.8027841590,-24662.1084732768,3574.9788358518,6913.9773595194,10075.5465281149
560445830121,23293,5,0,943.1790192303,4187.1843338013,8448.6524567066,-2472.5490006028,-9953.4680258903,-7559.5345144606,-10325.2763377089,-22236.3199315646,-13402.1583364168,-5474.1372913702,-7245.9607996365,-3607.8316172737,-24662.2058148514,3575.9035808103,6914.5492412701,10077.8340551176
560445830121,23293,5,0,939.1271761883,4183.1568261529,8438.0787281675,-2478.9005383443,-9953.0178211079,-7572.8094716944,-10325.3736792835,-22234.7989694618,-13399.5301139030,-5473.9669436147,-7245.9242965461,-3606.7486922565,-24660.4536665089,3577.9599215734,6916.0337002825,10081.2288425312
560445830121,23293,5,0,940.9036599245,4183.0594845783,8435.7546980743,-2477.8662841144,-9951.0953250098,-7570.8991432932,-10323.3660093077,-22233.2536719652,-13399.7613001426,-5474.4049807003,-7241.3370748438,-3606.9555431025,-24658.4946673204,3576.9378350403,6915.4496508350,10079.2941787363
560445830121,23293,5,0,944.6513105459,4189.9829040705,8448.1292457432,-2469.0082008273,-9952.3242623889,-7557.7701984213,-10323.0009784031,-22235.0423233982,-13403.4237768863,-5472.8475155070,-7237.7354365842,-3610.4233366970,-24662.8020319957,3572.3992841253,6911.0449445851,10068.6839471067
560445859241,23294,5,0,946.2939496170,4189.8368917087,8456.2572672209,-2466.6476676436,-9955.4026896852,-7552.2582317605,-10325.3615115867,-22238.0112414230,-13407.7068061680,-5472.0444475167,-7241.2762363597,-3612.7473667902,-24668.8615450135,3568.2987702960,6908.9155976411,10067.3333327594
560445859241,23294,5,0,946.3791234948,4189.7395501341,8454.0305787023,-2468.4363190766,-9955.9259006485,-7560.3862532382,-10327.7463801640,-22237.7313843961,-13408.1448432536,-5474.3928130035,-7246.9463830792,-3609.7662810686,-24669.3117497960,3567.9094039976,6909.3779701203,10070.2292446033
560445859241,23294,5,0,945.5152170204,4187.5128616155,8445.3793462612,-2472.5855036932,-9953.4071874062,-7574.1844214354,-10325.5805301295,-22233.2658396621,-13404.4823665099,-5475.8286012286,-7246.9220476856,-3604.9235377330,-24665.9291300792,3571.7908992842,6914.3302227273,10076.8484716749
560445859241,23294,5,0,946.1722726488,4189.3258484421,8443.7123717965,-2473.0843792630,-9950.6329525306,-7573.6003719879,-10321.9910595668,-22231.8422191338,-13401.8298086025,-5473.7479250719,-7239.3294048680,-3604.0474635618,-24664.5541803382,3572.8616566046,6915.3766446540,10078.7466323793
560445859241,23294,5,0,948.9343398276,4191.2970153274,8453.2518461057,-2467.8766050227,-9951.7523806383,-7559.6683591256,-10320.5187682512,-22232.9008087574,-13403.1925906467,-5472.9813601720,-7236.1171329068,-3606.5053383200,-24665.8682915951,3572.6061349713,6914.5127381796,10075.4856896308
560445859241,23294,5,0,949.6765693338,4192.8301451271,8456.9021551526,-2465.5039041423,-9953.2246719538,-7552.8909519953,-10324.1690772981,-22236.6971301661,-13407.2809367792,-5474.2224652480,-7240.5705099440,-3610.9343799636,-24668.4478433216,3571.2433529271,6911.0084414946,10069.9737229700
560445859241,23294,5,0,946.5129681598,4190.2505934007,8457.3645276318,-2468.9595300400,-9955.0741618709,-7562.9049664805,-10327.1258276260,-22239.4835327386,-13407.6459676839,-5474.9525270573,-7248.7837052995,-3612.6500252156,-24668.2531601724,3570.4037818463,6909.0251069125,10070.2657476937
560445859241,23294,5,0,944.2376088539,4185.7850486666,8446.1215757674,-2474.5688382754,-9953.3098458316,-7577.8955689664,-10327.4421877434,-22237.5245335501,-13403.8739816688,-5477.0088678204,-7251.4605986005,-3608.2331512689,-24663.6172676829,3574.5042956757,6910.5704044090,10075.5586958117
560445896585,23295,5,0,948.3502903801,4189.7760532246,8443.3595085886,-2473.7779379819,-9949.9272261148,-7577.7617243014,-10322.5751090143,-22233.4240197208,-13399.1894183920,-5475.6582534731,-7244.3546636559,-3605.8117796011,-24661.0985544405,3576.9743381307,6914.0381980035,10079.0143217094
560445896585,23295,5,0,954.1786171583,4195.7990631519,8455.0161621450,-2464.1776251886,-9948.5887794643,-7561.2258243190,-10319.0829800261,-22232.8034671828,-13399.1772506951,-5472.3729753309,-7237.1148840463,-3607.3692447944,-24663.4955907146,3574.0784262869,6912.1035342087,10072.8696348138
560445896585,23295,5,0,954.2151202488,4195.4948707313,8462.7426496276,-2460.7463346845,-9951.4846913082,-7551.8566977653,-10320.8351283686,-22235.6385405425,-13404.3363541481,-5471.9349382452,-7239.8404481346,-3610.9708830540,-24669.1048989500,3568.8463166530,6908.4045543745,10065.2039858154
560445896585,23295,5,0,952.3047918476,4192.7936420366,8460.2847748693,-2465.3700594772,-9954.6239570885,-7558.4880925338,-10325.3250084962,-22237.3055150073,-13407.2079305983,-5476.5464953411,-7249.5259348057,-3611.5549325015,-24670.4068425101,3565.5853739045,6906.3117105209,10064.4617563092
560445896585,23295,5,0,948.1556072309,4188.5349481486,8449.5163631810,-2473.0722115661,-9954.8916464186,-7574.2695953132,-10326.7486290245,-22234.5434478285,-13404.6892173559,-5477.1305447886,-7252.2514988940,-3609.0118838655,-24669.7984576689,3566.9359882518,6909.2806285457,10068.1729038402
560445896585,23295,5,0,947.8149117199,4188.6931282073,8443.5176886473,-2475.3475708720,-9952.0079022716,-7577.5427057585,-10323.7432079093,-22233.0833242097,-13400.2115049251,-5475.1837132970,-7245.3037440081,-3606.0429658407,-24664.1769817367,3571.4867068636,6913.2716331037,10071.6163620411
560445896585,23295,5,0,948.3259549865,4190.1167487356,8449.7840525111,-2471.1497154681,-9952.0200699684,-7564.3164193120,-10322.5872767111,-22235.2613419410,-13402.2070072040,-5473.1030371402,-7240.6800192154,-3607.8802880610,-24668.4478433216,3571.2676883208,6911.3248016120,10067.3820035467
560445896585,23295,5,0,948.5206381356,4192.7084681589,8457.6200492651,-2467.1465432134,-9953.9547337632,-7551.4064929829,-10324.3394250536,-22238.3641046309,-13405.6261300113,-5470.5964915947,-7241.7994473231,-3611.4332555333,-24671.2829166813,3569.0409998022,6910.0471934456,10064.2549054632
560445921742,23296,5,0,949.3602092164,4192.8058097335,8460.4916257153,-2467.3533940594,-9954.2832615774,-7555.5070068122,-10328.0627402814,-22241.4790350176,-13408.1691786473,-5471.9714413357,-7249.3069162629,-3612.7595344870,-24671.2464135908,3568.7003042911,6910.1323673233,10066.3477493167
560445921742,23296,5,0,946.2817819202,4188.8878113565,8449.1269968827,-2473.1208823534,-9954.1980876997,-7572.2375899437,-10331.6400431473,-22240.8828178732,-13405.9546578255,-5476.6073338253,-7255.3420938870,-3611.1777339000,-24667.3284152139,3573.2510229029,6912.5902420816,10070.1927415128
560445921742,23296,5,0,945.6003908981,4189.0824945056,8443.6271979187,-2475.7247694735,-9951.6672067605,-7578.2849352647,-10330.9221490348,-22240.4326130908,-13401.3552684264,-5476.2179675269,-7250.9495553340,-3611.1412308095,-24663.4590876242,3575.5385499056,6913.3689746782,10073.1008210535
560445921742,23296,5,0,949.3358738228,4194.0469148094,8451.4388592791,-2471.1618831649,-9951.0588219194,-7569.4025165840,-10329.8270563207,-22242.9756617268,-13401.8906470867,-5474.3076391257,-7246.5813521745,-3615.6189432404,-24664.3108264018,3573.7985692599,6909.7308333282,10065.9705507152
560445921742,23296,5,0,950.9420098034,4194.1807594745,8457.5592107810,-2468.1929651401,-9954.2832615774,-7557.7701984213,-10331.9442355679,-22245.8837412675,-13405.7113038891,-5477.5685818743,-7248.8202083899,-3621.0579037202,-24668.3748371406,3568.9193228339,6902.1868612980,10055.6158407189
560445921742,23296,5,0,952.5724811777,4194.6796350442,8460.6741411677,-2466.4043137072,-9955.0376587805,-7559.0599742845,-10333.7450546977,-22246.8936601038,-13407.0740859332,-5477.7510973266,-7253.4317654858,-3621.6906239550,-24667.7542846027,3567.3010191565,6903.2454509216,10056.3337348315
560445921742,23296,5,0,950.8203328352,4192.3799403447,8455.4663669274,-2471.4295724950,-9953.2490073475,-7570.9843171710,-10331.5913723601,-22242.6714693062,-13402.4138580500,-5476.8263523681,-7254.0644857206,-3616.2759988688,-24665.3329129349,3571.0365020811,6908.6600760078,10063.8047006807
560445921742,23296,5,0,950.7838297447,4192.9518220953,8447.0706561196,-2472.3543174536,-9948.3819286183,-7577.4453641840,-10325.0329837725,-22237.3663534914,-13397.0600714479,-5476.8993585490,-7247.1288985315,-3607.9289588483,-24659.2855676139,3578.1789401162,6914.7925952065,10072.3342561536
560445952979,23297,5,0,952.9983505665,4196.9671620469,8450.7209651665,-2468.6675053162,-9947.1894943297,-7568.1127407208,-10322.7941275571,-22236.5632855011,-13397.8144686510,-5475.4635703239,-7239.6944357727,-3608.9997161687,-24660.7578589295,3576.1225993531,6913.5879932211,10069.8763813954
560445952979,23297,5,0,952.4386365126,4196.5412926581,8457.9364093825,-2466.6111645532,-9953.0421565015,-7557.8067015117,-10326.6026166626,-22241.6128796826,-13404.4458634195,-5476.7411784903,-7243.5150925751,-3617.1520730401,-24669.3847559769,3568.4812857483,6907.0296046335,10062.3932478493
560445952979,23297,5,0,951.6355685223,4196.0424170884,8460.9053274073,-2465.7715934724,-9955.6582113184,-7559.8387068812,-10330.4962796460,-22244.5087915265,-13409.3859483296,-5478.7610161629,-7250.5115182483,-3619.0380660476,-24672.7430403001,3567.2645160660,6906.1048596750,10059.5216713991
560445952979,23297,5,0,951.6720716128,4194.8134797093,8454.2617649420,-2469.2028839764,-9953.0786595920,-7570.7531309313,-10329.7175470493,-22240.9071532669,-13405.9059870382,-5478.6515068915,-7252.0324803512,-3612.5648513378,-24667.4744275757,3571.1095082621,6910.0958642329,10066.2260723485
560445952979,23297,5,0,952.4751396031,4196.9793297437,8448.4942766479,-2470.6508398984,-9949.4040151514,-7579.5503757343,-10325.6170332200,-22235.8818944790,-13399.2989276634,-5476.1936321333,-7246.6665260523,-3606.9068723152,-24663.1792305972,3574.9545004581,6910.4608951376,10069.3410027352
560445952979,23297,5,0,955.0668590264,4199.6562230448,8450.1247480222,-2465.9541089247,-9948.5766117675,-7571.3858511661,-10321.1271530923,-22234.6042863126,-13401.1119144900,-5476.3396444952,-7240.7408576995,-3606.3593259581,-24663.1062244163,3574.2001032551,6911.5194847612,10069.8155429113
560445952979,23297,5,0,954.1299463710,4199.4372045020,8456.4154472796,-2464.1046190076,-9951.5576974891,-7558.8409557417,-10322.5629413174,-22238.2667630563,-13405.5409561335,-5477.2887248473,-7241.2884040565,-3612.4918451569,-24668.8737127104,3568.5299565356,6907.0417723303,10061.3346582257
560445952979,23297,5,0,952.0127671238,4196.3831125994,8459.9075762678,-2465.9784443184,-9954.8916464186,-7556.2249009247,-10327.3326784720,-22241.2600164747,-13410.5540472246,-5477.7389296298,-7248.2361589424,-3615.8136263896,-24674.3613439775,3563.9427348334,6903.9390096405,10058.7672741960
560445981605,23298,5,0,947.9244209913,4192.3921080415,8453.2031753184,-2472.7436837519,-9954.8673110249,-7568.3317592636,-10329.8513917144,-22241.1991779906,-13408.8870727598,-5478.9800347057,-7254.8067152268,-3613.3679193281,-24670.4920163878,3565.6097092981,6906.3482136114,10062.0038815509
560445981605,23298,5,0,950.5283081114,4193.0856667604,8445.0629861438,-2474.3619874294,-9950.4504370782,-7578.1389229029,-10324.9964806820,-22234.4339385571,-13402.9857398007,-5476.7776815808,-7249.2704131724,-3606.4931706232,-24665.1138943921,3572.7156442427,6913.3203038910,10070.2535799969
560445981605,23298,5,0,953.6189031044,4196.4317833867,8449.4311893033,-2471.4417401919,-9946.1309047061,-7569.5971997332,-10319.6913648672,-22232.0855730702,-13398.8243874873,-5471.2170441327,-7238.4289953031,-3604.8018607648,-24663.3495783528,3575.3195313628,6913.8313471575,10070.8863002317
560445981605,23298,5,0,958.6076588018,4198.9383289322,8458.6786388887,-2464.7495069392,-9946.6784510631,-7555.1541436043,-10319.7887064418,-22234.1784169238,-13400.6738774044,-5469.7325851203,-7236.9445362907,-3608.3548282371,-24665.3085775412,3573.8837431377,6911.3248016120,10065.6176875074
560445981605,23298,5,0,956.5634857356,4199.7779000130,8462.2681094515,-2463.1555386554,-9951.0588219194,-7553.0978028412,-10325.1303253471,-22238.5587877800,-13406.7577258158,-5473.2368818053,-7245.5105948541,-3614.6698628882,-24669.1900728278,3569.0044967117,6905.5573133179,10060.8479503528
560445981605,23298,5,0,949.5062215783,4191.6498785353,8454.5902927562,-2473.2547270185,-9957.4955335387,-7569.5606966427,-10333.3556883994,-22243.2676864505,-13411.5883014545,-5480.2454751753,-7257.3984346501,-3616.9695575877,-24673.4974375031,3565.8165601441,6902.1260228138,10062.4175832429
560445981605,23298,5,0,946.2574465266,4188.6079543296,8442.1670743000,-2480.1538111171,-9958.1769245608,-7585.5247148744,-10335.5337061307,-22242.7809785776,-13410.9312458261,-5484.1878089459,-7258.7855520879,-3616.0569803260,-24669.9444700308,3566.1450879583,6902.7952461391,10066.1895692580
560445981605,23298,5,0,949.3358738228,4193.1708406382,8442.9336391998,-2475.0190430578,-9955.0011556900,-7581.0713378372,-10329.2551745700,-22239.3496880735,-13407.8771539235,-5482.6790145399,-7250.5723567324,-3612.9785530298,-24668.8615450135,3570.8539866288,6905.3139593815,10069.4261766129
560446014311,23299,5,0,955.7969208357,4199.1330120814,8454.7606405117,-2467.0005308515,-9954.1007461251,-7564.3772577961,-10326.5661135722,-22239.7633897655,-13408.3273587060,-5478.6636745883,-7245.4497563700,-3615.6797817245,-24670.8327118989,3568.2987702960,6902.5032214154,10064.7416133361
560446014311,23299,5,0,955.3467160533,4199.8144031035,8462.1099293928,-2465.5160718391,-9957.0209933626,-7560.3254147541,-10331.2020060617,-22243.2190156632,-13414.0705116064,-5482.5816729653,-7252.5435236178,-3620.1818295490,-24675.7606291122,3564.7823059141,6897.5996395957,10058.5847587437
560446014311,23299,5,0,950.2971218718,4193.9495732348,8453.1058337438,-2471.7702680061,-9961.2066810697,-7573.4543596260,-10336.7748112066,-22245.8472381770,-13417.1732742963,-5488.8115337387,-7262.3506872570,-3621.7149593487,-24677.2329204277,3563.8453932588,6897.3806210529,10058.5969264405
560446014311,23299,5,0,947.5472223898,4189.9464009801,8443.1648254395,-2478.5111720460,-9960.0264144779,-7588.5666390801,-10336.6166311479,-22243.0608356045,-13413.7906545795,-5489.7362786972,-7261.0487436970,-3617.1885761306,-24674.0936546474,3566.7291374058,6901.7001534250,10064.4860917028
560446014311,23299,5,0,946.8901667613,4192.3069341637,8442.8849684125,-2477.2213961828,-9958.3837754068,-7587.4228755788,-10333.5868746390,-22239.9215698242,-13409.8604885057,-5487.9962980515,-7253.2614177303,-3613.8059564138,-24672.4023447890,3570.7079742669,6904.1701958801,10066.7006125246
560446014311,23299,5,0,948.4597996515,4193.3533560905,8447.2045007847,-2473.0478761725,-9961.3891965220,-7575.7540543256,-10333.4773653676,-22240.7976439955,-13414.1921885746,-5490.3689989320,-7251.6674494465,-3618.9163890794,-24675.6146167503,3565.7922247504,6902.0895197234,10060.9209565337
560446014311,23299,5,0,945.9775894996,4191.3091830242,8455.1986775973,-2472.4516590282,-9965.2220210213,-7570.5584477822,-10338.6364688205,-22248.2321067543,-13420.2030308052,-5493.7759540424,-7257.4957762247,-3626.3021810509,-24680.9805710492,3558.4916066567,6894.1805167885,10053.1336305670
560446014311,23299,5,0,943.5683855287,4186.5759489601,8450.8183067411,-2477.1240546082,-9967.6555603859,-7579.4895372502,-10343.3088644005,-22250.3492860015,-13421.8456698763,-5494.9927237247,-7265.0032451644,-3625.8519762685,-24679.4596089463,3559.0756561042,6892.5500454142,10053.1944690511
560446078123,23300,5,0,945.6003908981,4186.6002843538,8442.9336391998,-2480.2268172980,-9962.3382768742,-7591.9614264937,-10340.7293126741,-22245.7377289056,-13416.5892248488,-5494.7980405756,-7264.3826926265,-3618.7703767175,-24671.3559228623,3564.9526536697,6897.0277578450,10058.9011188611
560446078123,23300,5,0,948.5206381356,4190.0559102515,8442.4104282364,-2477.3917439383,-9957.8848998370,-7591.6450663763,-10334.1587563897,-22239.8728990369,-13411.1989351562,-5489.8822910591,-7255.0379014665,-3614.3535027708,-24666.6956949791,3568.6881365943,6901.3472902172,10063.4883405633
560446078123,23300,5,0,953.9961017059,4196.8333173819,8453.5682062231,-2470.3101443873,-9956.5586208833,-7575.7053835383,-10329.6323731716,-22239.1915080148,-13411.2354382467,-5486.4753359487,-7248.9540530550,-3615.8501294800,-24669.1535697373,3567.7633916358,6900.6050607110,10061.0182981083
560446078123,23300,5,0,954.8721758772,4197.3321929516,8460.7714827423,-2466.9518600642,-9959.4058619399,-7566.4822693465,-10332.0294094457,-22241.8684013159,-13415.1047658364,-5487.0472176993,-7251.6066109624,-3620.5590281505,-24673.4000959285,3563.6263747160,6897.9281674099,10055.5915053253
560446078123,23300,5,0,951.5382269477,4193.0491636699,8457.1941798763,-2471.2957278300,-9961.9854136664,-7573.9532351958,-10337.2980221700,-22244.8738224312,-13417.4044605359,-5489.1278938561,-7260.9148990319,-3622.6883750945,-24675.6632875376,3561.8498909798,6897.7821550481,10057.1246351250
560446078123,23300,5,0,948.9221721308,4190.8103074545,8448.5307797384,-2477.6350978747,-9960.3184392016,-7587.7757387866,-10339.7558969282,-22244.0220836536,-13413.8636607604,-5489.3955831862,-7263.0685813696,-3619.4396000428,-24670.5893579624,3564.0765794984,6899.9723404762,10061.6875214336
560446078123,23300,5,0,950.2484510845,4192.1365864082,8442.0210619381,-2478.5355074396,-9957.4711981451,-7590.4769674813,-10336.5801280575,-22240.5056192717,-13410.6027180119,-5490.5150112939,-7258.5178627578,-3615.6676140277,-24670.2608301482,3567.8972363008,6903.0994385597,10068.5379347449
560446078123,23300,5,0,952.4873072999,4194.6796350442,8450.1247480222,-2472.8288576297,-9957.7388874752,-7577.7982273918,-10333.2583468248,-22242.9756617268,-13413.6203068240,-5488.8723722228,-7253.1519084589,-3618.9163890794,-24672.5118540604,3567.0333298264,6901.0552654934,10064.4860917028
560446088201,23301,5,0,952.8280028109,4194.6674673474,8459.4573714854,-2470.0546227540,-9961.2066810697,-7567.5043558796,-10337.7968977398,-22248.0252559083,-13417.7451560469,-5488.9697137974,-7256.1573295742,-3624.7325481608,-24677.7074606038,3562.3122634591,6897.1250994196,10058.6821003183
560446088201,23301,5,0,949.0925198863,4189.0338237184,8455.2351806878,-2477.1362223050,-9965.4653749577,-7574.7684708829,-10343.9050815449,-22252.6733160947,-13420.9209249177,-5493.9097987075,-7267.4246168322,-3627.0444105571,-24679.6907951860,3560.3532642706,6895.7744850723,10055.1534682396
560446088201,23301,5,0,946.0384279837,4185.7242101825,8445.2455015962,-2482.4535058166,-9963.2021833487,-7589.0898500435,-10345.3895405573,-22252.0405958599,-13417.5991436851,-5495.5281023849,-7270.6490564903,-3625.4017714860,-24674.9210580314,3563.2735115081,6898.8894154589,10061.0791365924
560446088201,23301,5,0,945.4178754458,4186.7584644125,8439.4415102116,-2483.8649586481,-9960.1237560525,-7593.8595871981,-10341.8000699945,-22247.4047033703,-13411.6613076355,-5491.7926194603,-7263.2875999124,-3620.6198666346,-24671.2342458940,3567.3010191565,6902.7344076550,10065.2283212090
560446088201,23301,5,0,951.1853637398,4194.1320886872,8447.9954010782,-2476.4061604956,-9955.0133233868,-7578.5647922917,-10337.2250159891,-22243.7908974139,-13409.6658053565,-5487.1688946676,-7254.8675537109,-3619.6221154951,-24668.8128742263,3568.9314905308,6902.5640598995,10063.3423282015
560446088201,23301,5,0,955.9916039849,4197.7215592499,8460.8323212264,-2469.6165856684,-9952.7622994746,-7564.0730653755,-10335.4728676466,-22246.7841508324,-13411.1745997626,-5484.1269704618,-7253.7481256032,-3623.6374554467,-24668.1314832042,3569.1505090736,6901.1404393712,10056.7352688266
