timestamp,sequence,battery,flags,EEG-ch1,EEG-ch2,EEG-ch3,EEG-ch4,EEG-ch5,EEG-ch6,EEG-ch7,EEG-ch8,EEG-ch9,EEG-ch10,EEG-ch11,EEG-ch12,EEG-ch13,EEG-ch14,EEG-ch15,EEG-ch16
561221875563,39207,-2,0,6510.7155514135,8957.8584010499,13352.2464440490,1164.0348842636,-6343.7869186995,-3611.2264046873,-6445.6548765012,-20676.7983974650,-8815.0218080454,-2945.1058421154,-5259.5842932913,-12.9707648133,-21902.6816846796,9422.5427427181,12309.2314723865,16581.7113609166
561221875563,39207,-2,0,6514.0860034334,8963.4555415885,13364.6331594148,1172.6009428269,-6340.8423360684,-3598.4259876296,-6442.0167351511,-20677.5041238807,-8813.0384734632,-2941.1513406479,-5255.9948227285,-14.6377392780,-21900.3698222832,9423.1267921656,12308.2945597311,16577.6351824809
561221875563,39207,-2,0,6517.8214863580,8965.4997146547,13370.6683370390,1177.0299844705,-6339.3822124496,-3592.7436732133,-6442.9293124128,-20678.0516702377,-8812.1380638983,-2941.4311976748,-5258.0511634916,-15.7084965984,-21898.4594938820,9425.3169775937,12309.2436400833,16575.5180032337
561221875563,39207,-2,0,6515.0107483919,8962.1292626348,13363.0878619183,1172.5157689492,-6341.8279195110,-3601.4435764417,-6448.0032419880,-20680.1810171818,-8813.7076967885,-2943.3901968633,-5264.8407383188,-16.2560429555,-21898.2769784297,9425.9618655253,12308.7569322104,16575.9803757129
561221875563,39207,-2,0,6510.6912160198,8956.6416313676,13354.7164865041,1164.6676044984,-6343.0203537997,-3614.9375522183,-6450.6923029859,-20679.9254955485,-8813.7928706663,-2945.4465376264,-5267.2134391992,-14.9419316986,-21897.9971214027,9425.7063438920,12309.7911864403,16579.7401940312
561221875563,39207,-2,0,6509.4257755502,8956.3374389470,13350.0805940146,1164.5337598333,-6342.7404967727,-3612.8447083648,-6447.7598880515,-20677.7596455140,-8813.7563675758,-2946.0427547707,-5260.9592430323,-13.6278204417,-21897.3765688648,9427.5558338091,12311.4824962987,16580.6649389898
561221875563,39207,-2,0,6514.0981711302,8961.6547224587,13362.3334647153,1172.3332534968,-6339.3578770560,-3599.2777264072,-6442.3574306622,-20678.2585210837,-8810.9699650033,-2941.9544086382,-5254.8875623176,-14.7107454589,-21897.3400657743,9428.4805787677,12310.4969128560,16578.9857968282
561221875563,39207,-2,0,6517.8458217517,8964.9400006009,13373.5399134892,1178.2589218496,-6338.4209644006,-3592.2813007340,-6440.6417854101,-20677.8934901790,-8810.0330523480,-2940.4334465353,-5255.0335746795,-15.2826272096,-21896.9385317791,9428.3954048899,12311.8840302939,16576.5400897668
561221884380,39208,-2,0,6516.1301764997,8962.3604488744,13368.0887853125,1174.0610664457,-6339.0780200290,-3599.2533910135,-6443.1361632588,-20678.2463533869,-8812.3327470475,-2942.6601350539,-5262.3098573796,-14.0901929210,-21897.6929289822,9427.3976537504,12312.5775890128,16575.8221956543
561221884380,39208,-2,0,6511.5186194038,8957.1891777246,13356.4808025434,1165.3246601268,-6341.2682054572,-3612.1754850395,-6446.8716461835,-20680.2296879690,-8814.2430754487,-2944.4487864869,-5264.9745829838,-13.7494974099,-21899.9196175008,9423.1876306497,12311.0444592131,16580.3364111756
561221884380,39208,-2,0,6507.9291488410,8954.9138184187,13352.2707794427,1162.5625929480,-6341.6697394523,-3613.7451179297,-6446.1780874646,-20680.8137374165,-8813.3183304902,-2944.1567617632,-5260.9470753354,-14.8810932145,-21899.9804559849,9422.9686121069,12309.6208386848,16580.0930572391
561221884380,39208,-2,0,6512.1026688513,8959.1116738227,13359.0846896635,1168.4639259071,-6339.3822124496,-3601.7234334686,-6443.4768587699,-20682.6267242432,-8811.9677161428,-2941.8814024573,-5258.4526974867,-17.7891727551,-21900.8808655498,9421.3381407326,12307.9416965232,16576.4549158890
561221884380,39208,-2,0,6516.9332444900,8964.0395910360,13372.2866407164,1174.6329481964,-6336.9000022977,-3592.6584993355,-6443.5985357381,-20684.6222265221,-8810.8482880351,-2938.8759813420,-5257.8686480392,-19.7968427309,-21901.4405796036,9420.8879359501,12306.5302436918,16573.4251593801
561221884380,39208,-2,0,6516.3978658298,8963.5650508599,13372.4326530783,1173.1728245776,-6337.5813933198,-3596.2479698983,-6446.1659197677,-20683.9651708937,-8810.3859155558,-2936.6979636107,-5262.2125158050,-18.5557376550,-21900.7713562784,9422.2507179943,12305.8488526697,16573.9605380403
561221884380,39208,-2,0,6514.9012391205,8960.8394867715,13361.3843843631,1169.7537017704,-6336.1942758820,-3605.0330470044,-6445.1438332346,-20680.3391972405,-8809.1569781767,-2935.4446908379,-5261.8596525972,-13.6764912290,-21897.8632767377,9425.4508222587,12310.6550929147,16581.5653485547
561221884380,39208,-2,0,6514.4997051254,8961.1071761016,13358.3789632478,1170.3134158242,-6333.4200410064,-3603.8649481094,-6441.6395365496,-20676.2386834111,-8804.9469550760,-2931.5145247641,-5254.0844943273,-10.9387594438,-21896.4153208157,9428.4927464645,12311.7988564161,16584.6316081541
561221916686,39209,-2,0,6517.6146355121,8966.9355028798,13367.7724251951,1177.3950153752,-6329.3560302675,-3591.5755743183,-6437.1739918156,-20675.2652676653,-8802.8906143129,-2927.0489800301,-5246.7595408399,-12.9099263291,-21896.5248300871,9427.4098214472,12310.4969128560,16580.3607465692
561221916686,39209,-2,0,6520.4253734782,8970.7074888949,13376.7278500568,1182.9191497328,-6329.1005086342,-3584.1532792563,-6437.1496564219,-20676.9687452205,-8803.1948067335,-2926.6474460349,-5247.3192548937,-14.6377392780,-21895.6000851286,9428.0912124693,12308.7934353008,16575.7370217765
561221916686,39209,-2,0,6516.4587043139,8966.2784472514,13374.0631244526,1179.4756915319,-6331.7165634512,-3588.9838548950,-6441.5665303687,-20677.4067823061,-8806.0907185773,-2929.5068547883,-5254.6442083811,-17.0712786426,-21896.7560163268,9426.0957101904,12308.7812676040,16574.5567551847
561221916686,39209,-2,0,6511.9931595799,8959.9634126003,13363.9639360895,1170.2282419464,-6333.9919227570,-3602.5751722462,-6444.7057961490,-20676.6280497095,-8807.4413329247,-2931.4536862800,-5256.6275429633,-15.0149378795,-21897.5712520139,9425.5481638333,12309.6938448657,16579.5333431852
561221916686,39209,-2,0,6512.7110536924,8960.7908159842,13359.2672051159,1168.5490997849,-6334.6124752950,-3608.1601450879,-6442.1992506035,-20673.5861255037,-8807.4048298342,-2933.4126854685,-5254.1940035987,-11.0604364121,-21897.6807612853,9425.4386545619,12311.3486516337,16579.7401940312
561221916686,39209,-2,0,6516.7142259472,8965.7065655007,13367.9671083443,1175.7158732136,-6334.3812890554,-3600.1172974880,-6438.5611092534,-20672.1990080659,-8806.7964449931,-2932.6461205687,-5248.0006459158,-9.7584928520,-21898.3986553979,9425.0736236572,12311.3243162400,16578.1218903538
561221916686,39209,-2,0,6520.3645349940,8970.8900043473,13381.2785686686,1181.6415415664,-6333.7850719111,-3590.5899908756,-6437.3808426616,-20673.8903179243,-8806.8329480835,-2931.6848725196,-5249.0349001458,-11.2307841676,-21898.5811708502,9422.1898795102,12307.5644979217,16573.8145256785
561221916686,39209,-2,0,6522.5303850285,8971.9607616677,13383.1402262825,1182.6271250090,-6335.6345618281,-3594.9216909446,-6440.5079407451,-20674.7663920955,-8809.0109658149,-2935.7610509553,-5257.1507539267,-13.0072679037,-21900.0899652563,9424.4044003320,12308.4040690025,16574.8487799084
561221950518,39210,-2,0,6519.7074793656,8967.2761983909,13370.8995232786,1176.5432765976,-6337.0703500532,-3607.3327417040,-6443.3916848921,-20673.9268210148,-8809.7896984115,-2938.9368198261,-5261.0565846068,-9.1744434045,-21898.1918045519,9424.6234188748,12309.8398572276,16579.2291507647
561221950518,39210,-2,0,6515.8259840791,8961.9589148792,13363.0513588278,1169.9848880100,-6338.0072627086,-3613.5504347805,-6442.5642815082,-20673.2819330831,-8809.7166922306,-2941.2486822225,-5257.9416542202,-9.4299650378,-21895.9042775492,9424.7207604494,12310.4239066751,16580.2512372978
561221950518,39210,-2,0,6516.0815057124,8964.7453174517,13367.4925681682,1173.9758925679,-6336.8148284200,-3604.8383638553,-6439.4006803342,-20674.8272305797,-8810.4710894336,-2943.2685198951,-5253.9749850559,-12.0581875515,-21894.5293278082,9426.1565486745,12309.6330063816,16575.7248540797
561221950518,39210,-2,0,6517.5903001184,8966.5583042783,13375.1703848635,1179.2931760795,-6335.9265865519,-3595.6395850571,-6437.9648921091,-20675.6424662668,-8810.7996172478,-2942.8061474158,-5253.3300971243,-13.9685159527,-21894.2981415686,9427.9330324106,12310.2048881323,16572.1962220010
561221950518,39210,-2,0,6516.5925489789,8966.1080994959,13377.1658871424,1176.7501274435,-6338.4087967038,-3597.5255780647,-6441.3596795227,-20677.4189500029,-8811.8095360841,-2943.8769047362,-5258.6108775454,-14.9906024859,-21896.6343393586,9427.4341568409,12311.1174653940,16573.5468363484
561221950518,39210,-2,0,6512.2243458195,8960.2554373240,13365.2658796496,1170.0092234036,-6341.1343607921,-3609.5472625257,-6445.0464916600,-20677.0904221887,-8813.5251813362,-2947.0405059102,-5263.6969748174,-13.5426465639,-21899.0435433295,9426.2660579459,12313.1859738539,16575.0677984512
561221950518,39210,-2,0,6510.0098249977,8955.8507310741,13352.3437856236,1164.0348842636,-6343.0081861028,-3617.8943025463,-6445.6913795916,-20676.7010558904,-8813.9267153313,-2947.7827354164,-5262.7113913748,-11.4132996199,-21898.6906801216,9421.8248486055,12311.1661361813,16575.1894754195
561221950518,39210,-2,0,6513.2951031399,8959.9025741162,13357.9044230717,1168.8411245086,-6343.3732170075,-3611.8104541348,-6443.8783927650,-20679.5969677343,-8813.1479827347,-2943.9499109172,-5257.2480955013,-13.9076774686,-21901.2702318481,9423.6865062194,12312.5289182255,16577.9515425983
561221984491,39211,-2,0,6514.6822205777,8963.6502247376,13367.5534066523,1175.2169976439,-6343.6530740345,-3601.8572781336,-6445.0586593569,-20682.7727366050,-8813.5251813362,-2941.1635083447,-5256.4206921173,-16.5967384665,-21901.8056105083,9424.5504126938,12311.4338255114,16574.3134012482
561221984491,39211,-2,0,6515.3271085093,8962.3847842680,13371.1793803055,1175.6793701231,-6344.0059372423,-3600.1538005784,-6446.8473107898,-20683.5027984144,-8813.8537091504,-2940.0075771465,-5259.5964609881,-16.3412168332,-21900.4793315546,9425.6333377111,12312.1638873208,16574.5689228815
561221984491,39211,-2,0,6512.7718921765,8958.4789535879,13367.0545310826,1170.1065649782,-6345.3078808024,-3608.5373436894,-6449.8770672987,-20683.1012644193,-8813.2209889156,-2938.2554288040,-5262.5653790129,-15.8423412635,-21899.6884312611,9426.3877349141,12312.3342350763,16579.7280263344
561221984491,39211,-2,0,6510.2166758437,8955.2910170203,13357.4298828956,1164.7527783761,-6345.2592100151,-3615.9353033578,-6449.6458810591,-20680.7163958420,-8813.2574920061,-2938.9854906134,-5261.8353172035,-14.4065530384,-21899.2747295691,9425.5724992270,12312.5045828318,16581.8087024911
561221984491,39211,-2,0,6512.7718921765,8957.5298732357,13361.2627073948,1169.5346832275,-6346.2204580641,-3612.0294726776,-6447.1393355136,-20678.6113842916,-8813.8050383631,-2938.9854906134,-5256.1286673935,-15.0757763636,-21898.5568354566,9425.0736236572,12313.0642968857,16579.2534861583
561221984491,39211,-2,0,6517.7728155708,8963.9300817645,13374.0874598462,1178.0034002163,-6345.5512347388,-3599.7766019769,-6444.6084545744,-20681.1057621403,-8813.1114796442,-2935.5298647157,-5252.8190538577,-17.5701542123,-21897.2183888061,9424.9884497795,12312.4315766509,16575.0556307544
561221984491,39211,-2,0,6517.9188279326,8961.5938839745,13378.3218183406,1176.5189412039,-6347.6927493797,-3598.6085030819,-6449.0983347021,-20685.1454374855,-8815.5693544024,-2938.1215841390,-5259.0245792374,-20.5025691467,-21901.1728902735,9424.6599219652,12311.7988564161,16571.6851787344
561221984491,39211,-2,0,6513.3802770177,8954.2810981840,13368.4538162172,1168.7437829340,-6352.7058404707,-3610.7761999049,-6456.0339218911,-20688.3090386595,-8820.4972716157,-2944.1932648536,-5268.1503518546,-21.4151464084,-21903.3265726112,9425.2561391096,12311.5068316924,16573.1453023532
561222006704,39212,-2,0,6505.3374294177,8945.2648348382,13354.3027848121,1157.9997066394,-6357.3782360507,-3623.9781509578,-6461.1321868600,-20689.4528021608,-8822.6631216502,-2946.6389719150,-5270.2188603145,-23.1916301445,-21906.0764720932,9424.2827233637,12312.1152165335,16576.2724004367
561222006704,39212,-2,0,6501.8818035200,8943.4761834052,13352.0760962935,1155.6756765462,-6357.8041054395,-3622.7857166691,-6459.6233924539,-20690.3653794226,-8822.3832646233,-2949.2793621256,-5267.4932962262,-24.4327352205,-21906.6483538438,9423.1511275592,12310.2900620101,16572.2692281820
561222006704,39212,-2,0,6504.0841566449,8948.7934669168,13362.6254894390,1162.6721022194,-6357.5729191999,-3612.7230313965,-6457.2750269671,-20691.3022920779,-8822.3710969264,-2950.1067655096,-5265.3761169790,-27.2921439739,-21906.3806645137,9420.8757682533,12307.9295288264,16566.4043983133
561222006704,39212,-2,0,6506.1648328017,8949.1341624279,13369.5489089313,1167.2593239216,-6358.7896888822,-3609.3282439829,-6457.5305486004,-20694.6727440979,-8823.8068851515,-2949.5957222430,-5269.3792892337,-30.4070743605,-21906.7943662057,9419.5008185123,12305.4959894618,16565.0172808755
561222006704,39212,-2,0,6505.1549139654,8947.5401941440,13364.1221161482,1163.0371331241,-6358.9235335472,-3618.3201719351,-6460.1952742046,-20695.3297997263,-8825.8267228242,-2952.2726155441,-5276.7529135084,-30.2488943018,-21906.1616459709,9419.5251539060,12304.1697105081,16569.6775087587
561222006704,39212,-2,0,6502.7457099944,8944.6321146034,13352.7209842251,1158.2552282727,-6358.4854964616,-3628.7235527187,-6460.4142927474,-20693.1152789045,-8825.6077042813,-2955.8985891973,-5277.3978014400,-28.0465411769,-21906.1373105773,9420.9609421311,12303.4153133051,16574.6540967592
561222006704,39212,-2,0,6500.4825183854,8942.8677985640,13349.2775260243,1156.8437754412,-6360.5053341342,-3628.9790743520,-6460.2317772951,-20694.3320485868,-8827.1895048683,-2957.2370358478,-5274.3680449311,-29.4458263115,-21908.5708499419,9419.6589985710,12301.0547801214,16574.6905998497
561222006704,39212,-2,0,6501.7236234613,8945.7758781047,13356.6876533894,1161.5648418085,-6361.1745574595,-3619.6099477983,-6458.8811629477,-20698.3352208416,-8829.0511624822,-2956.7989987622,-5272.2508656839,-32.4025766395,-21911.1869047588,9416.7265836367,12297.7329988888,16570.2737259030
561222039691,39213,-2,0,6502.1373251533,8947.1386601489,13361.1531981234,1164.5702629238,-6362.7806934401,-3614.9010491278,-6460.4629635347,-20699.8318475508,-8830.8884847025,-2959.5245628505,-5276.2662056355,-34.0208803169,-21912.9390531013,9415.4733108639,12297.2097879254,16567.4386525432
561222039691,39213,-2,0,6498.8155439206,8943.4640157084,13354.4974679613,1159.3381532899,-6365.6401021935,-3622.7248781850,-6464.0159310070,-20699.2721334970,-8831.7523911769,-2959.2690412173,-5281.0481104869,-32.3295704586,-21913.2189101282,9415.8261740718,12298.9619362679,16569.5923348809
561222039691,39213,-2,0,6495.3599180229,8939.4730111504,13345.5420430996,1153.4976588149,-6365.4332513475,-3632.3860294624,-6464.4418003958,-20697.3496373989,-8830.4747830105,-2958.1131100191,-5279.6001545650,-28.8982799545,-21909.9944704701,9416.6170743653,12300.9209354564,16574.0578796149
561222039691,39213,-2,0,6494.9705517246,8939.5703527250,13340.1030826198,1152.2443860421,-6364.4111648144,-3630.2080117311,-6460.8401621362,-20695.5731536628,-8829.0024916949,-2957.4803897843,-5274.7087404422,-28.7887706831,-21908.5465145482,9418.4787319792,12301.3711402388,16573.0844638691
561222039691,39213,-2,0,6499.5699411236,8941.1886564025,13347.9269116769,1158.1092159108,-6363.6080968241,-3619.0989045318,-6458.1997719256,-20696.4127247436,-8828.1750883110,-2954.7791610896,-5270.5838912192,-30.7477698716,-21908.7898684847,9416.6414097589,12299.6676626836,16570.0303719665
561222039691,39213,-2,0,6499.6307796078,8944.1332390336,13358.2816216732,1162.3557421020,-6363.8757861542,-3612.8325406679,-6459.3192000333,-20696.9846064942,-8827.7978897095,-2952.3456217250,-5270.6934004906,-31.4291608937,-21911.1504016683,9416.2033726733,12299.5094826249,16567.9010250225
561222039691,39213,-2,0,6494.6785270008,8940.8357931946,13353.3050336726,1157.8415265807,-6364.1921462716,-3617.0790668591,-6461.6067270361,-20696.5222340150,-8828.1872560078,-2952.2604478472,-5276.2662056355,-28.5332490498,-21910.4081721621,9418.6247443411,12300.4098921898,16569.6653410618
561222039691,39213,-2,0,6491.4054165554,8936.9908009986,13341.3076846052,1151.0519517535,-6365.5184252253,-3627.5676215205,-6463.2128630167,-20694.2833777995,-8828.8199762426,-2951.9075846394,-5276.8380873862,-25.4548217536,-21907.8651235261,9419.8293463265,12302.1742082292,16573.5103332579
561222077107,39214,-2,0,6488.7771940417,8935.6401866512,13338.0224064630,1148.8374309317,-6366.4553378807,-3627.9569878189,-6462.2516149677,-20694.8795949439,-8828.4671130347,-2950.5569702920,-5272.6523996791,-26.7811007073,-21907.8042850420,9419.6711662678,12299.8623458328,16573.4494947738
561222077107,39214,-2,0,6491.6244350983,8938.3292476491,13343.7777270603,1153.7410127514,-6365.6644375872,-3618.5513581747,-6460.6941497743,-20695.8408429929,-8827.3233495334,-2948.6223064972,-5269.5009662020,-30.2732296955,-21908.4856760641,9418.2840488300,12296.7960862334,16567.0736216386
561222077107,39214,-2,0,6496.7835385512,8943.4275126179,13354.6434803232,1157.9997066394,-6364.6666864477,-3609.4134178607,-6459.9762556618,-20698.2500469638,-8827.1651694747,-2947.0891766975,-5270.6203943097,-32.3417381554,-21907.2567386850,9417.2497946001,12294.6302361989,16559.9676866940
561222077107,39214,-2,0,6493.4495896217,8939.9840544170,13354.5218033549,1154.6535900131,-6365.8104499490,-3613.0272238171,-6463.2493661072,-20698.9922764700,-8826.2647599098,-2947.9409154751,-5275.4022991611,-33.6801848059,-21907.3419125627,9416.5197327907,12294.0948575387,16560.5639038383
561222077107,39214,-2,0,6490.7483609270,8933.3283242548,13342.2932680479,1148.3020522715,-6366.8568718758,-3625.5356161511,-6463.5900616182,-20695.5609859660,-8826.1795860320,-2947.7462323259,-5276.5703980561,-29.2511431624,-21906.9038754771,9418.3083842237,12296.3702168446,16567.8036834479
561222077107,39214,-2,0,6491.1255595285,8934.3869138784,13339.1905053580,1147.9005182763,-6364.7518603254,-3625.7059639066,-6460.4994666252,-20694.9160980343,-8826.8123062668,-2948.8169896463,-5273.1391075520,-28.8496091672,-21905.7236088853,9419.0019429426,12292.8050816755,16566.2948890419
561222077107,39214,-2,0,6494.3134960961,8939.3148310917,13349.3870352957,1154.7874346781,-6366.3214932156,-3619.3787615587,-6457.5792193877,-20696.9481034038,-8828.4062745506,-2948.8413250400,-5268.8560782703,-32.1470550062,-21905.7966150662,9414.1835350007,12291.5031381154,16564.7860946358
561222077107,39214,-2,0,6497.6352773288,8944.8754685398,13358.8048326366,1160.7252707277,-6367.9397968930,-3614.1953227121,-6458.9054983414,-20698.5664070812,-8832.7014715291,-2953.5137206200,-5272.5185550141,-35.1768115151,-21911.3815879080,9413.0884422866,12290.4080454014,16562.8514308410
561222114249,39215,-2,0,6496.9417186099,8944.7537915716,13359.8025837761,1161.0659662388,-6370.0934792307,-3617.1034022528,-6462.0569318185,-20698.5664070812,-8834.6239676271,-2957.6020667525,-5278.5172295478,-36.6856059212,-21913.4257609742,9410.9225922521,12289.5076358365,16560.8802639557
561222114249,39215,-2,0,6492.8533724774,8941.3346687643,13350.9688358826,1155.0794594019,-6369.2174050595,-3628.5532049632,-6462.5558073882,-20696.4005570467,-8832.5311237736,-2958.1374454127,-5280.0381916506,-32.6215951823,-21911.6736126317,9412.5287282328,12292.1601937439,16567.3899817560
561222114249,39215,-2,0,6495.4815949911,8942.4540968721,13345.1648444981,1154.5197453480,-6365.5184252253,-3629.7578069487,-6458.1876042288,-20691.1441120192,-8826.9948217192,-2955.4605521117,-5273.1999460361,-28.8252737735,-21908.0598066753,9417.8216763508,12297.3801356809,16573.2548116246
561222114249,39215,-2,0,6500.6893692313,8948.6109514645,13354.4487971740,1162.8667853686,-6360.6878495866,-3618.0768179986,-6451.9820788491,-20690.3775471194,-8824.4517730832,-2951.3478705855,-5266.8605759914,-27.5598333040,-21905.7357765821,9419.5008185123,12297.2462910159,16570.5779183236
561222114249,39215,-2,0,6500.7623754123,8949.5356964230,13365.8255937035,1166.4684236282,-6360.8095265548,-3608.4765052053,-6452.9554945949,-20694.7092471883,-8824.8898101688,-2949.4618775780,-5266.1913526661,-32.1957257935,-21910.2134890130,9416.5927389716,12293.9610128737,16566.7694292180
561222114249,39215,-2,0,6498.5356868937,8945.5933626524,13366.4704816351,1163.0979716082,-6362.7928611369,-3610.7275291176,-6455.9122449229,-20696.5465694086,-8827.2138402620,-2950.2527778715,-5272.3725426522,-33.0231291775,-21911.5397679667,9415.3272985021,12289.1912757191,16560.9532701366
561222114249,39215,-2,0,6494.5446823358,8939.3635018790,13355.0936851056,1155.3349810352,-6361.4179113960,-3619.2814199841,-6456.8126544878,-20693.9183468949,-8825.0114871370,-2950.3257840524,-5273.9908463296,-27.2434731866,-21910.0553089543,9417.3228007810,12297.2584587127,16571.4174894043
561222114249,39215,-2,0,6492.0016336998,8935.0804725974,13347.1116759898,1150.1637098854,-6359.5075829948,-3623.5279461753,-6452.9433268981,-20689.1364420434,-8821.5193581488,-2945.9819162866,-5266.4712096930,-21.5368233766,-21907.2445709882,9420.5837435296,12301.6023264785,16578.6937721045
561222150688,39216,-2,0,6494.1066452501,8939.1079802457,13353.0008412521,1154.0330374751,-6356.6116711509,-3613.8181241106,-6446.0807458900,-20686.5690580138,-8817.1511549894,-2940.6281296845,-5257.2845985917,-18.1298682662,-21906.6361861470,9423.1876306497,12304.7172568651,16579.0344676155
561222150688,39216,-2,0,6497.8664635684,8943.3788418306,13361.8710922360,1162.0393819846,-6354.2268025736,-3600.8595269942,-6442.9171447160,-20686.6542318916,-8815.9830560944,-2939.0219937039,-5253.1597493687,-16.6089061633,-21905.3707456774,9424.5625803907,12305.8731880633,16578.2800704125
561222150688,39216,-2,0,6496.7348677639,8943.7438727353,13365.6430782511,1163.2561516669,-6353.2168837373,-3598.0487890281,-6442.4669399336,-20685.7173192362,-8815.4476774342,-2934.8849767841,-5256.8100584156,-16.2925460459,-21904.4094976284,9424.9641143858,12307.3211439853,16578.8276167695
561222150688,39216,-2,0,6493.1088941107,8938.8646263093,13357.8192491940,1157.6346757347,-6352.8396851358,-3606.7730276501,-6445.4723610488,-20684.3423694952,-8814.1092307837,-2936.1504172537,-5260.3630258879,-14.0658575273,-21903.5334234572,9425.7306792857,12309.0854600246,16583.7190308923
561222150688,39216,-2,0,6489.9209575430,8935.9322113750,13349.3748675988,1154.2763914116,-6349.8951025046,-3610.5206782716,-6442.2965921780,-20680.1566817881,-8810.4224186463,-2934.6902936349,-5256.3476859364,-9.7219897615,-21900.4306607673,9428.8456096723,12312.3707381668,16588.7564573770
561222150688,39216,-2,0,6497.2945818177,8943.7560404321,13357.2230320496,1161.5648418085,-6345.0645268659,-3599.9347820356,-6435.5556881381,-20676.0196648683,-8805.1538059220,-2928.1440727442,-5246.8568824145,-7.3857919715,-21897.1940534124,9432.1795586018,12315.0841345583,16590.4721026291
561222150688,39216,-2,0,6503.2689209578,8951.7745526384,13372.0676221736,1171.0313099368,-6340.5138082541,-3584.5304778578,-6430.7737832867,-20674.4987027654,-8800.1042117405,-2923.2526586213,-5242.6833624042,-6.0595130178,-21893.3125581259,9433.9925454284,12315.8385317613,16587.3815076360
561222150688,39216,-2,0,6503.9868150704,8952.1517512399,13373.5764165797,1172.5036012523,-6341.5237270904,-3583.6909067770,-6431.9540498785,-20676.2386834111,-8802.6837634669,-2925.8687134383,-5247.9884782190,-8.3592077174,-21895.9529483365,9431.9118692717,12313.4049923967,16583.6825278019
561222165643,39217,-2,0,6500.9327231678,8948.3310944375,13365.8377614003,1165.2029831586,-6345.3808869833,-3596.9901994045,-6437.6728673853,-20677.2486022474,-8807.4413329247,-2928.9836438250,-5254.3765190510,-8.7485740157,-21899.3477357501,9429.7216838436,12312.5045828318,16585.9092163205
561222165643,39217,-2,0,6495.5546011721,8942.5636061435,13354.5461387486,1158.0362097299,-6348.6905005192,-3608.1966481784,-6439.4615188183,-20675.7276401446,-8808.0862208563,-2930.9791461039,-5254.0723266305,-7.8481644508,-21899.4450773247,9430.0380439610,12313.0764645825,16590.6059472941
561222165643,39217,-2,0,6495.5302657784,8942.1134013610,13352.2586117459,1157.9997066394,-6349.9924440792,-3606.7973630438,-6438.9383078549,-20677.9543286632,-8810.1668970130,-2933.8507225541,-5251.4684395104,-8.2496984460,-21898.7758539994,9432.6906018684,12312.9061168270,16589.6812023356
561222165643,39217,-2,0,6498.2071590795,8947.7713803837,13362.8445079818,1163.4021640288,-6352.7545112580,-3599.7522665833,-6438.6827862216,-20681.3491160768,-8811.7608652968,-2933.8628902510,-5250.1786636471,-13.3844665052,-21900.0777975595,9429.8798639023,12310.5455836433,16585.6171915967
561222165643,39217,-2,0,6497.7569542970,8945.8975550729,13368.7458409410,1163.0249654273,-6355.5652492241,-3598.2191367836,-6442.7589646573,-20685.5348037838,-8814.9244664708,-2936.0409079823,-5255.4959471588,-16.9496016744,-21902.5843431050,9427.9695355011,12308.0147027042,16583.8772109510
561222165643,39217,-2,0,6497.0877309718,8945.9705612539,13361.0071857616,1159.5815072264,-6358.6315088235,-3608.5860144767,-6448.2344282276,-20685.9120023854,-8816.7617886911,-2939.8493970878,-5262.5167082256,-17.4728126377,-21902.8642001319,9427.4706599313,12309.0367892373,16586.3837564966
561222165643,39217,-2,0,6493.8389559200,8941.7848735468,13350.6159726748,1153.9600312942,-6360.2984832882,-3621.4107669281,-6452.2984389665,-20686.3257040773,-8818.4165954590,-2941.0905021638,-5263.3441116096,-17.1929556108,-21900.2238099213,9426.0470394031,12307.1751316234,16588.2575818073
561222165643,39217,-2,0,6492.5613477536,8942.8677985640,13349.9345816527,1154.0695405656,-6361.8559484816,-3619.0137306540,-6451.1181723747,-20688.0778524198,-8816.3845900896,-2938.4501119532,-5258.3431882153,-18.3732222026,-21902.7546908605,9428.6387588263,12309.3531493547,16590.0097301498
561222237031,39218,-2,0,6497.2094079400,8950.0710750832,13361.4330551504,1162.7451084003,-6359.5440860852,-3607.2597355230,-6447.3218509659,-20687.4329644882,-8813.4886782457,-2936.3207650092,-5254.6442083811,-19.0424455279,-21902.3653245622,9428.5535849486,12309.7425156530,16586.2985826188
561222237031,39218,-2,0,6499.5821088205,8953.5753717682,13369.2690519043,1167.5148455549,-6360.8095265548,-3601.3949056544,-6448.4899498609,-20687.3112875200,-8813.5373490330,-2935.0553245396,-5256.3233505427,-18.7747561978,-21901.2458964545,9429.5026653008,12310.2048881323,16584.1935710684
561222237031,39218,-2,0,6498.6573638619,8950.1197458705,13366.5799909065,1163.6576856621,-6359.7631046280,-3606.7365245596,-6449.1591731862,-20686.0215116568,-8811.8703745682,-2933.0598222606,-5259.7424733500,-15.5381488429,-21898.3134815201,9431.9848754527,12313.2224769444,16588.0872340518
561222237031,39218,-2,0,6496.4915138274,8946.2747536745,13355.7264053404,1157.3304833141,-6357.9379501046,-3616.4950174116,-6448.6846330101,-20683.4906307176,-8811.5540144508,-2935.3473492634,-5259.7424733500,-12.1798645198,-21895.8556067619,9435.2214828076,12316.0332149105,16591.0074812893
561222237031,39218,-2,0,6495.4937626880,8944.5347730288,13350.5429664938,1155.6391734557,-6358.0839624665,-3615.5337693626,-6448.1249189562,-20685.0115928205,-8812.7951195268,-2937.9512363835,-5256.9439030807,-13.4453049894,-21897.0115379601,9434.1993962744,12314.4027435362,16588.8659666484
561222237031,39218,-2,0,6500.0444812997,8948.4649391026,13361.7129121773,1160.3967429135,-6362.0627993276,-3607.7829464864,-6447.1393355136,-20687.0314304931,-8814.4255909011,-2937.5375346915,-5253.5856187576,-17.3754710632,-21899.1165495104,9430.7559380735,12312.2733965922,16585.8848809268
561222237031,39218,-2,0,6505.9823173493,8955.7168864091,13371.4714050293,1166.1885666012,-6360.9190358262,-3602.3196506129,-6449.0496639148,-20690.8885903859,-8816.5792732387,-2939.4843661832,-5258.1120019757,-18.7990915914,-21900.6983500974,9429.5148329976,12311.1661361813,16583.6946954987
561222237031,39218,-2,0,6511.6524640688,8960.0729218717,13371.3740634547,1168.2084042738,-6361.2597313373,-3608.3913313276,-6450.4854521399,-20689.4406344640,-8818.9154710287,-2941.8205639732,-5264.2810242649,-17.9351851170,-21901.8177782051,9430.7802734672,12311.2391423622,16585.2278252984
561222245636,39219,-2,0,6514.7308913650,8961.5817162777,13366.9936925985,1166.1398958139,-6361.5639237578,-3619.0989045318,-6451.5197063698,-20687.8466661802,-8817.5283535909,-2942.6723027508,-5265.5829678250,-15.4894780556,-21900.7105177942,9430.3422363816,12311.6893471447,16590.4964380227
561222245636,39219,-2,0,6521.7394847350,8969.0648498238,13367.1032018699,1170.4472604893,-6359.7996077185,-3619.0258983508,-6448.2830990149,-20684.5492203412,-8816.1169007594,-2942.9643274745,-5261.0930876973,-14.0293544369,-21899.3477357501,9431.1696397655,12310.9714530321,16589.9610593625
561222245636,39219,-2,0,6531.9360146727,8978.7381687981,13380.4268298910,1181.3495168426,-6357.0862113270,-3608.0384681197,-6444.7179638458,-20685.3279529379,-8813.3183304902,-2940.1414218116,-5256.2016735745,-16.2195398650,-21900.6740147038,9431.3034844306,12308.3310628216,16586.6392781298
561222245636,39219,-2,0,6541.3051412263,8987.9734506867,13396.1109910958,1190.9011588486,-6354.4093180259,-3597.9636151503,-6441.9193935765,-20684.7317357935,-8812.0772254142,-2936.5641189456,-5256.4815306014,-18.6530792296,-21900.4549961610,9431.2061428560,12306.2382189680,16583.0498075671
561222245636,39219,-2,0,6547.0482941268,8994.9212055726,13400.3331818933,1195.2085235239,-6349.9924440792,-3597.9757828471,-6439.8630528135,-20680.5460480864,-8807.3439913501,-2931.6483694292,-5256.8587292029,-12.4475538499,-21894.6266693828,9434.7104395410,12309.5965032911,16588.3184202914
561222245636,39219,-2,0,6554.7017754284,8999.9221289668,13397.8266363478,1197.3257027711,-6344.0424403328,-3602.6360107303,-6436.4926007935,-20672.3206850341,-8802.2457263813,-2929.1661592773,-5253.3909356084,-5.5363020544,-21887.6667468000,9440.5144309255,12313.6361786364,16596.4829448596
561222245636,39219,-2,0,6572.3814389121,9012.7225460245,13408.0475016791,1204.7845009236,-6340.9275099461,-3603.0010416350,-6434.1077322162,-20672.0408280072,-8798.7049266058,-2926.7082845191,-5247.9763105222,-5.1469357561,-21885.8780953671,9439.4558413019,12313.6726817268,16597.9552361752
561222245636,39219,-2,0,6589.9272577308,9026.8735774296,13426.0435252802,1215.0053662549,-6338.4574674911,-3592.5124869736,-6430.4574231693,-20673.4036100514,-8797.8166847377,-2925.3211670812,-5245.1047340720,-8.5782262602,-21889.1877089029,9436.4017493994,12310.8497760639,16592.0782386097
561222264676,39220,-2,0,6601.9367744950,9037.9218461449,13441.1801401279,1224.9828776497,-6340.3191251050,-3585.4308874227,-6432.5259316292,-20677.3824469125,-8801.7590185084,-2927.5600232967,-5248.7063723316,-13.3114603243,-21894.8943587129,9431.4616644893,12306.6032498727,16584.2300741589
561222264676,39220,-2,0,6613.0823847849,9049.6758412758,13448.2374042852,1230.7503659438,-6342.9595153155,-3591.8432636484,-6436.8576316982,-20679.3049430105,-8803.7788561810,-2930.2004135072,-5254.8145561367,-14.6620746716,-21897.2183888061,9429.2106405770,12304.0723689335,16583.6703601050
561222264676,39220,-2,0,6620.0179719739,9054.9444540002,13445.8038649207,1232.4781788926,-6342.6796582886,-3600.0686267007,-6436.4317623094,-20672.9899083594,-8803.8883654524,-2929.3973455169,-5256.0191581221,-9.0649341331,-21896.4883269967,9430.9871243132,12305.3499770999,16588.2089110200
561222264676,39220,-2,0,6632.6237058825,9064.8611269109,13450.7196144371,1240.0829894070,-6337.4353809579,-3599.7644342801,-6427.2694866017,-20665.0809054245,-8798.3763987916,-2925.0169746607,-5247.5139380429,-2.5430486360,-21893.2517196418,9433.5301729492,12308.4527397898,16592.9786481746
561222264676,39220,-2,0,6650.9360896010,9081.3605238028,13471.3195251584,1255.0127534087,-6328.3704468248,-3583.4597205374,-6417.6691738084,-20658.6198584115,-8791.7693394167,-2917.3756610559,-5237.4512527703,0.5232109634,-21890.1002861646,9435.0876381425,12309.3774847483,16593.4288529570
561222264676,39220,-2,0,6667.1069586787,9094.5016363715,13491.4205603099,1269.6018218994,-6323.3330203401,-3568.3352733864,-6412.1085363603,-20657.7316165434,-8788.5570674555,-2911.9367005760,-5233.7157698457,1.7156452520,-21887.6910821937,9436.0610538883,12309.1462985087,16591.4333506781
561222264676,39220,-2,0,6676.1840605086,9100.8288387195,13498.0519550784,1271.8893489021,-6324.2334299050,-3571.3528621985,-6415.0409512947,-20659.4594294923,-8788.9951045411,-2915.2219787182,-5239.8482890445,0.3528632079,-21886.0484431226,9435.9393769201,12309.0732923278,16589.4500160959
561222264676,39220,-2,0,6678.1673950908,9099.7459137022,13489.7535858451,1265.7568297034,-6328.1027574947,-3584.3966331927,-6419.7985207524,-20661.1020685634,-8791.2217930597,-2917.9353751097,-5245.4454295830,0.3406955110,-21885.2088720418,9436.4260847930,12309.3166462642,16593.6965422872
561222296901,39221,-2,0,6675.7338557262,9096.3511262886,13483.0491848957,1260.8775832774,-6328.8449870009,-3590.5899908756,-6420.3825701999,-20660.6275283873,-8790.7715882773,-2919.3224925475,-5242.9997225216,0.9004095649,-21884.0894439341,9436.5355940644,12309.9006957117,16596.7628018865
561222296901,39221,-2,0,6680.5035928808,9102.6661609397,13490.4228091704,1265.9880159430,-6326.7156400569,-3582.9365095740,-6417.6570061116,-20658.1088151449,-8789.3479677490,-2919.1399770952,-5238.7166932399,0.3528632079,-21884.1989532055,9436.4990909740,12308.7325968167,16593.0273189619
561222296901,39221,-2,0,6689.3495084711,9109.8937728526,13504.8050268151,1274.1403728144,-6322.5907908339,-3571.6083838318,-6415.5033237739,-20660.3720067540,-8787.9851857048,-2915.3558233833,-5237.1592280466,0.0973415746,-21886.3404678463,9436.5477617613,12307.9660319169,16590.6546180814
561222296901,39221,-2,0,6694.1800841098,9112.0231197966,13511.8987940629,1277.9488619200,-6322.7003001054,-3572.1072594016,-6416.9634473927,-20661.7956272823,-8787.5593163160,-2914.0052090359,-5242.3304991963,-0.9977511395,-21887.9101007365,9434.7956134188,12307.8200195550,16591.6036984336
561222296901,39221,-2,0,6691.0894891167,9107.8495997863,13503.7221017979,1270.4170575866,-6321.7268843595,-3582.1212738868,-6419.2509743954,-20661.8686334632,-8789.5548185950,-2917.6555180828,-5247.2219133192,0.9004095649,-21887.3625543795,9435.8663707392,12308.3797336089,16594.7186288203
561222296901,39221,-2,0,6682.8519583676,9095.7914122348,13489.5954057864,1262.0578498692,-6321.6417104818,-3588.2902961761,-6418.9711173685,-20660.6396960841,-8787.4254716510,-2917.0471332416,-5242.9023809470,2.9810857216,-21886.1944554845,9437.1439789056,12310.2778943132,16599.6222106399
561222296901,39221,-2,0,6677.1453085577,9092.7008172417,13490.6296600164,1260.6463970377,-6320.4006054058,-3579.1036850747,-6412.0111947857,-20658.7050322893,-8784.7972491372,-2913.1047994710,-5234.7621917725,4.6358924895,-21882.4954756503,9437.8983761086,12311.6285086606,16598.8921488305
561222296901,39221,-2,0,6674.6022599217,9089.6588930360,13499.1105447020,1263.0921040991,-6317.9305629508,-3567.1671744914,-6409.4073076656,-20658.2304921132,-8781.9378403838,-2908.7244286148,-5231.3309012684,4.9522526069,-21880.7919980951,9443.0331441679,12317.4568354388,16598.8556457401
561222324316,39222,-2,0,6666.5837477153,9082.7598089374,13496.5796637628,1257.7504851939,-6318.6484570633,-3567.6782177580,-6414.4812372408,-20663.2557509010,-8783.4101316994,-2908.9191117639,-5237.7676128877,0.2798570269,-21880.2079486476,9443.5441874345,12315.4856685535,16594.9741504536
561222324316,39222,-2,0,6656.0586899635,9073.3785146869,13483.7062405241,1245.7896392169,-6325.3528580128,-3584.2506208308,-6424.0207115500,-20669.9601518505,-8789.3844708394,-2914.8326124199,-5247.5626088302,-4.0761784357,-21882.7144941931,9441.1958219476,12312.7114336778,16592.6014495731
561222324316,39222,-2,0,6645.5944706958,9064.7759530331,13462.1815848443,1235.2280783746,-6331.1933524878,-3598.7788508374,-6430.5547647439,-20672.5153681833,-8793.5944939402,-2921.3423302201,-5251.5292779945,-6.3758731352,-21884.8803442276,9438.6162702212,12310.3630681910,16592.7961327223
561222324316,39222,-2,0,6638.2208464211,9060.3225759959,13457.1563260565,1232.2713280466,-6335.8170772805,-3597.9757828471,-6431.2969942501,-20675.7884786287,-8797.4516538331,-2924.7614530274,-5249.3147571727,-10.9144240502,-21888.4698147904,9434.5157563918,12308.5014105771,16586.9069674599
561222324316,39222,-2,0,6633.9499848362,9058.3027383233,13464.1040809424,1233.8652963304,-6338.9563430608,-3589.2637119219,-6432.5624347197,-20679.2562722232,-8799.1186282978,-2924.5302667878,-5250.6532038232,-15.7084965984,-21893.7140921211,9432.0700493304,12304.2062135986,16581.2246530436
561222324316,39222,-2,0,6626.5276897742,9052.6569269974,13462.2059202380,1230.5070120073,-6341.8035841174,-3588.8865133204,-6435.5313527445,-20682.6632273336,-8803.3408190954,-2927.7303710522,-5256.2381766650,-18.8234269851,-21895.2472219207,9429.7946900245,12303.4639840924,16578.8032813759
561222324316,39222,-2,0,6616.2216505652,9042.0831984583,13449.7948694786,1222.5128351946,-6343.9450987582,-3598.5719999915,-6439.4980219088,-20681.5072961355,-8804.6549303522,-2929.0566500059,-5260.4481997657,-16.1465336840,-21896.4639916030,9430.4274102593,12303.9993627526,16584.4490927017
561222324316,39222,-2,0,6604.2121338009,9033.1521089903,13436.7876015748,1212.8273485236,-6344.4318066311,-3608.5008405990,-6440.4349345641,-20680.3757003309,-8802.7567696479,-2929.2513331551,-5258.4526974867,-14.1145283146,-21894.5779985955,9430.8654473449,12304.2305489922,16589.1701590690
561222353339,39223,-2,0,6596.5708201961,9029.2949490974,13431.7380073933,1210.4059768558,-6345.3808869833,-3605.2033947600,-6439.5831957865,-20680.5338803896,-8802.0753786258,-2929.3730101233,-5254.5103637161,-14.1753667987,-21893.6897567274,9433.1894774381,12306.0678712125,16590.7032888687
561222353339,39223,-2,0,6595.9380999613,9031.1079359240,13442.0075435119,1214.3969814137,-6343.8477571836,-3595.0190325192,-6439.1938294882,-20685.0602636078,-8801.5643353592,-2927.5843586903,-5254.1575005082,-18.1420359630,-21892.3513100769,9434.6130979664,12304.5955798969,16586.9678059441
561222353339,39223,-2,0,6591.9714307971,9025.6689754442,13443.8935365194,1211.6714173254,-6346.0622780054,-3594.4836538589,-6442.7224615669,-20687.5668091533,-8802.6107572860,-2926.7326199127,-5257.8443126456,-21.4638171957,-21892.9718626149,9434.0777193062,12304.0115304494,16583.8650432542
561222353339,39223,-2,0,6583.5878876861,9012.8685583864,13427.6861643513,1199.2968696565,-6350.4304811648,-3604.7410222807,-6448.2952667118,-20689.6961560973,-8805.5675076140,-2932.2810896640,-5265.5586324313,-20.5634076308,-21892.4608193483,9433.9560423380,12305.5933310364,16586.9191351568
561222353339,39223,-2,0,6571.2255077139,9001.6499419157,13406.1615086715,1186.2652663591,-6353.7644300943,-3617.7847932749,-6450.0595827511,-20688.6375664737,-8807.5751775897,-2936.0895787696,-5265.9358310328,-19.1397871025,-21893.6897567274,9433.8100299761,12307.3698147726,16592.2485863652
561222353339,39223,-2,0,6560.7612884462,8993.5219204379,13397.6684562891,1180.5099457618,-6355.6869261923,-3616.8478806195,-6449.5850425750,-20688.0291816326,-8807.5630098929,-2936.2234234346,-5259.9249888023,-19.5169857040,-21895.1133772557,9432.8609496239,12307.9538642201,16595.0106535440
561222353339,39223,-2,0,6557.6585257564,8993.5340881348,13404.1781740894,1184.1602548087,-6357.2565590825,-3606.2619843836,-6447.2853478755,-20690.8642549923,-8810.3980832527,-2936.1625849505,-5258.7203868168,-21.8653511908,-21896.5613331776,9428.2980633153,12303.5734933638,16589.8637177879
561222353339,39223,-2,0,6558.1574013261,8993.9721252204,13410.4445379532,1187.5793776160,-6356.1736340653,-3602.9402031509,-6447.9667388975,-20691.6429875890,-8811.7608652968,-2937.6227085692,-5260.9714107291,-22.4128975479,-21896.6221716617,9432.6662664747,12308.1242119756,16590.8614689274
561222388281,39224,-2,0,6551.6476835258,8987.3894012392,13402.7423858643,1180.6437904269,-6359.7387692344,-3611.7374479539,-6452.4322836316,-20692.5312294570,-8814.4742616884,-2939.0706644912,-5266.5320481772,-21.9383573718,-21897.7537674663,9432.8731173207,12307.9051934328,16592.4432695144
561222388281,39224,-2,0,6541.6701721310,8976.2316232525,13388.4331744005,1169.6928632862,-6361.9654577530,-3623.9051447768,-6455.4742078373,-20692.8840926649,-8814.5959386566,-2942.5749611762,-5268.3693703974,-20.8676000513,-21895.0160356811,9433.1651420445,12308.1242119756,16594.2075855537
561222388281,39224,-2,0,6535.0266096657,8971.3767122202,13382.3249905954,1165.3854986109,-6361.0893835817,-3624.3918526497,-6453.6612210107,-20693.5289805965,-8814.4499262947,-2942.5141226921,-5264.0985088126,-21.5124879830,-21894.8821910161,9434.4427502109,12307.4793240440,16593.7087099840
561222388281,39224,-2,0,6531.3641329220,8971.5348922789,13386.7418645421,1168.5125966944,-6360.1889740168,-3613.7937887170,-6450.8748184382,-20692.8962603617,-8812.0285546269,-2940.2265956894,-5259.7181379563,-22.2668851860,-21895.8312713682,9433.7005207047,12307.1264608361,16591.1899967416
561222388281,39224,-2,0,6525.4262968724,8969.4907192126,13391.9618064791,1169.3643354720,-6361.8072776943,-3608.2088158752,-6451.5562094603,-20693.9913530758,-8814.4499262947,-2939.3383538213,-5261.6528017512,-24.0190335285,-21898.2283076424,9433.6640176142,12308.3067274279,16589.6446992451
561222388281,39224,-2,0,6518.3690327151,8962.5916351140,13383.6756049427,1163.5968471779,-6365.6887729808,-3615.2174092452,-6455.8514064388,-20695.8651783865,-8818.0515645543,-2943.5970477093,-5268.7100659085,-24.4570706141,-21900.3576545864,9433.3354898000,12306.9561130806,16589.0728174944
561222388281,39224,-2,0,6512.1270042449,8955.3153524139,13369.1595426329,1154.9334470400,-6368.0858092549,-3627.5189507332,-6458.3214488939,-20693.8088376234,-8818.2219123098,-2944.7529789075,-5269.3549538401,-21.7193388290,-21899.0922141168,9433.4693344651,12311.0566269099,16597.8943976911
561222388281,39224,-2,0,6511.1049177118,8954.1837566094,13364.7548363830,1153.6315034800,-6366.2971578220,-3626.2778456573,-6456.7761513973,-20694.7579179756,-8816.6887825101,-2944.8259850884,-5266.5320481772,-22.0600343400,-21898.5568354566,9433.3963282841,12309.3044785674,16599.4396951876
561222417060,39225,-2,0,6511.5064517069,8955.3396878076,13371.4592373325,1158.3160667568,-6363.9001215478,-3616.3003342625,-6454.7319783311,-20696.4492278340,-8816.5792732387,-2942.6601350539,-5261.8839879908,-23.4714871715,-21898.6785124248,9432.2282293891,12306.9317776869,16594.7672996076
561222417060,39225,-2,0,6513.3072708367,8956.4226128248,13381.6679349669,1160.6279291531,-6364.4841709953,-3608.3669959339,-6454.9874999644,-20699.8318475508,-8817.4675151068,-2940.7133035623,-5263.6483040301,-27.0974608247,-21899.1408849041,9429.1011313056,12305.6176664300,16590.3504256608
561222417060,39225,-2,0,6510.5452036579,8951.3486832496,13379.5629234166,1155.8581919986,-6368.0614738613,-3613.5626024773,-6459.7207340285,-20701.6570020742,-8819.2926696302,-2941.3703591907,-5268.8925813608,-28.6062552307,-21900.8930332466,9428.8212742787,12305.6541695205,16590.2895871767
561222417060,39225,-2,0,6501.7966296422,8943.5370218893,13362.3212970184,1145.3574696404,-6370.3368331672,-3627.2269260095,-6461.7649070948,-20699.7223382794,-8820.3999300411,-2944.5704634551,-5270.8150774588,-25.1749647267,-21899.7979405325,9430.3057332911,12307.4306532567,16594.0372377982
561222417060,39225,-2,0,6496.1021475291,8939.9840544170,13353.2198597949,1141.6706575030,-6370.0813115339,-3630.1715086406,-6459.6720632412,-20698.0066930274,-8818.6599493954,-2943.1833460173,-5265.7654832773,-23.5201579587,-21897.4495750457,9433.8465330666,12310.0102049831,16596.9331496421
561222417060,39225,-2,0,6496.7105323702,8942.7826246863,13362.1144461725,1146.3430530830,-6367.6721075629,-3619.1719107127,-6455.1821831135,-20697.6781652131,-8815.9222176103,-2941.1026698606,-5258.7933929978,-23.1064562668,-21894.1642969035,9437.0466373310,12312.5045828318,16595.9475661994
561222417060,39225,-2,0,6499.4239287618,8946.8953062124,13372.8463547703,1151.5751627169,-6365.5670960126,-3608.4765052053,-6453.1380100473,-20697.5929913354,-8815.8127083389,-2940.4456142322,-5258.9272376628,-23.4471517778,-21892.3148069864,9439.5653505734,12313.9647064506,16594.0372377982
561222417060,39225,-2,0,6497.0877309718,8944.9241393271,13373.3695657337,1150.7842624234,-6367.6112690788,-3614.2804965899,-6457.7982379305,-20698.2622146606,-8816.4697639673,-2942.8669858999,-5266.4225389058,-25.0532877584,-21891.4995712993,9440.5752694097,12313.8065263919,16594.6577903362
561222449534,39226,-2,0,6490.0669699049,8938.0372229253,13359.3645466905,1141.0622726619,-6372.6243601699,-3627.3972737650,-6462.7626582342,-20701.0729526267,-8820.7649609458,-2947.1135120911,-5273.1756106425,-24.1042074062,-21893.4585704878,9440.2102385050,12312.7236013746,16598.4419440481
561222449534,39226,-2,0,6484.1047984617,8932.9146225629,13346.0530863662,1133.4817975412,-6376.2259984295,-3636.1823508712,-6464.7459928164,-20701.7786790425,-8823.1498295231,-2952.6011433583,-5274.2220325693,-24.0920397094,-21895.8921098524,9439.4801766956,12311.8840302939,16599.5127013685
561222449534,39226,-2,0,6484.3359847013,8933.6325166754,13350.1536001955,1138.4583855417,-6376.4571846691,-3628.8330619901,-6463.8455832515,-20702.5209085487,-8824.0502390880,-2952.4672986932,-5270.9245867302,-27.5233302135,-21899.7005989579,9436.6937741231,12310.1197142545,16597.6753791483
561222449534,39226,-2,0,6488.0471322323,8936.6136023970,13361.6885767837,1142.9360979726,-6375.2890857741,-3619.6221154951,-6464.7946636037,-20705.2099695465,-8824.5247792641,-2950.2162747810,-5270.4257111605,-30.8572791430,-21900.5766731292,9434.4062471204,12308.6109198485,16595.2783428741
561222449534,39226,-2,0,6488.3391569561,8935.4333358052,13362.5768186517,1141.9018437426,-6376.2625015199,-3622.5545304295,-6467.3133768460,-20706.4997454098,-8826.6176231176,-2953.2581989867,-5277.3734660464,-31.9888749475,-21900.6010085228,9432.4959187192,12309.2436400833,16595.9840692899
561222449534,39226,-2,0,6483.8857799189,8930.3229031396,13352.0760962935,1134.4065424997,-6377.3697619308,-3633.2256005432,-6469.4670591837,-20706.6335900748,-8825.8632259146,-2954.0490992802,-5279.7096638364,-29.2998139496,-21900.2481453150,9431.8997015749,12310.4482420688,16601.5325390411
561222449534,39226,-2,0,6479.5054090626,8928.8992826113,13346.1869310312,1130.0991778244,-6377.4549358086,-3638.8957472627,-6467.0213521223,-20702.8129332724,-8824.6464562323,-2952.3577894218,-5275.1954483151,-25.7711818710,-21899.7005989579,9431.4129937020,12309.3409816579,16605.2436865721
561222449534,39226,-2,0,6482.2674762414,8933.4134981326,13349.9102462590,1137.0104296198,-6375.5567751042,-3631.4126137166,-6461.8622486693,-20701.1946295950,-8825.0236548338,-2952.9783419598,-5270.5352204319,-26.2457220471,-21902.6695169827,9432.4350802351,12311.4459932082,16603.3820289582
561222478388,39227,-2,0,6483.2895627745,8937.5018442651,13360.5569809791,1143.0821103345,-6375.2039118963,-3622.0556548597,-6461.0956837695,-20702.7885978788,-8824.8289716847,-2951.7494045807,-5269.8903325003,-28.1195473578,-21905.1760625283,9430.4882487434,12309.5356648070,16600.5347879016
561222478388,39227,-2,0,6484.0439599776,8933.9123737024,13363.7327498499,1142.2060361632,-6377.5036065959,-3623.1142444833,-6463.8334155547,-20705.0396217910,-8827.5423680762,-2952.9418388693,-5274.5992311708,-29.8838633971,-21904.6285161712,9429.2836467580,12306.9196099901,16600.7173033540
561222478388,39227,-2,0,6481.3548989797,8931.5761759123,13355.9575915800,1136.2560324168,-6377.6861220482,-3632.9700789099,-6466.4616380684,-20704.3095599816,-8828.7226346680,-2956.6773217940,-5281.3644706043,-28.9712861354,-21904.3851622348,9428.1520509534,12306.8831068996,16603.4915382296
561222478388,39227,-2,0,6475.3683921428,8925.5044951977,13343.1571745223,1130.2208547926,-6378.7447116718,-3638.8592441722,-6466.3034580097,-20703.3969827199,-8828.5522869125,-2958.5268117111,-5279.2107882667,-28.4359074752,-21904.9813793791,9426.9109458775,12305.4229832809,16605.5843820832
561222478388,39227,-2,0,6476.3053047982,8929.9700399317,13346.5032911486,1133.1532697269,-6375.3255888646,-3631.0962535992,-6463.3102045913,-20703.7376782310,-8827.3111818366,-2954.6818195150,-5273.2972876107,-29.1051308005,-21905.2003979219,9425.6820084984,12303.0867854909,16604.2094323422
561222478388,39227,-2,0,6482.1336315764,8938.1954029840,13360.0459377126,1142.7292471266,-6374.8267132948,-3620.5711958473,-6461.4120438869,-20703.5916658691,-8827.2868464429,-2953.8422484342,-5272.0805179284,-33.4124954758,-21905.8331181567,9425.9010270412,12302.6487484052,16600.1210862097
561222478388,39227,-2,0,6483.3017304714,8940.6776131359,13365.1685380750,1146.0996991466,-6374.5833593584,-3618.4905196906,-6463.4318815595,-20706.2320560797,-8827.5910388635,-2954.7183226055,-5277.9453477971,-34.1303895884,-21905.7236088853,9422.1047056324,12298.7307500283,16595.3391813582
561222478388,39227,-2,0,6481.6955944907,8937.8425397762,13358.4884725192,1140.6120678794,-6376.4450169723,-3629.1737575011,-6466.7171597017,-20706.7187639526,-8829.6717150202,-2957.3222097256,-5283.7615068784,-34.5197558867,-21908.0841420689,9422.4940719308,12301.0182770310,16599.3666890066
561222514538,39228,-2,0,6478.7631795564,8931.4910020346,13347.1481790802,1135.4651321233,-6377.0047310261,-3637.7884868518,-6466.7901658826,-20705.2099695465,-8829.7568888980,-2958.6363209825,-5283.4086436706,-31.6603471333,-21909.1305639957,9424.6720896621,12299.6676626836,16601.3743589824
561222514538,39228,-2,0,6478.5806641041,8931.5031697314,13347.7930670119,1137.1929450722,-6375.7636259502,-3630.7798934818,-6461.7649070948,-20704.4190692531,-8826.8974801446,-2955.9229245909,-5274.7087404422,-29.7500187321,-21907.1959002009,9426.8622750902,12301.2616309674,16600.5469555985
561222514538,39228,-2,0,6484.4089908823,8938.2440737713,13363.9882714832,1144.6639109214,-6371.4805966685,-3615.8988002673,-6456.2407727371,-20701.2433003823,-8823.0038171612,-2948.9508343114,-5268.8074074831,-29.1903046782,-21904.8840378045,9428.4927464645,12302.4053944688,16601.1553404396
561222514538,39228,-2,0,6485.9421206819,8939.0349740648,13370.2546353470,1146.8662640464,-6370.4463424386,-3611.5671001984,-6456.2407727371,-20701.2433003823,-8822.0912398995,-2946.9674997293,-5270.0120094685,-28.7400998958,-21904.1904790856,9428.5049141613,12302.8799346449,16598.7218010750
561222514538,39228,-2,0,6484.1047984617,8936.0538883432,13361.7007444805,1144.1893707454,-6370.5436840132,-3620.2061649426,-6457.7252317495,-20699.7831767635,-8822.9429786771,-2948.2816109861,-5275.1832806183,-27.2556408834,-21902.7911939510,9429.0402928215,12303.9020211780,16602.4816193933
561222514538,39228,-2,0,6481.5739175225,8933.1823118930,13353.0373443425,1139.3101243194,-6371.9916399351,-3628.2246771490,-6458.7108151922,-20698.0066930274,-8821.7748797821,-2948.2451078957,-5273.2607845203,-26.3065605312,-21903.1197217652,9429.1863051834,12300.8114261850,16603.0535011440
561222514538,39228,-2,0,6480.8681911068,8935.4090004116,13351.5163822397,1139.6629875272,-6372.6851986540,-3626.9835720730,-6457.2871946639,-20700.0021953063,-8820.9353087013,-2949.3036975193,-5270.1580218304,-26.8419391914,-21901.8299459020,9429.0159574279,12303.0016116131,16604.7326433056
561222514538,39228,-2,0,6481.8659422463,8939.1931541235,13358.7561618493,1143.1429488186,-6371.7726213923,-3617.4562654607,-6456.9951699402,-20701.3528096537,-8821.9330598408,-2947.1256797880,-5268.6613951212,-29.8595280035,-21900.9903748212,9429.7581869341,12301.7726742340,16598.8556457401
561222545582,39229,-2,0,6482.3769855128,8939.4851788473,13364.9130164417,1143.6904951756,-6371.6752798177,-3615.5459370595,-6460.5846405029,-20705.2099695465,-8823.7095435770,-2946.8701581547,-5272.7740766473,-31.7820241015,-21900.3576545864,9429.0646282152,12300.9209354564,16596.1544170454
561222545582,39229,-2,0,6476.2079632236,8931.6735174869,13356.7971626608,1136.9860942262,-6373.6342790062,-3625.9614855399,-6466.0357686796,-20706.1103791114,-8824.8654747751,-2949.4010390938,-5279.8556761983,-32.3539058522,-21900.3454868896,9428.9551189437,12301.0061093342,16597.6023729673
561222545582,39229,-2,0,6472.0344432133,8926.5387494276,13343.7777270603,1128.6998926897,-6375.5811104979,-3636.3770340203,-6467.4837246015,-20705.9035282655,-8825.4251888290,-2952.8444972947,-5281.4861475726,-29.7986895194,-21898.5690031534,9430.8046088608,12301.6388295689,16602.7858118139
561222545582,39229,-2,0,6472.3143002402,8926.7699356673,13342.7921436176,1129.1622651690,-6375.0457318376,-3635.9024938442,-6465.1596945084,-20702.5330762455,-8822.8091340121,-2950.4961318079,-5273.7353246963,-30.3827389669,-21896.4153208157,9429.7581869341,12301.5414879944,16605.6695559609
561222545582,39229,-2,0,6478.7145087691,8935.5185096830,13357.5515598639,1139.7481614050,-6369.8379575974,-3620.7658789965,-6460.1831065078,-20701.9976975853,-8820.2174145888,-2945.8359039247,-5268.8195751799,-29.2511431624,-21897.1453826251,9430.2692302006,12303.0624500972,16604.5866309437
561222545582,39229,-2,0,6485.3094004471,8941.2129917961,13368.5268223981,1147.3286365257,-6367.9641322867,-3614.3535027708,-6459.4652123952,-20702.2775546122,-8820.3390915570,-2946.4077856754,-5271.7884932047,-31.3561547127,-21897.9727860091,9428.7361004009,12302.3445559847,16602.5667932711
561222545582,39229,-2,0,6482.6690102366,8937.2219872382,13364.3167992974,1142.4615577965,-6371.7847890891,-3623.1142444833,-6464.8920051783,-20705.1126279720,-8822.9429786771,-2948.5493003162,-5279.9408500760,-30.9181176271,-21898.5568354566,9426.5459149728,12301.0912832119,16602.2504331537
561222545582,39229,-2,0,6477.6315837519,8930.8096110125,13350.8958297017,1132.6543941572,-6373.5734405221,-3635.0020842793,-6466.5346442493,-20705.5750004512,-8825.8023874305,-2952.1752739695,-5281.8633461741,-30.0055403654,-21902.2436475939,9426.7405981220,12301.6266618721,16606.2049346211
561222597188,39230,-2,0,6473.9447716145,8929.1913073350,13345.4933723123,1131.1942705384,-6375.9826444930,-3637.5573006122,-6466.7901658826,-20707.3879872779,-8827.1408340810,-2956.1906139211,-5280.3180486776,-31.6846825269,-21906.1251428805,9425.5481638333,12299.7650042582,16605.1098419071
561222597188,39230,-2,0,6475.3318890523,8930.4932508951,13352.2829471395,1134.9540888567,-6377.5157742927,-3629.1250867139,-6465.7194085622,-20708.7386016252,-8826.6419585113,-2954.3046209135,-5277.1544475036,-33.6071786250,-21908.3883344895,9425.8888593444,12300.6045753390,16602.0922530950
561222597188,39230,-2,0,6477.0840373948,8932.3062377217,13360.5934840696,1138.8112487496,-6377.1507433880,-3624.4526911338,-6465.9505948018,-20709.4686634346,-8827.7492189222,-2952.9175034757,-5278.8335896652,-36.5517612561,-21909.5442656877,9424.2948910606,12300.3368860089,16600.6808002635
561222597188,39230,-2,0,6475.1250382063,8931.2111450077,13356.4564671498,1137.6431498546,-6377.9659790752,-3628.4680310854,-6469.7469162106,-20708.2762291459,-8829.2458456314,-2954.0734346739,-5285.0999535290,-35.3836623611,-21905.9182920345,9423.8933570654,12300.0691966788,16603.1508427186
561222597188,39230,-2,0,6469.8685931788,8925.0299550216,13343.7655593635,1129.7219792229,-6378.6473700972,-3638.2021885438,-6472.3508033307,-20707.8260243635,-8827.7005481349,-2955.3632105371,-5286.1950462430,-32.6215951823,-21901.9881259607,9425.4021514714,12301.3711402388,16608.0300891446
561222597188,39230,-2,0,6468.5666496188,8923.1317943172,13340.1760888007,1125.7796454522,-6379.0124010019,-3640.9034172385,-6470.8055058342,-20707.6678443048,-8825.9240643987,-2954.1099377643,-5281.4496444821,-33.0231291775,-21900.9295363371,9426.1322132808,12299.0592778425,16608.3221138683
561222597188,39230,-2,0,6472.4359772085,8928.1448854083,13349.5938861416,1132.3380340398,-6376.5788616373,-3630.2080117311,-6466.6806566112,-20706.9742855859,-8824.8776424720,-2951.9562554267,-5275.1467775278,-32.8162783315,-21900.9903748212,9425.5724992270,12303.9993627526,16609.5023804602
561222597188,39230,-2,0,6478.2156331994,8933.3161565580,13359.5957329301,1138.9450934147,-6375.9339737057,-3621.8366363169,-6463.8820863419,-20706.6214223780,-8825.0723256211,-2949.0360081892,-5274.1125232979,-31.3074839254,-21904.0688021174,9429.1011313056,12303.7803442098,16608.3342815652
561222604398,39231,-2,0,6478.8240180405,8936.7961178494,13362.8931787691,1139.9793476446,-6375.7271228597,-3623.7834678086,-6463.9185894324,-20705.0274540942,-8824.9141455624,-2949.7052315144,-5277.1909505941,-29.4214909179,-21906.2833229392,9428.3102310121,12305.2161324349,16610.1837714822
561222604398,39231,-2,0,6477.5585775709,8932.6712686264,13353.5362199123,1134.4917163775,-6374.6441978425,-3633.6879730225,-6464.6729866354,-20702.1072068567,-8823.7582143643,-2950.0702624191,-5278.3712171859,-25.7468464773,-21902.6816846796,9429.0037897310,12307.8321872518,16615.8904212922
561222604398,39231,-2,0,6478.1669624121,8933.5716781913,13348.9733336037,1135.4286290328,-6371.3102489130,-3633.6027991447,-6461.6797332170,-20699.4546489493,-8820.3755946475,-2948.9021635241,-5272.2995364712,-23.4349840810,-21900.3211514959,9430.1718886260,12307.9295288264,16619.1391963439
561222604398,39231,-2,0,6482.0119546081,8938.0858937126,13360.0459377126,1142.9847687599,-6368.9132126389,-3622.0921579502,-6457.1898530893,-20698.7489225336,-8818.1732415225,-2944.4122833964,-5266.7997375073,-24.4935737046,-21899.5910896865,9428.6995973105,12307.4793240440,16615.1603594828
561222604398,39231,-2,0,6483.1192150190,8940.6167746518,13369.6462505059,1147.0487794987,-6367.5382628979,-3613.4287578123,-6456.1069280721,-20699.8440152476,-8818.8668002414,-2943.9864140076,-5268.0651779769,-26.5377467708,-21898.2161399455,9427.1542998140,12306.5789144791,16610.7069824456
561222604398,39231,-2,0,6480.6978433513,8935.6280189544,13367.0910341730,1141.0014341777,-6369.4729266927,-3618.2958365414,-6461.1565222536,-20703.5064919913,-8821.4950227552,-2946.8458227610,-5275.5848146134,-28.5575844434,-21901.1120517894,9426.9961197553,12306.0678712125,16609.0035048904
561222604398,39231,-2,0,6475.1250382063,8925.9790353738,13353.5727230027,1129.5637991642,-6373.7681236712,-3632.3738617656,-6467.3012091492,-20706.6214223780,-8825.7415489464,-2949.8755792699,-5281.6321599344,-29.7986895194,-21902.0854675352,9426.3025610363,12304.6685860779,16611.9115844311
561222604398,39231,-2,0,6471.4625614626,8923.3264774664,13340.9913244878,1124.1735094716,-6374.7415394171,-3638.3116978152,-6466.7658304890,-20705.7331805099,-8824.1354129658,-2951.8345784584,-5278.7484157874,-28.2898951133,-21902.6330138923,9425.5116607429,12304.6320829874,16615.6592350526
561222636223,39232,-2,0,6476.2809694045,8929.7875244794,13350.1170971050,1131.7904876828,-6370.3246654703,-3627.9448201220,-6460.7793236521,-20704.0175352579,-8820.6919547649,-2947.8314062037,-5271.0827667889,-28.5940875339,-21901.2702318481,9425.7306792857,12304.5590768065,16612.1671060644
561222636223,39232,-2,0,6481.0872096496,8936.5770993066,13363.8544268181,1141.9870176204,-6366.0538038855,-3613.7329502328,-6455.9122449229,-20702.3383930963,-8817.4310120163,-2943.1711783205,-5266.2278557566,-28.4237397784,-21900.6253439165,9426.1565486745,12304.9241077111,16610.9503363821
561222636223,39232,-2,0,6484.0561276744,8941.1034825247,13370.8995232786,1145.0654449166,-6363.7054383987,-3611.5671001984,-6453.4787055583,-20700.1847107587,-8816.8956333561,-2943.1833460173,-5271.1436052731,-26.7689330105,-21899.0435433295,9425.5968346206,12305.8488526697,16610.6339762647
561222636223,39232,-2,0,6481.0020357718,8937.8790428666,13361.5668998154,1141.4029681729,-6365.1533943206,-3624.0024863514,-6457.6765609622,-20698.5785747780,-8818.5626078209,-2946.6511396119,-5275.0859390437,-25.6981756901,-21896.9750348696,9423.8325185813,12304.1210397208,16613.2378633848
561222636223,39232,-2,0,6479.7244276054,8934.3382430912,13352.8426611934,1138.2637023926,-6363.9366246383,-3629.5752914963,-6456.8126544878,-20697.7146683036,-8817.2119934735,-2945.6777238660,-5271.7276547206,-23.0091146922,-21896.0989606983,9426.3390641268,12307.4671563471,16617.9954328426
561222636223,39232,-2,0,6481.5739175225,8937.9885521380,13357.3447090179,1141.3664650824,-6364.2043139684,-3624.4648588307,-6455.0118353580,-20699.2721334970,-8817.1268195958,-2945.1910159931,-5267.4081223484,-24.2745551618,-21896.2936438475,9425.0249528699,12302.7704253735,16611.9359198247
561222636223,39232,-2,0,6484.9322018456,8943.2693325592,13367.3465558063,1148.7035862667,-6364.7275249318,-3614.6211921009,-6452.4322836316,-20701.0729526267,-8818.2219123098,-2943.4753707411,-5266.9944206564,-26.3917344090,-21896.7195132363,9424.0515371241,12304.2792197795,16611.4735473455
561222636223,39232,-2,0,6484.1291338553,8941.7483704563,13369.6584182027,1147.8153443986,-6365.4940898316,-3613.3679193281,-6455.8027356515,-20703.2266349644,-8818.0150614638,-2942.9521597777,-5271.4599653905,-27.2069700961,-21898.9096986644,9421.5206561849,12302.5514068307,16609.8917467585
561222672567,39233,-2,0,6478.2521362898,8935.7983667099,13359.9972669253,1140.7459125445,-6368.8280387611,-3625.8398085717,-6460.4872989283,-20703.1657964803,-8822.2494199582,-2946.6146365214,-5277.5803168924,-28.0100380864,-21899.5180835056,9418.5395704633,12302.5514068307,16612.6659816341
561222672567,39233,-2,0,6472.8740142941,8930.6027601665,13345.3351922536,1132.3623694335,-6370.9938887956,-3633.8461530812,-6460.3777896569,-20702.2653869154,-8821.3976811806,-2948.5371326194,-5275.6943238848,-25.1262939394,-21898.1674691582,9420.0118617789,12303.9993627526,16616.3406260746
561222672567,39233,-2,0,6474.6870011207,8934.2165661229,13349.3626999020,1134.6620641330,-6367.4530890201,-3625.6816285130,-6455.7662325610,-20703.0319518152,-8817.7230367401,-2943.8890724331,-5267.2256068961,-25.2358032108,-21896.4761592999,9422.3480595689,12305.4594863713,16617.1801971554
561222672567,39233,-2,0,6480.8925265004,8939.6676942996,13363.7327498499,1142.8387563980,-6366.3336609124,-3613.9763041693,-6454.0870903995,-20702.9589456343,-8817.0659811116,-2940.1049187211,-5265.2666077076,-26.8419391914,-21896.9020286887,9422.4210657498,12305.7758464887,16614.7101547004
561222672567,39233,-2,0,6482.7055133270,8940.7749547105,13367.5412389555,1144.9924387357,-6365.2142328047,-3611.6644417729,-6456.2894435244,-20703.2753057517,-8818.7329555764,-2941.3946945844,-5270.6203943097,-26.0388712011,-21896.9263640823,9423.0537859846,12306.3598959362,16613.4933850181
561222672567,39233,-2,0,6480.1624646910,8937.5870181429,13361.6764090868,1139.4561366812,-6370.0326407466,-3623.0290706056,-6460.5359697156,-20703.9810321674,-8820.8014640363,-2943.2806875919,-5275.7308269753,-24.8707723061,-21897.6320904980,9422.3602272657,12307.3089762884,16618.3969668377
561222672567,39233,-2,0,6477.1083727885,8936.6136023970,13352.8548288902,1134.7837411012,-6369.6432744483,-3632.0088308609,-6459.0636784001,-20699.6249967048,-8820.3025884665,-2942.7696443253,-5272.7497412537,-22.1087051273,-21896.5369977840,9423.3093076179,12308.3553982152,16624.5294860365
561222672567,39233,-2,0,6478.5076579231,8939.1201479426,13351.7354007825,1138.8842549305,-6367.7816168344,-3625.8641439653,-6454.4521213042,-20699.4059781620,-8818.6112786082,-2943.4266999538,-5267.1404330183,-22.3155559733,-21896.3788177253,9422.6765873831,12307.1994670170,16623.4708964129
561222696932,39234,-2,0,6479.5784152435,8942.6974508085,13363.7692529404,1145.8441775133,-6364.8857049905,-3615.4242600912,-6453.4422024679,-20702.2897223090,-8817.5405212877,-2941.5893777335,-5266.2400234534,-24.3962321300,-21897.1818857156,9420.2673834122,12306.4450698140,16618.6768238647
561222696932,39234,-2,0,6482.9732026571,8945.3865118064,13370.1816291661,1148.5575739048,-6365.6766052840,-3612.0173049808,-6454.8049845120,-20704.0418706515,-8818.9519741192,-2941.3460237971,-5270.9732575175,-26.6959268295,-21899.5424188992,9419.2939676663,12303.6343318479,16616.2676198937
561222696932,39234,-2,0,6481.1602158305,8942.7947923831,13365.1685380750,1144.6274078310,-6366.5040086679,-3621.1065745075,-6457.5427162972,-20702.5209085487,-8820.5337747062,-2945.1058421154,-5277.4464722273,-25.3453124822,-21897.3035626838,9417.7243347762,12305.3013063127,16619.7962519724
561222696932,39234,-2,0,6481.4644082511,8941.8700474246,13357.7827461035,1142.5588993711,-6366.0903069760,-3626.8375597111,-6455.3403631722,-20698.3108854479,-8817.5770243782,-2942.7453089317,-5273.2972876107,-20.3930598753,-21894.9308618033,9420.0605325662,12307.8930257359,16626.4763175282
561222696932,39234,-2,0,6482.6690102366,8945.1674932636,13358.6831556684,1144.3718861977,-6362.1966439926,-3622.7735489723,-6449.8648996019,-20695.7556691151,-8814.6446094439,-2937.2090068773,-5264.9867506806,-18.4218929899,-21892.9840303117,9423.5526615544,12309.4869940197,16628.8368507118
561222696932,39234,-2,0,6486.9277041246,8950.5334475625,13369.8531013518,1150.9789455726,-6359.9091169899,-3609.4742563448,-6447.5408695087,-20695.3906382104,-8812.0285546269,-2936.1260818600,-5261.7744787194,-19.6021595818,-21893.0935395831,9424.5382449970,12308.0268704010,16620.3194629357
561222696932,39234,-2,0,6491.0647210444,8953.7578872206,13379.3804079642,1155.2011363701,-6358.8140242758,-3604.0596312586,-6448.3196021054,-20698.3352208416,-8812.1745669888,-2935.0309891460,-5265.3274461917,-21.9870281591,-21893.8236013925,9421.0826190993,12306.8831068996,16617.2532033364
561222696932,39234,-2,0,6488.3878277434,8949.0246531564,13374.5863354160,1149.9811944331,-6360.8216942516,-3613.2219069663,-6454.0627550058,-20700.5010708761,-8813.7320321822,-2937.1725037868,-5271.7884932047,-21.8166804035,-21894.6996755637,9422.9807798037,12307.1021254424,16622.2419590338
561222750445,39235,-2,0,6485.9056175915,8945.7515427111,13364.4019731752,1144.7734201929,-6361.6125945451,-3623.5279461753,-6454.3304443359,-20696.8994326165,-8814.2552431455,-2939.2288445499,-5272.9322567060,-17.4849803346,-21891.4630682088,9422.6157488990,12306.7249268409,16625.4785663887
561222750445,39235,-2,0,6485.6865990487,8949.7060441785,13361.4208874535,1148.5089031175,-6360.5053341342,-3622.4450211581,-6451.2641847366,-20695.0986134867,-8811.2254866366,-2939.2410122467,-5266.9822529596,-15.9031797476,-21890.2462985265,9424.0880402146,12309.2679754769,16630.6863406289
561222750445,39235,-2,0,6489.4099142765,8953.1860054699,13372.8220193766,1152.4512368881,-6358.7045150044,-3610.7396968144,-6448.4899498609,-20695.9625199611,-8810.6414371891,-2935.0431568428,-5262.8817391303,-18.8112592883,-21889.5892428981,9424.4895742097,12308.6474229390,16626.6710006773
561222750445,39235,-2,0,6492.4640061790,8955.4370293821,13380.9378731575,1156.0528751477,-6358.6071734299,-3604.3516559823,-6448.6116268292,-20696.1937062007,-8811.2011512430,-2934.5442812730,-5264.8650737124,-19.6508303691,-21888.3846409126,9425.9983686158,12309.9371988022,16623.5682379875
561222750445,39235,-2,0,6490.5901808683,8951.8840619098,13378.1393028883,1151.5751627169,-6360.8947004326,-3610.6180198462,-6451.7387249127,-20696.5465694086,-8812.3814178348,-2934.9579829650,-5271.2166114540,-20.8310969609,-21888.1047838857,9427.3854860536,12311.8231918097,16625.8070942029
561222750445,39235,-2,0,6486.0029591661,8944.1089036400,13366.2757984859,1142.3155454346,-6363.9122892447,-3623.4427722975,-6455.0605061453,-20697.6538298195,-8813.8415414536,-2937.8903978993,-5272.8470828283,-19.5413210976,-21885.1967043450,9427.3246475695,12310.4117389783,16630.0292850005
561222750445,39235,-2,0,6484.3968231854,8945.3986795032,13360.1067761967,1143.3984704519,-6363.3525751908,-3624.9150636131,-6453.0406684727,-20697.8363452718,-8814.0848953900,-2940.2874341735,-5269.7199847448,-18.2028744471,-21885.6225737338,9430.2448948070,12312.8087752524,16631.3920670446
561222750445,39235,-2,0,6483.3260658650,8949.3166778802,13366.6408293906,1149.4823188633,-6363.1092212543,-3615.7041171182,-6451.3128555238,-20698.6515809590,-8814.7054479280,-2940.8958190146,-5266.4103712089,-20.8310969609,-21888.9078518760,9427.6410076869,12311.7258502352,16628.6543352595
561222759338,39236,-2,0,6484.6766802124,8951.1174970100,13375.3529003158,1151.2831379931,-6366.7716979980,-3611.5184294111,-6453.8194010694,-20702.9224425438,-8817.1389872926,-2941.7962285795,-5269.4036246274,-25.6616725996,-21893.0083657053,9422.6765873831,12308.3067274279,16624.7728399729
561222759338,39236,-2,0,6481.7686006717,8948.7691315232,13370.6440016453,1147.4989842812,-6368.5116786437,-3617.8821348495,-6458.8324921604,-20705.1612987593,-8820.3025884665,-2945.7750654406,-5277.5924845892,-28.0343734801,-21893.2030488545,9420.9366067374,12306.6397529632,16623.0936978114
561222759338,39236,-2,0,6476.8163480647,8939.3635018790,13358.2207831891,1139.3709628035,-6369.1200634849,-3629.6239622836,-6461.2295284345,-20704.5042431308,-8821.5923643298,-2948.1599340179,-5281.5226506630,-27.2799762770,-21892.0957884436,9421.0339483120,12306.7857653251,16626.2938020758
561222759338,39236,-2,0,6472.1196170911,8936.3459130669,13351.3338667873,1134.9662565536,-6369.5581005705,-3632.5442095211,-6459.8059079063,-20704.1878830134,-8821.7018736012,-2947.1500151816,-5276.9719320512,-27.7788518468,-21896.4396562094,9418.1745395586,12305.6906726110,16627.4740686676
561222759338,39236,-2,0,6474.5774918493,8939.1688187299,13358.5006402160,1139.7116583145,-6367.8424553185,-3623.0899090897,-6456.9343314560,-20705.1369633656,-8821.5923643298,-2947.9165800814,-5273.8691693614,-28.2412243260,-21899.1773879946,9414.9500999005,12303.3301394273,16622.4001390925
561222759338,39236,-2,0,6479.9677815419,8942.6487800212,13369.4880704472,1146.5742393226,-6367.3557474455,-3615.0835645802,-6455.5350463214,-20705.6966774195,-8820.7162901585,-2946.5294626436,-5274.3680449311,-28.7522675926,-21901.1120517894,9413.7089948246,12302.4418975593,16619.9544320311
561222759338,39236,-2,0,6482.2553085446,8945.7272073174,13375.5475834650,1148.3872261493,-6366.5770148489,-3617.0790668591,-6456.7274806101,-20705.6236712385,-8820.6676193712,-2945.7750654406,-5277.8480062225,-27.3894855484,-21900.1751391340,9413.8550071865,12303.6464995447,16620.4533076008
561222759338,39236,-2,0,6480.8803588036,8943.4153449211,13365.7890906130,1143.4228058455,-6365.5670960126,-3627.5676215205,-6458.3579519843,-20703.3239765390,-8819.8402159873,-2946.8823258515,-5280.2207071030,-25.2723063013,-21896.8776932950,9415.4246400766,12303.5248225765,16624.3469705841
561222790427,39237,-2,0,6479.3350613071,8942.2472460261,13357.6245660448,1139.4683043780,-6365.8956238268,-3630.5000364549,-6455.7784002579,-20700.0143630031,-8819.8402159873,-2947.7097292355,-5275.6213177039,-23.9095242571,-21893.8357690893,9417.0551114509,12304.2548843859,16625.3690571173
561222790427,39237,-2,0,6483.4964136205,8947.7105418996,13366.0446122463,1147.6084935526,-6364.2408170589,-3621.8244686201,-6455.1700154167,-20700.6105801475,-8818.4165954590,-2945.7750654406,-5272.0196794443,-27.2921439739,-21893.6775890306,9414.4268889372,12300.3490537057,16620.4898106913
561222790427,39237,-2,0,6486.0759653470,8950.4726090784,13376.1803036998,1152.2687214358,-6363.5594260368,-3612.9542176362,-6455.2065185072,-20703.7011751405,-8817.9420552829,-2945.9454131961,-5273.8570016646,-29.6526771575,-21894.8456879256,9412.6382375042,12299.3269671726,16616.1946137128
561222790427,39237,-2,0,6485.9542883788,8950.2292551419,13377.5795888344,1150.7842624234,-6364.6666864477,-3614.2561611962,-6458.1511011383,-20705.8791928718,-8819.8888867746,-2947.5150460863,-5282.3378863502,-30.5409190256,-21895.9894514269,9411.8595049075,12299.8745135296,16616.6448184952
561222790427,39237,-2,0,6482.1944700605,8946.0922382221,13367.8819344665,1145.3696373372,-6367.5504305947,-3627.0565782540,-6462.2881180581,-20704.5164108276,-8820.5946131903,-2949.1090143701,-5291.0864603659,-29.3241493433,-21898.1309660678,9412.1150265408,12299.9718551042,16621.2198725006
561222790427,39237,-2,0,6476.9623604266,8941.8822151214,13356.5416410275,1139.9306768573,-6370.0326407466,-3634.1138424113,-6462.6288135692,-20703.1657964803,-8820.3390915570,-2950.0094239350,-5294.7611048064,-27.7910195436,-21897.7050966790,9413.0762745898,12299.3147994758,16626.1842928044
561222790427,39237,-2,0,6479.1525458547,8945.6298657428,13360.0824408030,1144.3110477136,-6368.9740511230,-3626.2413425668,-6459.5747216666,-20703.4821565977,-8819.8037128968,-2948.3181140766,-5294.3960739017,-28.8009383799,-21895.6609236127,9412.5530636264,12298.6942469378,16622.0351081878
561222790427,39237,-2,0,6482.8150225984,8948.4284360121,13372.2988084133,1148.7279216603,-6368.0006353772,-3615.7041171182,-6460.4751312315,-20707.1324656446,-8818.1975769162,-2945.5560468978,-5294.9801233492,-31.1128007763,-21896.0746253047,9414.7554167514,12301.4441464198,16622.6313253321
561222824474,39238,5,0,6481.9632838208,8947.1629955425,13373.8927766971,1146.7202516845,-6369.5337651769,-3616.8113775290,-6462.9816767770,-20708.7872724125,-8819.5481912635,-2945.4952084137,-5299.8958728657,-32.3052350649,-21895.9651160333,9414.2687088785,12301.5171526007,16620.3437983294
561222824474,39238,5,0,6482.1701346668,8944.6321146034,13367.4560650777,1143.2281226963,-6368.6941940961,-3625.8884793590,-6464.7824959068,-20706.6700931653,-8819.8888867746,-2947.6367230545,-5301.4655057558,-29.0564600132,-21896.0381222142,9414.3903858467,12302.9772762195,16623.4465610192
561222824474,39238,5,0,6479.2863905198,8941.7727058500,13357.6367337416,1138.3002054830,-6369.5459328737,-3633.2012651495,-6464.2714526403,-20704.8206032482,-8820.5094393125,-2947.0891766975,-5296.4037438775,-27.1461316120,-21896.8655255982,9414.4877274213,12302.9042700385,16627.9242734501
561222824474,39238,5,0,6481.5374144320,8943.3545064370,13361.0923596393,1140.0158507351,-6368.4143370691,-3626.2535102636,-6460.9375037108,-20704.5285785245,-8818.8302971510,-2946.5172949468,-5290.1617154073,-28.1560504483,-21896.2206376666,9415.9356833432,12303.2084624591,16625.9044357775
561222824474,39238,5,0,6484.7496863933,8949.9615658118,13371.3983988484,1147.7423382177,-6365.6887729808,-3615.2295769421,-6457.8712441114,-20703.9323613801,-8817.6256951655,-2946.4077856754,-5288.4582378521,-28.7644352894,-21895.4175696763,9416.7509190303,12303.9263565717,16622.7043315130
561222824474,39238,5,0,6486.0029591661,8950.0224042959,13377.0198747806,1147.9005182763,-6367.2219027805,-3614.3778381645,-6459.3678708206,-20704.3217276785,-8818.0637322511,-2946.7363134896,-5291.0621249722,-28.7157645021,-21895.5392466445,9416.7630867272,12299.7650042582,16618.6646561678
561222824474,39238,5,0,6483.1435504127,8945.9097227698,13371.3253926674,1142.7779179139,-6366.9907165409,-3625.3409330019,-6462.0325964249,-20702.8372686661,-8817.9663906765,-2948.0869278370,-5294.4082415985,-25.7225110837,-21892.7406763752,9417.4931485365,12303.9506919653,16626.8778515233
561222824474,39238,5,0,6484.0196245839,8943.1476555910,13362.5646509549,1139.6386521336,-6362.6711841687,-3630.2566825184,-6459.3800385175,-20699.6371644016,-8813.8050383631,-2948.5127972258,-5291.2203050309,-20.9892770196,-21888.4454793967,9422.1533764197,12307.1994670170,16630.5889990543
561222852163,39239,5,0,6486.2098100120,8946.9926477870,13364.9373518354,1144.0190229898,-6359.2277259678,-3623.1629152706,-6455.1700154167,-20699.1504565287,-8811.6635237223,-2945.5438792010,-5284.8687672893,-20.5147368435,-21887.1192004430,9421.8735193928,12306.7735976282,16629.5060740371
561222852163,39239,5,0,6490.9795471666,8953.8917318856,13379.2100602087,1151.1006225408,-6355.7964354638,-3610.1921504574,-6452.6391344775,-20701.3528096537,-8808.3417424896,-2941.8083962763,-5282.9584388881,-24.5422444919,-21887.2895481985,9421.2164637644,12305.0092815889,16626.9265223106
561222852163,39239,5,0,6492.9385463551,8957.3595254802,13385.0262192901,1155.5783349716,-6354.1659640895,-3607.8316172737,-6453.9775811281,-20701.6570020742,-8808.6946056975,-2940.5551235036,-5286.7182572064,-25.4548217536,-21887.5815729223,9420.6324143169,12305.5811633396,16625.4177279046
561222852163,39239,5,0,6491.9164598220,8954.3906074554,13377.8107750741,1150.2123806727,-6354.2146348768,-3616.0326449324,-6455.4620401405,-20699.2964688906,-8809.3394936291,-2940.5429558067,-5290.1373800137,-22.8996054208,-21886.3161324527,9421.4233146103,12305.0336169825,16628.5934967753
561222852163,39239,5,0,6486.3071515866,8950.5091121688,13368.1374560998,1144.2015384422,-6354.3728149355,-3624.7690512512,-6454.7563137247,-20697.7755067877,-8806.8451157804,-2940.3361049608,-5287.8133499205,-20.2227121197,-21884.8438411371,9421.3989792167,12306.5059082981,16635.4317423898
561222852163,39239,5,0,6484.6766802124,8949.2923424865,13364.6331594148,1143.1429488186,-6352.7058404707,-3620.0601525808,-6452.0429173332,-20697.0819480688,-8803.7058500000,-2939.2896830340,-5281.3888059980,-19.7725073373,-21883.9677669659,9423.2849722243,12303.8046796034,16631.6475886779
561222852163,39239,5,0,6488.6068462862,8953.4415271032,13374.9757017143,1147.9248536700,-6353.0100328913,-3608.3669959339,-6451.1303400715,-20699.8440152476,-8802.6472603765,-2934.0210703097,-5277.5194784083,-21.7558419194,-21885.2940459196,9420.6810851041,12305.7150080046,16632.4628243650
561222852163,39239,5,0,6488.1566415037,8953.1616700762,13382.9698785270,1151.0519517535,-6353.4359022801,-3604.3638236792,-6454.0140842185,-20703.4699889009,-8805.4701660394,-2934.3617658207,-5282.1432032010,-25.0289523648,-21888.8591810887,9415.3881369862,12301.9916927768,16628.0094473278
561222885888,39240,5,0,6484.4089908823,8948.0877405011,13372.4204853815,1143.3011288773,-6358.2299748283,-3614.9740553088,-6460.5116343220,-20705.4898265735,-8811.0429711843,-2940.0562479338,-5290.6970940675,-26.1483804725,-21895.8434390651,9414.4268889372,12301.6509972658,16628.3623105357
561222885888,39240,5,0,6478.0209500502,8941.4076749453,13360.7151610378,1135.2704489741,-6361.2597313373,-3625.3652683956,-6461.8622486693,-20704.7841001577,-8812.3327470475,-2940.4577819290,-5288.4095670648,-23.4228163842,-21896.1963022729,9415.3272985021,12304.0236981462,16635.0180406979
561222885888,39240,5,0,6479.4810736690,8943.3788418306,13360.6421548569,1137.5093051896,-6360.6513464961,-3623.6739585372,-6457.7860702337,-20701.7786790425,-8811.8095360841,-2937.5253669947,-5281.4374767853,-21.9018542813,-21893.5802474560,9417.9433533190,12307.4793240440,16636.8066921308
561222885888,39240,5,0,6487.6577659340,8953.1495023794,13372.6760070148,1147.8883505795,-6357.5607515031,-3610.1921504574,-6451.7387249127,-20699.5641582207,-8809.6436860496,-2933.2301700162,-5275.3292929802,-21.3908110147,-21891.0493665168,9420.9974452215,12308.9881184500,16634.9572022137
561222885888,39240,5,0,6491.1620626190,8957.9192395340,13382.9455431333,1153.8748574164,-6358.2299748283,-3604.0109604713,-6451.2641847366,-20699.8440152476,-8809.7896984115,-2932.9381452924,-5276.5947334497,-22.0478666432,-21891.9254406881,9420.9852775247,12309.2558077801,16631.8301041303
561222885888,39240,5,0,6486.2706484962,8951.3365155528,13377.7621042868,1147.3529719193,-6361.6977684229,-3612.4553420664,-6455.4742078373,-20701.5231574092,-8813.9632184218,-2936.3451004028,-5282.7394203453,-23.2889717191,-21892.8380179498,9417.6269932016,12307.9416965232,16634.8841960328
561222885888,39240,5,0,6477.5099067836,8943.9385558845,13362.9296818596,1137.0469327103,-6364.5693448731,-3625.3409330019,-6459.0636784001,-20702.2410515217,-8814.3525847201,-2941.1026698606,-5285.8178476415,-22.3642267606,-21889.8812676218,9415.0231060815,12304.9971138921,16636.4051581357
561222885888,39240,5,0,6479.9556138451,8945.3013379286,13360.5569809791,1138.3853793608,-6363.9122892447,-3625.2679268210,-6456.9830022433,-20702.4113992773,-8813.9632184218,-2940.7254712591,-5282.0093585359,-21.7680096162,-21891.0371988200,9419.0627814267,12307.0656223520,16636.1983072897
561222914621,39241,5,0,6482.4986624810,8949.3896840611,13373.5764165797,1144.7612524960,-6363.0240473766,-3614.9253845215,-6455.9487480134,-20704.7354293705,-8813.8415414536,-2938.5231181341,-5278.5293972446,-25.9415296265,-21892.8988564339,9418.3570550110,12306.3842313299,16632.2438058222
561222914621,39241,5,0,6486.1611392248,8951.7745526384,13384.0893066347,1150.7477593329,-6361.7586069070,-3609.2309024083,-6455.7418971674,-20706.3050622606,-8815.1921558009,-2939.8128939974,-5281.1697874552,-27.1704670056,-21894.3711477495,9418.1623718618,12306.9926161710,16629.5304094307
561222914621,39241,5,0,6486.1611392248,8951.2756770687,13383.1402262825,1149.6161635284,-6361.4057436991,-3614.3900058613,-6457.4697101163,-20704.1878830134,-8815.1921558009,-2942.0274148191,-5285.2703012845,-24.0798720126,-21894.0912907226,9417.8095086539,12310.5455836433,16631.7327625557
561222914621,39241,5,0,6483.0705442317,8946.4451014300,13371.0698710341,1143.0699426376,-6363.0848858607,-3626.8740628016,-6457.4818778131,-20702.3870638836,-8815.6180251897,-2945.4952084137,-5284.8809349862,-21.5124879830,-21894.0547876321,9417.6999993825,12311.0931300004,16638.3519896274
561222914621,39241,5,0,6480.6005017767,8945.5933626524,13364.2924639038,1139.7359937082,-6362.9023704084,-3631.0597505087,-6455.8027356515,-20701.0972880204,-8817.8690491020,-2951.2626967078,-5283.0679481595,-20.0645320610,-21893.3368935195,9417.5783224143,12310.6064221275,16639.4592500382
561222914621,39241,5,0,6481.5860852193,8946.6397845791,13369.8044305646,1144.3110477136,-6363.8027799732,-3623.4671076912,-6453.0041653822,-20700.8904371744,-8818.0150614638,-2954.2681178230,-5280.9507689123,-22.4615683352,-21894.7848494415,9415.9235156464,12305.5081571586,16632.2924766095
561222914621,39241,5,0,6483.2530596841,8948.4406037089,13376.2654775775,1146.9027671369,-6365.5914314062,-3617.9916441209,-6455.8757418325,-20703.8106844119,-8819.7550421095,-2956.7624956717,-5284.1873762673,-25.6495049028,-21897.8876121313,9412.6260698074,12304.2792197795,16630.1266265750
561222914621,39241,5,0,6481.9876192145,8946.6276168823,13375.8639435824,1144.6030724373,-6368.0736415581,-3623.4549399944,-6458.5404674367,-20705.4776588767,-8821.8600536599,-2959.0378549776,-5290.6240878866,-26.3065605312,-21897.6442581949,9412.6747405946,12303.2936363369,16628.8003476213
561222961949,39242,5,0,6476.9258573361,8942.1864075420,13361.8954276296,1137.7648268228,-6368.7306971865,-3634.4910410128,-6461.7405717011,-20704.7354293705,-8823.3688480659,-2961.6295744009,-5293.8728629383,-24.4083998268,-21897.2183888061,9412.8450883502,12302.4905683466,16631.5015763160
561222961949,39242,5,0,6475.0033612381,8939.5095142409,13354.2297786312,1135.2826166710,-6368.6455233088,-3638.0196730914,-6460.1101003268,-20702.7277593947,-8822.3832646233,-2958.5146440142,-5288.1662131284,-23.5809964429,-21897.9241152218,9413.2344546485,12303.7073380288,16634.0446249520
561222961949,39242,5,0,6479.8461045736,8944.2792513955,13365.5214012829,1142.0235207109,-6365.5670960126,-3626.1074979018,-6454.9266614803,-20701.2433003823,-8820.0227314396,-2952.6498141456,-5283.5668237293,-23.1064562668,-21895.8556067619,9414.8162552355,12304.2062135986,16632.4019858809
561222961949,39242,5,0,6484.5671709409,8946.9926477870,13375.4867449809,1147.2921334352,-6363.6932707018,-3614.2561611962,-6453.5517117393,-20701.4866543187,-8816.7009502070,-2947.7827354164,-5281.5591537535,-24.4935737046,-21892.6555024975,9414.8527583260,12305.7880141856,16630.1266265750
561222961949,39242,5,0,6482.1944700605,8942.7947923831,13376.1072975188,1144.2745446231,-6363.1943951321,-3615.0713968834,-6456.0095864975,-20704.5285785245,-8817.6135274687,-2945.9697485898,-5285.7326737638,-24.6274183696,-21893.4707381846,9417.3714715683,12306.6032498727,16630.6011667511
561222961949,39242,5,0,6476.4756525537,8938.2805768618,13365.2293765591,1137.2416158595,-6366.7960333917,-3627.6162923078,-6460.5238020188,-20702.2897223090,-8819.1709926620,-2947.7827354164,-5288.9936165123,-22.1452082178,-21896.0867930015,9416.6049066685,12306.1895481807,16633.6674263505
561222961949,39242,5,0,6473.8352623431,8936.0052175559,13356.5903118148,1134.8445795853,-6365.3115743793,-3629.4657822249,-6456.8734929719,-20700.8052632966,-8818.0272291607,-2946.0427547707,-5284.1873762673,-19.9428550928,-21894.1642969035,9415.3394661989,12305.4473186745,16637.1717230355
561222961949,39242,5,0,6481.4887436447,8943.3666741338,13366.7990094493,1144.6639109214,-6362.1966439926,-3617.6996193971,-6452.2376004824,-20698.8705995018,-8814.1822369646,-2941.5285392494,-5275.3657960706,-20.3687244816,-21893.7749306052,9419.4034769377,12308.3432305184,16635.3100654216
561222979513,39243,5,0,6486.4531639485,8948.4406037089,13382.0451335684,1152.0253674993,-6360.1281355327,-3604.9478731267,-6450.9721600128,-20699.4911520398,-8812.0285546269,-2936.6979636107,-5275.0737713469,-22.2912205796,-21891.5847451770,9420.7905943756,12307.3576470757,16631.7084271620
561222979513,39243,5,0,6490.0304668144,8947.7105418996,13387.0947277500,1153.0231186388,-6359.2520613615,-3603.6337618698,-6451.5197063698,-20699.8075121572,-8811.2741574239,-2936.0895787696,-5279.3811360222,-21.9991958559,-21888.8226779982,9422.3845626594,12308.5379136676,16631.3433962573
561222979513,39243,5,0,6489.6776036066,8947.4915233568,13382.7630276810,1150.5165730933,-6358.4124902807,-3613.5626024773,-6453.1258423505,-20698.8340964113,-8809.7531953211,-2936.3572680997,-5281.1941228488,-19.8941843055,-21886.8028403256,9423.0781213783,12310.0223726800,16637.0257106736
561222979513,39243,5,0,6488.4243308338,8944.1697421241,13374.8418570493,1145.8441775133,-6358.4246579775,-3620.1209910649,-6452.8338176267,-20697.3374697021,-8810.2642385876,-2937.7443855375,-5278.3712171859,-18.3002160217,-21884.8073380467,9423.6986739162,12310.6064221275,16641.4425846204
561222979513,39243,5,0,6489.5924297288,8945.2526671413,13377.1172163551,1148.2047106969,-6357.6580930777,-3614.8767137342,-6450.7409737732,-20698.9314379859,-8808.1105562500,-2938.8151428579,-5275.9985163054,-19.3953087358,-21884.4301394451,9425.6333377111,12311.6893471447,16638.5588404733
561222979513,39243,5,0,6494.1674837342,8949.8155534499,13390.3191674080,1155.4688257002,-6353.7157593070,-3600.7500177228,-6448.5021175577,-20699.6614997953,-8805.1294705283,-2934.3739335175,-5273.2364491266,-20.7580907799,-21883.6270714548,9426.2052194618,12312.1517196240,16636.3078165611
561222979513,39243,5,0,6491.7461120665,8948.2945913471,13392.9595576186,1154.7752669813,-6356.2223048526,-3602.9645385445,-6450.8504830446,-20701.9246914044,-8806.1758924551,-2937.1360006963,-5279.0282728143,-23.0212823890,-21886.0362754258,9424.3800649383,12309.9250311054,16633.6065878664
561222979513,39243,5,0,6485.6744313518,8943.1476555910,13379.1005509373,1148.2290460906,-6360.9798743103,-3616.1786572942,-6454.6833075438,-20701.1581265045,-8810.1547293162,-2941.5650423399,-5284.9782765607,-21.7071711321,-21886.9001819002,9422.3967303562,12307.5279948312,16636.0279595342
561223010599,39244,5,0,6480.4544894148,8939.8380420551,13364.2681285101,1143.1064457281,-6363.8757861542,-3626.8740628016,-6453.4300347710,-20698.5907424749,-8811.4323374826,-2944.6678050297,-5282.5082341057,-18.8477623787,-21887.1192004430,9420.7540912851,12306.6154175695,16638.3154865369
561223010599,39244,5,0,6481.3305635860,8940.6167746518,13368.0522822221,1145.1992895817,-6362.6346810782,-3620.6320343314,-6449.5972102718,-20696.1085323230,-8809.4855059909,-2941.3338561002,-5276.5947334497,-18.4340606868,-21887.4477282572,9421.6301654563,12305.4108155841,16637.1352199451
561223010599,39244,5,0,6488.6068462862,8947.6740388091,13384.1501451188,1153.9721989910,-6360.8338619485,-3610.2894920319,-6446.9324846676,-20697.3131343085,-8808.5242579419,-2942.1612594842,-5274.7939143199,-19.3223025548,-21889.6987521695,9421.1069544929,12305.6663372173,16634.2028050107
561223010599,39244,5,0,6492.6343539346,8950.4847767752,13391.9983095696,1156.0893782382,-6358.3029810093,-3604.8992023394,-6447.3826894500,-20697.6903329100,-8808.1957301277,-2939.9224032688,-5276.9840997481,-18.0325266916,-21890.1246215583,9421.1069544929,12306.4085667235,16634.3244819790
561223010599,39244,5,0,6489.7262743939,8945.8002134984,13386.4620075152,1151.6725042915,-6360.6756818898,-3614.2561611962,-6451.2033462524,-20699.1261211351,-8809.8383691988,-2941.1878437384,-5281.3766383012,-17.0469432489,-21892.2783038959,9419.9266879011,12306.9439453837,16639.1793930113
561223010599,39244,5,0,6486.9763749119,8943.5856926766,13374.5985031128,1146.4890654449,-6361.9046192689,-3624.5378650116,-6451.5927125508,-20696.3153831690,-8810.3859155558,-2942.1490917874,-5278.9430989366,-15.1852856350,-21890.7573417931,9420.3038865026,12307.5401625281,16642.5011742440
561223010599,39244,5,0,6487.7916105990,8944.6564499970,13372.0067836895,1147.9126859732,-6360.6148434056,-3618.0889856954,-6448.6359622228,-20695.1837873644,-8808.7554441816,-2940.1657572052,-5273.1147721584,-14.7959193367,-21891.6577513580,9420.1213710503,12307.7105102836,16544.5755502129
561223010599,39244,5,0,6488.5216724084,8948.9638146723,13382.8238661651,1153.7288450545,-6358.3029810093,-3605.9212888725,-6446.3971060074,-20696.7290848610,-8806.3827433011,-2936.1990880410,-5269.5861400797,-17.5823219092,-21893.7749306052,9419.8050109329,12305.9218588506,16295.4419577632
561223050631,39245,5,0,6487.3535735134,8948.0755728043,13386.8392061167,1155.4079872161,-6361.0163774008,-3603.2443955715,-6449.4755333036,-20700.8052632966,-8809.6558537465,-2938.0850810485,-5276.3757149069,-21.8410157972,-21897.8267736472,9418.0163594999,12304.2305489922,16068.6847597709
561223050631,39245,5,0,6482.5229978747,8943.2693325592,13378.1271351914,1149.1051202618,-6366.1998162474,-3614.3900058613,-6455.7297294706,-20702.8737717565,-8815.1191496200,-2944.1810971568,-5284.3455563259,-22.9117731176,-21904.2148144793,9415.6193232258,12303.6951703320,15967.0723236025
561223050631,39245,5,0,6477.2665528472,8940.0813959916,13366.4461462414,1142.8144210044,-6371.1033980670,-3626.6550442588,-6457.4453747226,-20702.6790886074,-8817.6500305591,-2945.9819162866,-5283.4329790642,-21.4638171957,-21905.4802549488,9415.3394661989,12303.2936363369,15967.8023854118
561223050631,39245,5,0,6479.5175767594,8943.4883511020,13366.0811153367,1145.4913143054,-6370.2638269862,-3623.9659832609,-6452.9433268981,-20700.4889031792,-8816.4332608768,-2943.9377432203,-5277.4343045305,-20.2470475134,-21903.6551004254,9417.9798564095,12305.2769709190,16003.2347185602
561223050631,39245,5,0,6484.5915063346,8949.0246531564,13377.9081166486,1153.8383543259,-6368.3291631914,-3611.7374479539,-6450.2664335971,-20700.1482076682,-8814.6932802312,-2941.3095207066,-5273.4919707599,-19.1154517088,-21901.1972256672,9418.3813904046,12304.3035551732,16029.0545712185
561223050631,39245,5,0,6487.7307721149,8951.4581925210,13389.2240746940,1157.4399925855,-6367.9641322867,-3605.9821273566,-6451.0329984969,-20701.0242818395,-8812.6977779522,-2938.6812981928,-5274.6722373517,-19.8820166087,-21899.2260587818,9419.2452968790,12306.7735976282,16043.4124534696
561223050631,39245,5,0,6487.2318965452,8947.7713803837,13384.1501451188,1153.3029756657,-6366.7473626044,-3610.6058521493,-6453.3935316806,-20698.9922764700,-8810.9821327002,-2937.7200501438,-5277.6533230733,-16.4628938014,-21894.0669553289,9422.6035812022,12309.5478325039,16053.9375112214
561223050631,39245,5,0,6483.4964136205,8942.0768982705,13372.1527960514,1148.1317045160,-6365.6157667999,-3619.2084138032,-6452.3836128443,-20696.7777556482,-8810.0573877416,-2938.5961243151,-5275.5604792198,-12.2772060943,-21892.7041732847,9425.2561391096,12311.2878131495,16063.4283147433
561223077117,39246,5,0,6480.8316880163,8941.8092089404,13368.5633254886,1146.6959162909,-6366.1268100664,-3620.8145497838,-6451.1425077683,-20698.1162022988,-8809.5950152624,-2938.0972487453,-5270.7664066715,-13.5791496544,-21893.8722721797,9425.8036854666,12310.4847451592,16067.8330209932
561223077117,39246,5,0,6482.7176810239,8943.3301710433,13377.5795888344,1149.2754680173,-6365.7982822522,-3611.8104541348,-6451.9942465459,-20701.1824618982,-8808.7311087879,-2937.5862054788,-5270.9732575175,-19.2614640707,-21893.9574460575,9424.7450958430,12308.7812676040,16071.1426345291
561223077117,39246,5,0,6487.7429398117,8947.4306848726,13388.1898204640,1152.9501124579,-6364.0826370002,-3604.2786498014,-6452.6147990839,-20703.6281689596,-8807.7090222548,-2938.7664720706,-5274.4775542025,-20.5755753276,-21894.1156261162,9425.4751576524,12308.5135782739,16101.2576841659
561223077117,39246,5,0,6485.5162512931,8944.0724005495,13387.2042370214,1148.9591078999,-6365.0803881397,-3613.0028884235,-6457.6643932654,-20705.2829757275,-8809.4490029005,-2940.4456142322,-5281.2549613329,-20.8189292641,-21895.9286129428,9421.9586932706,12305.8001818824,16154.2236684361
561223077117,39246,5,0,6481.4644082511,8937.0394717858,13373.7224289415,1140.4538878207,-6369.4972620864,-3626.9714043762,-6459.4530446984,-20704.4434046467,-8812.4787594094,-2945.2396867804,-5281.3401352107,-19.0789486184,-21896.9750348696,9419.9023525075,12304.9119400143,16208.7471178997
561223077117,39246,5,0,6478.2764716835,8935.5063419862,13366.4461462414,1139.4683043780,-6370.5071809227,-3630.5122041517,-6457.1655176957,-20702.6912563042,-8812.5152624999,-2947.2108536657,-5276.4730564815,-18.0081912980,-21897.4495750457,9420.2673834122,12305.0701200730,16246.7711704714
561223077117,39246,5,0,6479.6514214245,8939.3391664854,13374.4646584477,1143.5444828137,-6368.6941940961,-3619.4030969523,-6454.3912828201,-20702.3018900059,-8810.6049340987,-2943.3415260760,-5272.0440148380,-19.7846750341,-21897.0967118378,9420.9122713438,12306.5424113886,16268.8312048114
561223077117,39246,5,0,6482.8880287794,8940.5316007740,13384.2839897839,1147.7180028240,-6366.8690395726,-3610.8613737826,-6455.5593817151,-20704.4799077372,-8810.0330523480,-2942.6357996603,-5276.0228516991,-21.5368233766,-21896.5978362681,9421.6423331532,12307.0169515647,16282.4103544658
561223113250,39247,5,0,6481.8051037621,8941.0791471311,13382.4101644731,1145.5643204863,-6368.2926601009,-3616.6531974703,-6459.9275848745,-20705.9278636591,-8811.5175113604,-2946.6633073087,-5284.1630408736,-22.8387669367,-21894.5658308987,9419.2939676663,12303.8533503907,16291.7551456258
561223113250,39247,5,0,6475.2832182650,8936.2485714924,13369.0987041488,1138.7504102655,-6372.4783478080,-3629.2224282884,-6462.9938444739,-20703.6646720500,-8814.7906218057,-2948.5979711035,-5285.8300153383,-21.0744508973,-21896.4396562094,9421.0217806152,12303.7803442098,16310.5420695205
561223113250,39247,5,0,6472.7645050227,8935.0439695069,13361.7007444805,1134.5403871648,-6375.6784520724,-3634.5518794969,-6458.2971135002,-20704.1148768325,-8816.2872485150,-2948.7318157686,-5280.1477009220,-20.8676000513,-21898.3013138233,9421.6666685468,12302.6000776180,16325.1189703144
561223113250,39247,5,0,6478.8361857373,8940.4950976836,13371.2523864865,1143.0699426376,-6372.0524784192,-3622.3720149771,-6454.2939412455,-20702.8251009693,-8815.7518698548,-2948.0990955338,-5275.7916654594,-21.0257801100,-21897.8876121313,9420.1822095344,12302.4540652561,16332.9549670683
561223113250,39247,5,0,6484.6401771219,8947.5523618409,13385.7076103121,1151.0397840567,-6369.1565665753,-3609.5959333130,-6451.7387249127,-20702.6790886074,-8812.6247717713,-2943.2685198951,-5276.4487210879,-22.0600343400,-21898.0944629773,9420.7297558914,12301.2251278770,16339.8905542574
561223113250,39247,5,0,6485.3945743249,8946.6519522760,13389.5769379018,1150.7355916361,-6368.7915356707,-3611.1899015968,-6453.8924072503,-20702.7642624851,-8812.4665917126,-2942.8669858999,-5282.7515880421,-21.3056371370,-21898.2404753392,9419.5859923901,12301.5536556912,16349.6368794126
561223113250,39247,5,0,6482.2066377573,8944.5591084224,13376.7643531473,1145.2601280658,-6370.4220070449,-3623.6496231435,-6456.3867850990,-20700.5984124507,-8815.2408265882,-2947.7097292355,-5284.6254133529,-18.0933651757,-21898.7393509089,9416.6779128494,12302.4540652561,16362.8388304655
561223113250,39247,5,0,6477.8384345979,8939.5825204218,13366.4704816351,1141.1961173269,-6375.6054458915,-3632.5807126116,-6455.9122449229,-20700.5984124507,-8818.2827507939,-2950.7516534412,-5280.2815455871,-17.6188249996,-21903.3144049144,9416.8847636954,12303.9141888748,16375.8217629756
561223134329,39248,5,0,6478.3981486517,8941.7605381531,13369.9747783201,1141.0987757523,-6377.6374512609,-3627.5676215205,-6457.1290146052,-20705.0274540942,-8820.6432839776,-2951.7859076711,-5279.7705023205,-21.8531834940,-21906.9768816581,9413.9158456706,12302.1377051387,16379.7519290494
561223134329,39248,5,0,6480.1259616006,8941.8213766373,13378.1271351914,1143.3497996646,-6377.9538113783,-3617.5536070352,-6458.9176660382,-20709.5295019187,-8820.5094393125,-2951.4330444633,-5283.9196869371,-25.1384616362,-21908.4248375800,9413.4656408881,12301.3711402388,16382.5626670155
561223134329,39248,5,0,6479.7730983927,8939.9962221138,13378.8085262135,1140.1618630970,-6378.4161838576,-3618.9893952603,-6462.1177703026,-20710.4299114836,-8821.8722213567,-2950.8489950158,-5290.3685662533,-25.1871324235,-21906.8308692962,9413.7941687024,12301.9186865959,16388.7681923952
561223134329,39248,5,0,6475.1128705095,8936.5040931256,13370.2059645597,1135.0270950377,-6380.9714001904,-3631.4369491102,-6464.4296326990,-20710.3204022122,-8823.6487050928,-2951.7737399743,-5291.9868699308,-24.1650458904,-21906.0156336090,9414.5850689959,12302.2472144101,16401.5077709688
561223134329,39248,5,0,6472.3021325434,8934.0827214579,13356.8336657513,1131.3646182940,-6383.0155732567,-3640.7452371798,-6462.5801427819,-20707.3514841874,-8825.8023874305,-2956.1297754369,-5286.7060895096,-22.7535930589,-21905.5654288266,9414.4512243308,12300.7870907913,16409.0760783927
561223134329,39248,5,0,6473.5189022257,8935.6036835607,13360.2406208617,1135.2582812773,-6383.5266165232,-3634.6978918588,-6460.8644975299,-20710.8314454787,-8826.9704863255,-2954.9495088451,-5283.5424883356,-26.5012436804,-21908.2179867340,9412.9302622279,12295.5793165511,16410.1346680162
561223134329,39248,5,0,6474.6018272430,8938.8281232188,13373.8076028193,1140.3808816398,-6381.3729341856,-3622.5788658231,-6462.4828012073,-20713.2771525402,-8824.7437978069,-2949.5592191525,-5284.6010779592,-29.8108572162,-21908.6073530323,9412.9059268343,12296.4067199351,16414.0648340901
561223134329,39248,5,0,6476.6338326124,8939.0593094585,13379.5750911134,1142.3642162219,-6378.9637302146,-3618.3445073287,-6462.9208382929,-20711.3424887453,-8822.0547368090,-2946.1400963453,-5289.3221443265,-27.1704670056,-21906.2589875455,9414.4633920276,12300.4828983708,16419.5037945699
561223164480,39249,5,0,6476.9015219425,8938.2562414681,13373.6859258511,1138.1176900307,-6376.0678183708,-3625.8154731780,-6462.5679750851,-20707.0351240700,-8820.9109733077,-2944.3514449123,-5288.2513870061,-22.3033882765,-21904.9570439855,9416.5075650939,12304.2427166891,16430.0653554122
561223164480,39249,5,0,6472.4116418148,8931.2354804013,13362.0657753852,1133.1532697269,-6379.6694566304,-3635.8173199665,-6460.5968081998,-20704.0540383484,-8822.2737553519,-2944.9963328439,-5280.9020981251,-21.3299725306,-21906.9403785676,9417.0672791477,12304.8145984397,16438.3637246455
561223164480,39249,5,0,6472.9105173846,8933.7541936437,13363.9639360895,1135.0514304313,-6378.6352024004,-3629.8064777359,-6458.3822873780,-20706.9134471018,-8822.3224261391,-2945.0085005408,-5276.3757149069,-22.1087051273,-21906.1981490614,9418.6004089474,12303.6464995447,16438.4854016137
561223164480,39249,5,0,6479.7000922118,8942.4175937816,13379.4899172356,1143.1794519090,-6374.4373469965,-3616.3855081402,-6455.8392387420,-20707.2784780064,-8818.0880676448,-2942.0517502128,-5277.1057767163,-23.7026734111,-21903.2170633398,9420.6689174073,12304.1940459018,16436.7697563617
561223164480,39249,5,0,6483.5815874983,8945.0823193858,13389.1145654226,1146.0023575720,-6373.3787573729,-3613.7329502328,-6458.3336165907,-20707.3636518842,-8815.4963482215,-2941.6502162176,-5284.0413639054,-23.6540026238,-21900.4063253737,9423.0537859846,12303.8898534812,16438.8991033057
561223164480,39249,5,0,6480.9898680750,8943.3788418306,13381.2542332749,1140.3565462461,-6373.4882666443,-3622.6640397009,-6461.1078514663,-20706.9742855859,-8816.9808072339,-2946.2861087072,-5290.6970940675,-22.4615683352,-21898.8245247867,9422.7130904736,12303.0867854909,16443.9486974872
561223164480,39249,5,0,6476.6094972187,8938.1102291063,13364.1099484514,1135.1122689154,-6374.5468562679,-3635.7199783919,-6460.5724728061,-20705.8791928718,-8819.8645513809,-2951.3600382823,-5289.4073182043,-21.4151464084,-21902.1219706257,9419.5616569964,12300.9452708500,16448.0005405292
561223164480,39249,5,0,6476.4026463728,8939.4365080600,13366.9936925985,1137.1321065880,-6373.8532975490,-3631.2544336579,-6456.9830022433,-20705.6115035417,-8817.4553474100,-2949.7660699985,-5282.3865571375,-22.1817113082,-21902.5843431050,9419.1722906981,12300.1178674661,16448.4750807053
561223202227,39250,5,0,6483.3138981682,8947.8322188678,13382.3006552017,1144.5422339532,-6367.6356044725,-3616.4706820180,-6451.8725695777,-20704.9544479133,-8811.8460391746,-2945.1423452058,-5279.7461669269,-22.6197483938,-21898.7271832121,9422.8956059259,12301.5779910848,16449.5945088131
561223202227,39250,5,0,6488.1688092005,8952.1030804526,13390.2461612271,1151.1127902376,-6361.6004268483,-3607.2719032199,-6450.8869861350,-20704.7719324609,-8807.0032958391,-2940.5064527163,-5282.1918739883,-21.8775188876,-21894.1156261162,9426.4485733982,12303.9506919653,16453.7923642170
561223202227,39250,5,0,6487.9741260514,8950.4361059879,13385.5007594661,1148.0343629414,-6361.5152529705,-3613.5747701741,-6451.1546754651,-20702.8494363629,-8807.3561590469,-2938.5109504373,-5285.2946366781,-18.1055328725,-21891.1953788787,9426.3999026109,12303.5004871829,16461.9082179979
561223202227,39250,5,0,6489.0083802813,8949.7060441785,13377.9081166486,1145.2601280658,-6361.0285450976,-3620.5955312410,-6448.9158192497,-20698.8584318050,-8805.9325385186,-2938.6326274055,-5281.4374767853,-14.5647330971,-21889.7717583504,9426.6797596379,12303.6586672416,16470.7419658913
561223202227,39250,5,0,6490.3346592350,8950.9714846481,13375.2920618317,1147.2677980416,-6361.6490976356,-3618.2228303605,-6445.7035472885,-20698.2987177511,-8807.0884697168,-2939.9467386624,-5276.3392118165,-14.9540993954,-21891.9376083849,9424.5869157843,12302.0038604736,16472.7374681703
561223202227,39250,5,0,6487.4144119975,8950.6064537434,13381.8869535097,1150.1515421886,-6365.4089159539,-3609.6081010099,-6446.3484352201,-20699.8805183381,-8810.2399031940,-2939.5087015768,-5275.1102744373,-18.7139177137,-21896.3788177253,9421.3016376421,12299.0957809330,16470.1579164438
561223202227,39250,5,0,6488.3634923497,8952.4072728732,13389.2484100876,1152.8771062769,-6365.6279344967,-3605.3372394250,-6448.1127512594,-20703.1779641771,-8811.8703745682,-2939.3626892149,-5278.0791924621,-19.7968427309,-21897.1210472315,9418.4300611919,12298.5360668791,16470.6081212263
561223202227,39250,5,0,6484.9443695425,8947.7713803837,13381.9112889034,1147.6693320367,-6368.4630078564,-3615.8501294800,-6452.5417929030,-20703.6403366564,-8815.8613791262,-2943.3293583792,-5283.9805254213,-18.3610545058,-21899.8344436230,9419.6103277837,12302.4784006497,16476.3391064299
561223233429,39251,5,0,6478.8118503437,8941.8822151214,13369.0987041488,1139.7481614050,-6371.7117829082,-3628.5045341759,-6456.1312634657,-20702.9467779375,-8818.1367384321,-2945.9089101057,-5282.5082341057,-16.2438752586,-21902.2679829876,9419.7685078424,12304.8997723175,16484.4792956044
561223233429,39251,5,0,6476.6216649156,8941.0548117374,13363.2947127643,1137.4484667054,-6375.0700672313,-3631.4247814134,-6456.3016112213,-20703.1901318739,-8820.0714022269,-2946.8458227610,-5278.9430989366,-18.5679053518,-21905.1152240441,9419.5373216028,12303.9506919653,16485.7934068613
561223233429,39251,5,0,6478.6780056786,8945.8853873761,13373.9171120907,1144.2258738358,-6375.4959366201,-3620.6685374219,-6453.8924072503,-20704.2608891944,-8820.2295822856,-2945.1545129026,-5275.0616036500,-20.1253705451,-21905.7114411885,9421.2529668548,12304.0723689335,16482.0700916335
561223233429,39251,5,0,6485.2850650535,8952.0909127558,13386.5106783025,1151.2953056899,-6373.1110680428,-3612.3945035823,-6450.8991538319,-20704.1148768325,-8818.0393968575,-2940.0197448434,-5274.4653865057,-19.6629980659,-21904.1053052078,9422.4819042339,12305.1187908603,16483.0921781666
561223233429,39251,5,0,6483.2165565936,8950.7524661053,13386.3524982438,1150.2732191568,-6372.2228261747,-3616.5801912894,-6450.9478246192,-20702.4357346709,-8817.9785583734,-2939.2410122467,-5277.9453477971,-15.7206642952,-21900.6496793101,9425.2196360191,12306.8222684155,16487.6307290816
561223233429,39251,5,0,6480.0042846323,8947.8322188678,13373.7467643352,1145.9780221783,-6372.0889815097,-3625.0854113686,-6448.1614220467,-20694.5145640392,-8815.6180251897,-2937.7687209311,-5274.2585356597,-8.8702509839,-21893.8479367861,9427.5680015059,12309.2558077801,16493.5198943439
561223233429,39251,5,0,6479.7974337864,8950.3387644133,13372.8220193766,1148.1195368192,-6367.8181199248,-3622.1408287375,-6442.4182691463,-20691.0102673542,-8811.2011512430,-2935.5907031998,-5266.6658928422,-5.9135006559,-21894.4076508400,9430.5734226212,12313.4414954872,16500.6623323789
561223233429,39251,5,0,6483.8736122220,8954.7434706632,13383.7486111236,1154.0573728688,-6364.6423510540,-3610.8005352985,-6437.8675505345,-20690.6087333590,-8807.4535006215,-2931.1859969499,-5258.7933929978,-2.7985702693,-21894.9065264097,9431.8388630908,12315.2544823138,16502.1467913913
561223262124,39252,5,0,6487.9011198704,8957.9557426245,13396.2448357608,1161.0781339356,-6354.6891750529,-3596.3088083824,-6429.1554796093,-20683.9530031969,-8799.4958268993,-2922.4374229342,-5252.5513645276,4.7575694578,-21887.3747220763,9441.6216913364,12323.0783113710,16509.1067139741
561223262124,39252,5,0,6486.8181948532,8952.0544096654,13398.3133442207,1160.5427552754,-6343.9816018487,-3587.7305821222,-6420.4069055936,-20674.6082120368,-8787.8635087366,-2912.7519362631,-5247.5261057397,13.6764912290,-21877.7865769798,9451.8303889709,12333.2018351277,16521.7854540636
561223262124,39252,5,0,6475.5995783824,8942.0160597864,13383.9067911823,1151.5629950201,-6342.7526644696,-3596.1627960205,-6419.7620176620,-20671.1647538360,-8786.3303789369,-2912.7276008695,-5247.3800933779,17.2172910045,-21878.6018126670,9450.5041100172,12333.1531643404,16529.8161339667
561223262124,39252,5,0,6466.5103088557,8939.4121726663,13368.3929777331,1144.9681033420,-6351.9027724804,-3607.0528846770,-6427.0504680589,-20680.3757003309,-8796.3687288158,-2925.5645210177,-5254.7293822589,7.0450964605,-21888.8713487855,9440.5387663192,12322.4577588330,16522.1626526651
561223262124,39252,5,0,6468.8708420394,8944.7659592684,13370.6926724326,1146.2457115084,-6363.1457243448,-3610.5206782716,-6438.5611092534,-20693.0787758141,-8807.3439913501,-2936.1747526473,-5263.7334779079,-7.3371211842,-21899.5667542929,9428.8942804596,12310.7037637020,16506.9286962428
561223262124,39252,5,0,6474.0056100986,8949.0489885501,13380.3416560132,1148.8617663254,-6370.1786531085,-3609.4620886480,-6447.7355526579,-20702.5452439423,-8813.9753861186,-2939.4600307895,-5271.6181454492,-15.7936704762,-21904.7258577458,9422.7860966545,12303.5978287574,16504.8236846924
561223262124,39252,5,0,6477.4490682995,8953.6362102523,13380.0131281990,1151.7090073819,-6372.5391862921,-3614.6455274946,-6451.3736940080,-20702.9954487248,-8816.8226271752,-2942.3194395429,-5279.1256143889,-14.8932609113,-21903.1927279461,9423.5404938575,12302.0768666546,16506.9286962428
561223262124,39252,5,0,6474.1394547637,8952.0057388781,13370.1816291661,1147.4868165844,-6373.9384714268,-3626.1318332954,-6452.7608114458,-20699.8926860349,-8818.0637322511,-2944.8503204821,-5281.9241846582,-13.1046094783,-21901.5135857846,9422.9321090164,12302.6000776180,16512.9638738669
561223332134,39253,5,0,6471.2313752230,8950.6307891371,13360.7394964315,1144.9316002516,-6376.2016630358,-3630.3053533057,-6450.7044706827,-20699.9291891254,-8818.7329555764,-2944.5826311520,-5278.5415649414,-13.1167771751,-21902.9980447970,9420.4377311677,12300.8600969723,16516.9913815153
561223332134,39253,5,0,6471.7789215800,8956.4591159153,13366.0811153367,1150.9546101789,-6378.3431776767,-3623.8929770800,-6451.1668431620,-20702.2897223090,-8823.1863326136,-2947.8435739005,-5278.4928941541,-18.0446943884,-21907.4879249246,9415.7896709813,12296.8690924144,16510.4451606246
561223332134,39253,5,0,6479.0187011897,8962.3726165712,13376.7400177536,1156.4665768397,-6381.7379650903,-3618.0524826050,-6453.7220594948,-20706.9256147986,-8826.9461509319,-2950.2527778715,-5281.8390107804,-23.8486857730,-21911.4545940889,9411.5309770933,12293.3769634262,16503.3148902863
561223332134,39253,5,0,6477.7897638106,8963.1756845615,13377.8837812550,1156.7342661698,-6385.4977834086,-3621.5446115932,-6459.0393430064,-20710.3325699090,-8829.9394043503,-2952.6011433583,-5288.6285856076,-26.9271130692,-21913.4379286710,9409.8396672349,12291.3814611472,16501.6357481248
561223332134,39253,5,0,6472.5089833894,8957.0431653628,13363.5380667007,1147.3651396161,-6389.3184402110,-3634.7830657365,-6464.2714526403,-20710.7584392978,-8833.7722288495,-2956.7746633686,-5292.2910623513,-25.9902004138,-21913.5596056393,9410.3263751078,12290.8095793965,16502.0981206040
561223332134,39253,5,0,6466.9361782445,8951.6528756702,13352.7088165283,1141.6098190189,-6390.7907315265,-3642.3878762509,-6462.6896520533,-20709.0184586521,-8833.2368501893,-2957.6264021462,-5288.6042502140,-24.3840644332,-21915.7619587642,9410.4845551665,12290.4323807950,16507.4519072061
561223332134,39253,5,0,6467.3498799365,8955.7777248932,13360.8976764902,1146.1727053275,-6388.3206890715,-3632.0696693450,-6458.8446598572,-20708.7507693220,-8831.4847018468,-2954.2316147326,-5281.4253090884,-23.6783380174,-21915.7619587642,9409.8518349317,12290.2133622522,16506.3203114016
561223332134,39253,5,0,6469.6252392424,8959.4036985464,13372.1771314450,1152.5242430691,-6386.8118946654,-3620.3400096077,-6456.8248221846,-20707.4244903683,-8829.6473796266,-2952.2239447568,-5280.4032225553,-23.2768040223,-21917.5992809845,9410.9712630394,12293.2309510643,16508.6930122821
561223338127,39254,5,0,6470.3553010518,8957.6758855976,13374.9026955334,1155.1159624924,-6385.9723235846,-3622.1651641311,-6458.9420014318,-20707.6191735175,-8830.5599568883,-2953.4772175295,-5284.6497487465,-21.0744508973,-21919.4366032048,9411.4336355187,12294.1678637197,16512.0756319989
561223338127,39254,5,0,6464.7581605132,8954.1715889125,13364.3289669942,1147.9735244573,-6390.0241666267,-3635.3671151840,-6462.8721675056,-20707.9963721190,-8832.1174220816,-2955.2415335689,-5288.8354364536,-21.1352893815,-21919.2054169651,9411.0929400077,12296.1511983018,16519.3275793053
561223338127,39254,5,0,6458.9176660382,8946.9318093029,13351.7110653888,1138.2637023926,-6392.2751905389,-3645.2716203979,-6463.5900616182,-20708.7386016252,-8834.3319429034,-2958.3564639555,-5287.6430021650,-21.4638171957,-21918.3658458843,9409.7909964476,12295.4454718861,16523.1969068950
561223338127,39254,5,0,6457.4088716321,8945.7515427111,13350.6038049780,1139.0302672924,-6392.9809169547,-3641.1711065686,-6463.4562169531,-20711.3059856548,-8834.9403277445,-2960.4979785964,-5285.2581335877,-25.1871324235,-21921.8701425693,9406.8950846038,12293.7906651181,16521.6151063080
561223338127,39254,5,0,6460.8644975299,8950.5091121688,13365.4970658892,1144.3110477136,-6392.2265197516,-3630.5973780294,-6463.7969124642,-20714.2870713765,-8834.8308184731,-2959.0865257649,-5284.8809349862,-28.2047212356,-21923.7561355769,9404.5102160265,12290.6392316410,16517.0400523026
561223338127,39254,5,0,6463.3588753786,8951.7258818511,13370.2181322565,1146.4160592639,-6391.6911410914,-3627.7136338824,-6464.7581605132,-20713.8246988972,-8835.4148679206,-2959.7435813933,-5289.6020013535,-28.7522675926,-21923.4762785500,9405.0455946867,12289.5441389269,16518.4150020436
561223338127,39254,5,0,6464.4418003958,8950.1684166578,13363.4650605198,1143.4593089360,-6391.0340854630,-3636.0485062061,-6464.1862787625,-20711.7805258309,-8834.9281600477,-2961.8972637310,-5291.8408575689,-25.1749647267,-21920.5560313125,9408.1483573765,12291.1867779980,16524.0121425822
561223338127,39254,5,0,6461.9839256376,8947.2238340266,13355.0815174088,1139.4196335908,-6393.0539231356,-3645.0039310678,-6463.9429248261,-20709.7363527647,-8836.3761159696,-2962.7246671150,-5290.2225538914,-24.8099338220,-21918.4631874589,9407.6616495036,12289.3372880810,16529.5362769398
561223353194,39255,5,0,6460.9740068013,8948.6352868581,13354.6069772327,1140.5268940016,-6393.4676248276,-3640.9034172385,-6461.5823916424,-20710.3204022122,-8835.4635387079,-2962.2744623325,-5285.7935122479,-24.9802815775,-21917.8548026178,9408.5133882812,12289.1669403254,16529.1712460351
561223353194,39255,5,0,6465.7559116527,8955.2180108393,13367.0910341730,1149.1051202618,-6391.4599548518,-3627.7623046697,-6458.9054983414,-20709.2983156791,-8834.1737628447,-2960.3397985377,-5282.8976004040,-24.1893812840,-21917.7452933464,9409.3286239683,12291.3206226631,16526.2996695849
561223353194,39255,5,0,6467.6540723571,8956.4712836121,13375.0487078952,1150.4679023060,-6390.8880731011,-3625.0124051877,-6458.7473182827,-20708.3614030237,-8831.7645588738,-2957.1275265764,-5284.3942271132,-24.0920397094,-21918.3901812780,9409.2069470001,12291.6613181741,16527.0418990911
561223353194,39255,5,0,6465.0380175401,8953.3563532254,13369.9504429264,1146.8905994400,-6390.9489115852,-3630.3540240930,-6461.0105098917,-20708.6899308379,-8831.6185465119,-2958.1617808064,-5287.7646791332,-20.7824261736,-21918.1103242511,9409.8640026286,12293.4864726976,16530.8868912871
561223353194,39255,5,0,6461.7770747916,8950.9228138608,13358.0991062209,1141.3177942951,-6391.0340854630,-3639.0782627150,-6459.8910817840,-20705.5506650576,-8830.2192613772,-2957.1883650605,-5284.7105872306,-16.9374339775,-21915.8836357325,9413.3317962231,12295.4333041892,16536.3866902511
561223353194,39255,5,0,6459.8180756031,8950.8376399831,13357.1865289592,1141.7193282903,-6388.9899123967,-3635.0629227635,-6456.6423067323,-20704.7232616736,-8827.7613866190,-2952.4794663901,-5275.9011747308,-15.8180058698,-21913.0850654632,9415.1447830497,12297.3801356809,16538.1753416841
561223353194,39255,5,0,6464.2349495498,8953.5023655873,13368.8066794251,1147.9370213668,-6387.1525901765,-3621.2404191726,-6453.9289103408,-20706.8282732240,-8825.1696671957,-2946.8214873674,-5271.8493316888,-17.4119741536,-21911.5154325730,9417.3836392651,12298.7915885124,16536.8125596399
561223353194,39255,5,0,6467.7879170221,8956.2766004629,13375.1582171666,1151.4169826582,-6384.6947154182,-3616.1421542038,-6454.5494628788,-20706.9864532827,-8824.5247792641,-2943.7795631616,-5274.7087404422,-18.3975575963,-21912.3671713506,9418.9289367616,12299.5216503218,16536.4840318257
561223393365,39256,5,0,6465.4882223226,8952.3829374796,13368.9526917869,1145.8441775133,-6386.7510561813,-3623.5522815690,-6457.8712441114,-20707.1081302509,-8825.1818348925,-2943.6578861934,-5278.6145711223,-15.9031797476,-21912.5496868030,9419.3791415441,12301.8943512022,16540.4750363836
561223393365,39256,5,0,6462.3246211486,8948.8908084914,13359.0846896635,1138.9207580210,-6387.1282547828,-3634.9047427048,-6459.6477278476,-20704.5529139181,-8825.5955365845,-2945.5560468978,-5276.8989258703,-14.1388637083,-21910.8462092478,9421.7031716373,12304.4130644446,16548.7612379200
561223393365,39256,5,0,6462.0204287280,8949.1950009120,13356.1522747292,1139.6508198304,-6388.7222230666,-3635.0750904603,-6456.3989527958,-20703.9201936833,-8824.6829593228,-2947.6002199641,-5272.2752010776,-13.2384541434,-21906.5510122693,9425.8888593444,12306.8101007187,16550.1483553578
561223393365,39256,5,0,6465.5490608067,8953.5145332841,13364.0004391800,1144.7855878897,-6390.6082160742,-3626.4846965033,-6455.8027356515,-20705.5993358449,-8826.0335736701,-2949.2550267320,-5271.6303131460,-15.5503165397,-21908.3274960054,9426.5094118823,12305.5568279459,16548.1285176852
561223393365,39256,5,0,6464.4052973053,8954.9016507219,13372.1527960514,1147.5719904621,-6392.5063767786,-3624.0511571387,-6459.3192000333,-20710.3082345154,-8831.2291802135,-2953.3068697740,-5276.5338949656,-21.2447986529,-21912.5253514093,9422.0195317547,12303.7925119066,16545.1961027509
561223393365,39256,5,0,6457.6400578718,8948.4041006185,13362.1874523534,1139.8455029796,-6398.9430883979,-3638.0440084851,-6465.5368931099,-20713.8125312004,-8836.7046437839,-2961.0576926502,-5286.1220400621,-23.8121826825,-21913.7786241821,9419.8901848107,12302.5027360434,16546.5832201887
561223393365,39256,5,0,6451.1425077683,8941.7483704563,13349.4965445671,1132.3380340398,-6400.9507583737,-3650.8809286333,-6468.4571403474,-20714.6277668875,-8839.9047480483,-2964.8296786653,-5289.4924920821,-23.5688287460,-21911.5641033603,9419.0262783362,12300.6897492168,16550.9392556513
561223393365,39256,5,0,6454.2817735486,8944.0967359432,13349.2653583274,1133.4939652380,-6399.0160945788,-3651.2337918411,-6467.8122524158,-20716.3312444427,-8838.9069969088,-2965.2677157510,-5286.4018970890,-25.6373372059,-21911.4910971794,9419.6589985710,12298.8767623901,16548.5057162867
561223409391,39257,5,0,6460.8036590457,8949.8642242372,13360.3988009204,1140.6729063635,-6396.7407352730,-3640.8060756639,-6466.8510043667,-20718.9107961692,-8839.9777542292,-2966.5088208269,-5286.3653939986,-29.5553355829,-21914.3870090232,9416.6535774558,12295.7374966098,16542.4097001785
561223409391,39257,5,0,6467.4715569047,8953.0399931080,13371.7999328435,1145.8198421196,-6397.1422692681,-3633.3594452082,-6467.8122524158,-20721.3686709274,-8840.4766297990,-2965.7909267144,-5289.4073182043,-32.6215951823,-21916.1148219721,9413.5994855532,12293.8880066927,16538.5525402856
561223409391,39257,5,0,6468.7856681616,8952.6019560224,13372.8220193766,1145.3087988531,-6396.0350088572,-3638.3116978152,-6470.0389409344,-20718.5457652645,-8840.9633376719,-2965.9491067731,-5295.4789989189,-31.1493038667,-21916.4190143927,9412.6625728978,12293.5959819690,16542.3123586039
561223409391,39257,5,0,6463.9064217356,8948.2459205598,13360.2649562554,1138.6530686909,-6397.9818403489,-3649.2382895622,-6471.3165491008,-20717.7548649710,-8842.0462626891,-2969.3925649739,-5297.8030290121,-29.4336586147,-21914.1193196931,9413.5751501595,12294.2773729911,16545.5246305651
561223409391,39257,5,0,6461.8987517598,8947.9173927456,13352.7574873156,1136.9009203484,-6398.5902251900,-3651.5258165649,-6471.9005985483,-20719.8112057341,-8840.4766297990,-2968.9910309788,-5294.5542539604,-30.6382606002,-21912.3915067443,9414.4025535435,12293.6689881499,16547.0699280616
561223409391,39257,5,0,6463.2858691976,8952.2247574209,13362.7836694977,1142.0965268918,-6396.4122074587,-3640.0151753704,-6469.1385313695,-20720.7359506926,-8838.4081213391,-2965.4867342938,-5290.8552741262,-33.4733339599,-21912.3550036538,9415.8261740718,12292.9145909469,16544.7945687557
561223409391,39257,5,0,6468.8586743425,8956.0575819201,13371.2402187897,1146.7567547750,-6394.3923697861,-3629.6361299804,-6468.6031527092,-20721.5390186829,-8838.1039289185,-2963.4425612275,-5291.9381991435,-34.3007373439,-21913.4865994583,9415.7288324972,12292.5252246486,16541.6431352786
561223409391,39257,5,0,6470.5013134136,8957.8827364435,13374.1239629367,1148.0830337287,-6393.8326557323,-3631.3396075356,-6468.5544819220,-20719.1906531961,-8837.6902272265,-2962.6516609340,-5296.5375885425,-31.0641299890,-21912.9512207981,9416.7752544240,12294.6545715926,16545.6706429270
561223448437,39258,5,0,6465.7559116527,8952.1517512399,13364.0247745737,1141.3542973856,-6393.2972770721,-3641.7308206224,-6468.5788173156,-20716.0635551126,-8837.8362395884,-2962.6273255404,-5296.0995514569,-26.8176037978,-21913.3040840060,9414.4268889372,12293.3647957293,16549.8198275436
