timestamp,sequence,battery,flags,EEG-ch1,EEG-ch2,EEG-ch3,EEG-ch4,EEG-ch5,EEG-ch6,EEG-ch7,EEG-ch8,EEG-ch9,EEG-ch10,EEG-ch11,EEG-ch12,EEG-ch13,EEG-ch14,EEG-ch15,EEG-ch16
560972447506,33971,-2,0,5820.3082659829,7654.6250651319,13686.8094358927,156.3792395685,-7473.2777116827,-4818.5174511564,-7697.2850101931,-21394.6925100186,-10175.7110083613,-3811.0564896105,-5605.3537339088,-1201.4018812068,-22860.8756417894,8239.0395435378,10687.1436412232,13702.8707956989
560972447506,33971,-2,0,5818.5074468531,7653.1284384227,13681.6503324397,152.4612411915,-7474.2754628222,-4828.2272732211,-7701.7992257144,-21395.2157209819,-10177.3779828261,-3814.9501525938,-5613.4939230834,-1201.1950303608,-22862.1167468654,8236.6911780510,10686.2919024456,13704.4039254986
560972447506,33971,-2,0,5814.8449701094,7647.3609501286,13670.6507345118,145.1606230977,-7473.7644195557,-4838.9226787285,-7702.4319459492,-21393.1472125220,-10175.9665299946,-3816.9091517823,-5613.7372770198,-1198.1652738519,-22860.4376047038,8236.4113210240,10687.5086721279,13710.5486123942
560972447506,33971,-2,0,5816.9864847502,7651.2546131119,13671.4903055926,145.3066354596,-7472.4016375115,-4838.9226787285,-7699.0493262324,-21393.3418956712,-10173.8980215347,-3815.3760219826,-5608.3104842368,-1198.8223294804,-22859.0626549628,8237.7132645841,10687.3504920692,13709.7090413134
560972447506,33971,-2,0,5820.4786137384,7656.6935735918,13679.4601470116,153.3251476659,-7471.2822094038,-4827.8622423165,-7697.3701840709,-21395.4590749184,-10174.1535431680,-3814.9744879875,-5606.0351249309,-1202.4848062241,-22859.1721642342,8238.0539600951,10687.0219642550,13701.4836782611
560972447506,33971,-2,0,5822.3037682619,7658.1658649074,13686.4930757753,157.1701398619,-7470.6008183817,-4819.8437301101,-7696.9564823789,-21396.5541676325,-10174.3847294076,-3814.0132399385,-5606.7165159530,-1203.4825573635,-22858.8801395105,8241.0350458167,10688.8592864753,13700.3399147598
560972447506,33971,-2,0,5822.1334205063,7655.2942884571,13685.0451198533,154.0673771721,-7468.8973408265,-4824.3214425410,-7698.2949290294,-21394.9723670455,-10172.6082456715,-3812.5166132292,-5611.0360483251,-1200.4162977642,-22857.5660282536,8242.3978278609,10689.1391435022,13704.5256024669
560972447506,33971,-2,0,5818.7142976991,7649.2104400457,13672.5975660035,145.7081694547,-7468.4714714377,-4833.1308550408,-7697.7595503692,-21391.4924057541,-10170.4423956370,-3812.2124208087,-5610.7318559045,-1196.0845976952,-22855.5340228841,8244.3568270494,10690.5384286368,13710.7432955434
560972469896,33972,-2,0,5815.8792243393,7648.1275150284,13668.0468473917,143.7004994789,-7467.6805711442,-4832.0722654172,-7695.2530048237,-21389.4847357783,-10171.0629481750,-3812.9789857085,-5605.7552679040,-1194.8556603161,-22857.4565189822,8243.7241068146,10690.5140932432,13711.8018851670
560972469896,33972,-2,0,5815.9157274298,7650.9990914786,13676.8805952851,147.7401748242,-7469.6030672422,-4824.0050824236,-7694.4256014397,-21391.4193995732,-10173.9588600188,-3812.6991286816,-5602.4821574586,-1199.1386895978,-22861.8003867480,8237.0562089556,10685.7930268759,13705.1461550048
560972469896,33972,-2,0,5816.6336215424,7650.1595203979,13682.1370403127,150.3927327316,-7472.1339481814,-4819.3326868436,-7697.5770349169,-21393.9259451187,-10178.6069202052,-3814.5364509018,-5606.2541434737,-1201.8155828988,-22864.9883233156,8232.3594779820,10682.2522271004,13699.9505484614
560972469896,33972,-2,0,5816.6944600265,7648.9914215029,13677.7566694564,147.2778023449,-7473.9834380985,-4826.6819757246,-7700.8623130591,-21394.5343299599,-10181.3933227777,-3816.2277607602,-5612.9342090295,-1200.7813286689,-22864.3069322935,8233.2963906373,10683.6271768414,13705.9492229952
560972469896,33972,-2,0,5815.1491625300,7647.4461240063,13669.3001201644,142.4472267062,-7474.8838476634,-4837.1461949924,-7702.6874675825,-21391.9912813239,-10178.3148954815,-3815.5828728286,-5613.4330845992,-1195.2571943112,-22862.5182808605,8237.5307491317,10688.2874047246,13715.1723371869
560972469896,33972,-2,0,5816.3294291218,7649.5754709504,13666.7935746189,142.5689036744,-7473.0708608368,-4838.4116354619,-7698.4896121786,-21388.7303385753,-10175.5041575154,-3815.1570034398,-5606.4123235324,-1191.8015684135,-22861.3988527528,8240.3779901883,10691.3658320208,13714.3205984093
560972469896,33972,-2,0,5821.1113339732,7656.3772134744,13673.7169941112,151.3661484774,-7473.6427425874,-4830.3079493779,-7696.6401222615,-21391.9061074461,-10178.4244047529,-3816.0330776111,-5605.3659016056,-1196.7294856268,-22865.4871988853,8237.1048797429,10687.2044797074,13703.4305097528
560972469896,33972,-2,0,5820.2474274988,7656.3650457776,13683.9378594424,153.9700355975,-7478.7896783435,-4825.9397462184,-7701.6288779589,-21397.8439434957,-10184.5690916484,-3819.5860450834,-5609.9774587015,-1205.1373641315,-22870.4759545827,8228.4658149986,10677.6650053982,13693.0757997565
560972519008,33973,-2,0,5819.7485519290,7655.1726114889,13683.7796793837,152.2665580423,-7482.5008258745,-4833.1308550408,-7707.1773477102,-21399.8394457747,-10187.8300343970,-3822.9686648001,-5619.8697962186,-1207.2302079850,-22870.6828054287,8228.5753242700,10680.2567248215,13697.8090338206
560972519008,33973,-2,0,5814.2000821778,7648.6142229013,13671.7093241354,144.0776980805,-7483.3647323490,-4845.2133779860,-7711.1683522681,-21400.9710415792,-10188.4627546318,-3826.8744954803,-5624.2379993780,-1203.8962590555,-22868.6873031497,8228.9768582652,10682.1548855258,13706.0100614793
560972519008,33973,-2,0,5812.6426169844,7646.6065529256,13663.8733273814,138.1398620309,-7483.9852848869,-4849.7032581136,-7708.7226452067,-21400.3869921317,-10186.2969045973,-3826.8988308740,-5618.8233742918,-1202.1197753194,-22871.4006995413,8231.0453667251,10682.8484442447,13712.1790837685
560972519008,33973,-2,0,5817.8017204374,7652.1428549800,13672.2812058861,145.9880264817,-7482.4521550872,-4841.5995720296,-7704.7803114360,-21399.5960918382,-10184.5934270421,-3824.7938193236,-5612.5448427312,-1203.3973834858,-22869.7215573797,8232.6880057962,10683.4446613891,13708.8329671422
560972519008,33973,-2,0,5821.0991662764,7656.9734306187,13682.7089220633,153.1547999104,-7480.7486775320,-4832.1452715981,-7704.3666097441,-21401.6402649045,-10186.0657183577,-3824.3922853284,-5613.9076247753,-1207.6074065865,-22868.7846447243,8234.1968002022,10683.4203259954,13700.3277470630
560972519008,33973,-2,0,5820.3326013765,7657.1802814647,13684.5462442836,153.4711600278,-7483.0240368379,-4836.5743132417,-7708.3819496956,-21402.5528421662,-10185.7493582403,-3824.6721423554,-5621.2812490500,-1209.6759150464,-22865.6453789440,8233.0408690041,10680.0377062786,13695.0226312481
560972519008,33973,-2,0,5818.1789190389,7652.3740412196,13675.3596331823,144.1750396550,-7482.1601303635,-4846.0894521572,-7712.3851219504,-21404.6335183229,-10185.4086627292,-3825.7428996758,-5626.3308432316,-1208.9458532370,-22862.7981378874,8238.0174570047,10681.6316745624,13700.3885855471
560972519008,33973,-2,0,5817.0594909312,7648.6020552045,13664.0680105306,136.6310676248,-7480.4566528083,-4853.1832194050,-7712.4094573440,-21404.2076489341,-10181.6123413205,-3828.5658053387,-5624.3596763462,-1205.6849104885,-22858.6124501804,8237.3238982857,10681.7655192275,13706.0100614793
560972545049,33974,-2,0,5818.4466083690,7654.1626926526,13670.5168898467,140.7437491510,-7479.1668769451,-4846.1381229445,-7709.5257131970,-21404.4266674769,-10180.7484348460,-3827.2273586882,-5618.6895296268,-1208.0332759753,-22860.2307538578,8237.9566185205,10685.1116358538,13701.8852122563
560972545049,33974,-2,0,5819.6877134449,7655.7323255428,13681.0176122049,146.0975357531,-7479.5197401529,-4836.0024314910,-7709.4527070161,-21407.1887346557,-10182.5249185822,-3825.1101794410,-5618.2758279348,-1211.9877774428,-22863.8932306015,8234.2576386864,10681.8750284989,13697.0668043144
560972545049,33974,-2,0,5818.7873038800,7652.5930597624,13680.5917428161,144.6982506184,-7480.9555283780,-4837.2922073542,-7711.6428924442,-21408.7583675459,-10185.4451658197,-3827.6532280770,-5623.9703100479,-1212.7665100395,-22863.9297336920,8235.4744083687,10682.4104071591,13696.8721211652
560972545049,33974,-2,0,5816.5484476646,7647.1662669794,13670.9305915387,137.1907816787,-7481.2110500113,-4845.1282041082,-7713.5532208454,-21406.5681821177,-10182.7317694282,-3825.8280735535,-5626.1483277792,-1208.0819467626,-22861.0581572418,8241.2783997532,10685.9268715409,13704.9028010684
560972545049,33974,-2,0,5815.9887336108,7646.0103357812,13666.1973574746,130.8392439371,-7477.5485732676,-4848.0727867394,-7710.2557750064,-21401.8106126600,-10178.8867772321,-3822.7618139542,-5620.2469948201,-1203.7380789968,-22856.4952709332,8246.5956832648,10688.2265662405,13711.7045435924
560972545049,33974,-2,0,5821.2816817287,7651.7169855912,13672.5610629130,138.9307623244,-7475.1880400839,-4839.7379144156,-7705.1818454312,-21400.9953769728,-10178.0350384545,-3821.3990319100,-5614.1509787118,-1203.8962590555,-22855.1203211922,8246.1333107856,10687.7520260644,13709.9037244626
560972545049,33974,-2,0,5825.9540773087,7658.3240449660,13685.1667968216,147.1804607703,-7476.7941760646,-4829.0181735146,-7704.4639513186,-21403.8547857262,-10180.7727702397,-3820.9974979148,-5614.0779725309,-1208.5686546355,-22858.0162330360,8241.6921014452,10685.1238035506,13703.3088327846
560972545049,33974,-2,0,5825.0658354407,7657.7521632154,13687.3934853402,145.2336292786,-7480.5053235956,-4831.8410791776,-7710.7911536666,-21410.1211495900,-10185.9318736926,-3824.5139622967,-5622.1208201308,-1213.4600687584,-22861.7030451734,8235.8394392733,10680.2445571246,13700.8631257232
560972564631,33975,-2,0,5821.9144019635,7653.3352892686,13679.2654638624,139.3566317132,-7481.2840561922,-4841.6360751200,-7713.8817486596,-21409.1720692379,-10185.4451658197,-3826.8379923898,-5627.2069174028,-1211.5132372667,-22860.8756417894,8237.7741030682,10680.4757433643,13704.0267268971
560972564631,33975,-2,0,5821.0748308827,7650.9260852977,13671.5511440767,136.1321920551,-7478.2299642897,-4846.6369985143,-7711.0588429967,-21404.7065245038,-10179.9818699462,-3823.6013850349,-5621.0865659009,-1206.5123138725,-22856.7751279601,8244.1378085066,10685.6226791204,13710.0375691277
560972564631,33975,-2,0,5824.8954876851,7656.0365179633,13678.5719051435,142.8974314886,-7474.8351768761,-4839.1538649681,-7705.2061808248,-21401.4334140585,-10178.2175539069,-3820.6933054943,-5613.4452522961,-1204.7601655300,-22857.7972144932,8244.3933301399,10685.3184866998,13705.3408381540
560972564631,33975,-2,0,5827.1586792942,7661.7675031669,13687.0649575259,151.7676824726,-7474.1294504604,-4828.5558010354,-7702.5292875238,-21402.5163390757,-10179.3369820146,-3819.8050636262,-5612.1433087360,-1207.6439096770,-22861.5205297210,8242.4951694355,10682.5199164305,13696.3245748082
560972564631,33975,-2,0,5826.1609281547,7660.8792612989,13688.3912364796,152.4125704042,-7475.7599218346,-4826.0979262771,-7705.8754041501,-21405.0228846212,-10181.7461859855,-3820.8028147657,-5617.2537414016,-1209.6759150464,-22864.3434353840,8238.8691957823,10680.5244141516,13694.2438986515
560972564631,33975,-2,0,5819.4930302958,7654.3573758018,13680.5917428161,144.8807660708,-7477.3052193311,-4837.9979337700,-7710.2192719159,-21404.3171582055,-10182.6222601568,-3822.2264352939,-5623.8729684733,-1208.8971824498,-22864.9883233156,8234.2576386864,10678.3707318139,13701.3376658993
560972564631,33975,-2,0,5815.2708394982,7646.3266958986,13664.9927554891,134.7815777077,-7478.8261814340,-4848.9366932138,-7711.6793955346,-21404.2563197214,-10182.6222601568,-3824.7694839299,-5624.9072227033,-1205.4293888552,-22865.2560126457,8235.3283960068,10681.2909790514,13708.3462592693
560972564631,33975,-2,0,5814.8206347158,7644.3798644070,13660.3933660901,134.1123543825,-7479.5684109402,-4848.0727867394,-7709.9759179794,-21404.4631705674,-10181.5880059268,-3826.1079305805,-5619.7116161599,-1206.5123138725,-22862.3479331050,8237.1900536207,10682.8849473352,13707.0443157092
560972596164,33976,-2,0,5816.3172614250,7649.8066571900,13671.9161749814,142.1795373761,-7477.8892687786,-4836.9393441464,-7708.6983098130,-21404.9498784403,-10181.1256334476,-3821.8127336020,-5615.1730652449,-1208.6294931197,-22860.9851510608,8238.0052893078,10682.2522271004,13702.5179324911
560972596164,33976,-2,0,5820.2839305893,7654.7710774937,13682.9644436966,147.3143054354,-7476.1127850425,-4829.5778875685,-7705.7172240914,-21403.5140902152,-10180.5172486064,-3819.4643681151,-5615.2095683354,-1205.8065874567,-22859.0504872660,8243.3955790004,10685.1603066411,13702.7977895180
560972596164,33976,-2,0,5820.7341353717,7656.2677042030,13681.2853015350,147.2899700417,-7474.5309844555,-4835.2236988943,-7705.2670193090,-21398.9390362098,-10179.2031373495,-3820.6568024038,-5618.7990388982,-1201.9615952607,-22857.9432268551,8244.7948641350,10687.8615353358,13706.8861356505
560972596164,33976,-2,0,5815.3925164664,7650.9504206913,13671.6484856513,139.9771842511,-7475.7355864410,-4845.6757504652,-7705.9484103310,-21398.4766637305,-10178.6677586893,-3821.7032243306,-5618.4826787808,-1198.8344971772,-22860.3280954324,8243.0548834893,10688.6767710229,13712.8726424874
560972596164,33976,-2,0,5813.4821880652,7650.1351850042,13668.7039030201,139.1497808672,-7476.8793499423,-4846.1016198540,-7702.9308215190,-21398.6956822733,-10180.1278823081,-3824.1976021793,-5614.8688728243,-1198.8101617835,-22863.5647027873,8241.0715489072,10688.5672617515,13710.7919663307
560972596164,33976,-2,0,5817.3758510486,7656.2798718998,13676.9292660724,147.5576593718,-7476.2831327980,-4834.9925126547,-7700.8501453622,-21398.4401606400,-10182.3424031298,-3825.0250055632,-5611.8877871027,-1201.5235581751,-22867.5557073452,8237.9809539142,10686.2797347488,13704.5134347700
560972596164,33976,-2,0,5822.1334205063,7660.0275225213,13688.0262055750,153.2643091818,-7477.2443808470,-4831.2205266396,-7700.5581206385,-21399.5595887477,-10184.1797253501,-3823.2728572207,-5613.1167244818,-1203.5555635445,-22869.2713525973,8235.9246131511,10683.6028414478,13699.4881759822
560972596164,33976,-2,0,5822.2307620809,7659.5043115579,13684.8261013105,152.1327133772,-7478.5341567103,-4837.0975242051,-7701.6045425653,-21395.9579504881,-10185.1409733991,-3824.4896269030,-5619.1640698028,-1200.4649685515,-22867.1298379564,8238.2851463348,10684.9291204015,13708.6382839930
560972629375,33977,-2,0,5819.1401670879,7655.8418348142,13672.3298766734,146.1340388435,-7476.8428468519,-4843.9966083037,-7699.4873633181,-21391.6505858128,-10181.1134657507,-3823.2728572207,-5616.4020026240,-1193.4807105751,-22861.3745173592,8242.9088711275,10687.2166474042,13714.3936045903
560972629375,33977,-2,0,5819.2983471466,7654.3330404081,13668.3145367218,146.6450821101,-7474.9568538443,-4841.8185905724,-7693.4400179971,-21389.7159220180,-10177.6335044594,-3819.2575172691,-5608.7241859288,-1192.1057608341,-22859.3060088993,8242.6655171910,10685.6348468172,13714.3571014998
560972629375,33977,-2,0,5823.0094946776,7659.5164792547,13678.6570790213,152.7897690057,-7473.1925378050,-4828.1664347370,-7691.0551494198,-21390.5189900083,-10177.4753244007,-3816.5562885745,-5603.4555732044,-1194.5393001987,-22861.7395482638,8241.3635736310,10684.8317788269,13708.4314331470
560972629375,33977,-2,0,5826.3434436071,7662.9234343651,13685.2032999120,158.3990772411,-7472.1096127877,-4819.4908669023,-7690.8482985738,-21392.3198091381,-10177.6091690657,-3815.8140590683,-5606.0229572341,-1196.7173179300,-22862.1045791685,8241.8867845943,10684.6735987682,13703.8442114448
560972629375,33977,-2,0,5824.9198230788,7660.7819197243,13687.3204791592,156.3184010843,-7470.9658492864,-4823.2506852206,-7693.0019809114,-21391.4315672700,-10178.6920940830,-3814.8041402320,-5611.6566008631,-1195.0381757684,-22861.8368898384,8242.7263556751,10686.1945608711,13707.7257067313
560972629375,33977,-2,0,5823.2163455236,7658.2023679978,13679.4358116180,150.7212605458,-7469.2015332471,-4833.3863766741,-7692.0042297720,-21389.0832017832,-10175.1391266107,-3814.7433017478,-5610.0261294888,-1191.0106681200,-22860.2794246451,8243.5780944527,10688.2995724214,13715.8172251186
560972629375,33977,-2,0,5826.2339343357,7657.7156601249,13674.1915342873,150.5995835776,-7466.2569506159,-4835.4305497403,-7688.1105667886,-21385.3355511617,-10171.6104945320,-3814.5729539923,-5602.6281698205,-1187.6158807064,-22857.1644942584,8245.6831060031,10691.8160368032,13719.3823602877
560972629375,33977,-2,0,5828.9229953335,7663.4953161158,13683.0982883617,158.1435556078,-7465.6850688652,-4825.4043675582,-7687.4048403729,-21389.2292141451,-10173.2774689968,-3812.7234640752,-5598.2843020547,-1192.4707917388,-22860.1212445864,8243.4929205750,10689.6623544656,13711.7167112892
560972680452,33978,-2,0,5826.0392511865,7660.0883610054,13686.1158771738,157.7663570063,-7470.2114520834,-4820.7928104623,-7690.5197707596,-21395.1305471042,-10178.0958769386,-3814.4147739336,-5603.0662069061,-1197.1675227124,-22864.0635783570,8241.2905674500,10685.3914928807,13705.4381797286
560972680452,33978,-2,0,5822.1577559000,7656.2190334157,13682.4534004300,154.1282156562,-7471.5377310371,-4826.0979262771,-7694.4742722270,-21394.1814667520,-10179.2883112273,-3815.5463697382,-5609.4055769508,-1195.7073990937,-22862.6156224351,8243.4929205750,10687.1314735264,13706.5089370490
560972680452,33978,-2,0,5818.0450743738,7654.8927544620,13674.3010435587,148.2268826971,-7471.4525571593,-4836.3309593052,-7694.6446199825,-21389.9592759544,-10175.0174496424,-3813.2831781291,-5609.3812415572,-1190.4631217630,-22858.2352515788,8247.5812667075,10690.3437454877,13715.4400265170
560972680452,33978,-2,0,5815.7210442806,7654.6980713128,13668.7647415042,146.0123618753,-7470.4669737166,-4839.6770759315,-7692.9533101241,-21388.8276801499,-10173.1071212412,-3813.0154887990,-5605.0130383978,-1189.9399107996,-22857.7242083123,8248.8710425707,10689.2121496831,13715.7198835440
560972680452,33978,-2,0,5820.7097999781,7660.5994042719,13675.5056455441,151.9867010154,-7471.0023523769,-4832.7536564393,-7690.7022862119,-21390.1539591036,-10175.5284929090,-3813.7212152147,-5601.8616049206,-1192.7384810689,-22861.9463991098,8245.2207335238,10685.9147038441,13709.1493272596
560972680452,33978,-2,0,5821.6710480271,7662.1812048589,13683.8161824742,156.3914072653,-7474.0199411889,-4826.0370877930,-7694.4134337429,-21396.1526336373,-10180.3834039414,-3815.6802144032,-5604.8791937327,-1199.9539252849,-22869.6728865924,8235.4135698845,10679.1251290169,13701.0334734787
560972680452,33978,-2,0,5820.1744213178,7657.3749646139,13684.4975734963,151.7555147757,-7478.5463244071,-4830.9285019158,-7701.1421700860,-21400.7398553396,-10185.3234888515,-3819.3913619342,-5615.0270528830,-1202.6551539796,-22872.4714568617,8230.0232801920,10675.2801368209,13699.7923684027
560972680452,33978,-2,0,5816.6336215424,7652.1306872832,13674.8485899157,145.5499893960,-7479.2642185196,-4841.7820874819,-7703.5635417537,-21399.3405702049,-10182.6709309441,-3819.7077220516,-5618.4948464776,-1199.0535157200,-22870.0500851939,8232.7610119771,10680.1350478532,13705.6450305746
560972705113,33979,-2,0,5819.3226825402,7650.7557375422,13669.3852940422,143.7735056599,-7472.4503082988,-4842.9136832864,-7698.2584259389,-21394.6681746249,-10177.5239951880,-3815.3273511953,-5610.4763342713,-1193.3103628196,-22863.9419013888,8239.4897483202,10687.9467092136,13714.6977970108
560972705113,33979,-2,0,5825.6863879786,7658.5187281152,13679.1072838037,152.0232041058,-7467.5102233887,-4829.9429184732,-7692.0042297720,-21391.3463933922,-10172.1093701018,-3810.5332786471,-5600.1581273654,-1190.9619973327,-22859.4763566548,8243.2739020322,10692.6799432777,13713.9068967174
560972705113,33979,-2,0,5828.9108276367,7663.6778315681,13689.6810123429,158.4355803315,-7465.6607334716,-4818.2740972200,-7690.5319384564,-21390.9083563066,-10171.4888175638,-3811.3606820311,-5600.4136489987,-1192.3977855578,-22856.7751279601,8244.5028394113,10690.5992671210,13706.0465645697
560972705113,33979,-2,0,5825.7472264628,7661.4633107464,13686.9067774672,155.8438609082,-7467.7900804156,-4821.6202138463,-7694.2552536842,-21392.9403616761,-10173.2896366936,-3815.2543450144,-5608.0184595130,-1195.0990142525,-22858.1865807915,8242.5073371323,10686.4622502012,13701.3620012929
560972705113,33979,-2,0,5820.2717628924,7655.7566609364,13678.6570790213,147.6793363400,-7470.7224953499,-4836.4891393639,-7700.5581206385,-21395.8606089136,-10177.2806412515,-3821.7762305115,-5615.5745992401,-1195.2693620081,-22861.4353558433,8242.8845357338,10686.2553993552,13704.4525962859
560972705113,33979,-2,0,5816.6336215424,7650.0256757328,13664.6398922813,140.3300474590,-7473.3993886510,-4846.5518246365,-7700.6189591226,-21395.1792178915,-10179.1057957749,-3827.4707126246,-5614.8810405212,-1194.4176232305,-22864.0757460539,8242.6168464037,10687.0219642550,13708.9424764136
560972705113,33979,-2,0,5817.0473232344,7652.8607490925,13666.8300777094,143.8343441440,-7473.9469350080,-4842.5364846849,-7700.1565866433,-21396.2013044246,-10182.0503784061,-3829.9650904733,-5610.9265390537,-1196.4861316904,-22866.8499809295,8241.2905674500,10686.1945608711,13707.7135390345
560972705113,33979,-2,0,5820.6489614939,7658.1658649074,13679.7886748258,150.5144096998,-7474.2997982159,-4832.0966008108,-7699.5360341054,-21398.6105083955,-10180.9431179952,-3825.9010797345,-5608.8823659875,-1198.5059693630,-22863.9297336920,8240.6213441248,10686.1215546901,13703.5278513274
560972723968,33980,-2,0,5820.7706384622,7657.3627969170,13681.9666925571,151.3539807806,-7472.8396745971,-4830.9041665222,-7700.7406360908,-21398.6226760924,-10180.9917887825,-3823.3823664921,-5614.0414694404,-1197.6055597981,-22861.1920019068,8242.1788093181,10687.4113305533,13704.1605715622
560972723968,33980,-2,0,5815.3316779823,7650.3420358502,13672.1108581305,144.6495798311,-7470.6129860785,-4838.0466045573,-7700.9596546336,-21394.7411808058,-10176.5627471389,-3819.8415667167,-5614.1874818023,-1191.1566804819,-22856.4100970554,8246.4496709029,10691.5483474731,13711.9722329225
560972723968,33980,-2,0,5809.7832082311,7642.1288404947,13661.9264958897,136.9474277422,-7469.1650301566,-4841.5874043327,-7698.5139475722,-21391.8087658715,-10171.1967928400,-3813.4900289751,-5608.0671303003,-1187.0196635621,-22854.0738992654,8249.2117380818,10694.0062222314,13720.1732605812
560972723968,33980,-2,0,5817.3028448676,7648.6020552045,13667.1829409173,140.7315814541,-7469.8220857850,-4837.0245180241,-7696.6644576551,-21393.7921004537,-10173.6911706887,-3813.8185567893,-5604.0396226519,-1189.8790723155,-22855.9842276666,8247.1919004092,10692.6921109745,13717.2773487373
560972723968,33980,-2,0,5829.3488647223,7661.1226152353,13680.9446060240,150.3440619443,-7472.4746436924,-4828.4219563703,-7698.5504506627,-21398.0872974322,-10177.0981257992,-3815.5342020413,-5606.1081311118,-1196.2914485412,-22860.1212445864,8243.9187899638,10689.7110252529,13709.4170165897
560972723968,33980,-2,0,5832.4759628058,7663.3858068444,13689.5836707683,152.2543903455,-7474.2511274286,-4826.8523234802,-7703.3566909078,-21403.4167486406,-10179.6533421320,-3815.6558790096,-5611.5835946822,-1200.7083224879,-22862.7738024938,8241.6555983547,10685.6226791204,13707.5188558853
560972723968,33980,-2,0,5832.2812796567,7659.9301809467,13683.9135240488,145.4526478214,-7474.9933569348,-4836.3431270020,-7708.4062850893,-21404.0494688754,-10180.5902547873,-3816.2277607602,-5617.7161138809,-1200.3067884928,-22860.6809586403,8242.1666416213,10685.9998777219,13710.5121093038
560972723968,33980,-2,0,5827.3655301402,7652.4105443101,13671.0522685070,136.9717631359,-7472.9735192622,-4843.7289189736,-7708.1142603655,-21402.3459913202,-10177.9741999704,-3815.0353264716,-5615.7814500861,-1195.8047406683,-22857.8093821900,8244.7583610446,10689.6136836783,13716.0240759645
560972748780,33981,-2,0,5825.3821955581,7651.3397869897,13672.4880567321,136.3390429011,-7471.2700417070,-4837.6572382589,-7704.9871622820,-21401.4090786648,-10175.9300269042,-3811.9082283881,-5608.3469873272,-1196.1819392698,-22856.5926125077,8245.7317767904,10691.1954842653,13714.9776540378
560972748780,33981,-2,0,5826.0514188833,7652.1915257673,13680.7012520875,144.3940581979,-7472.4989790861,-4828.4097886735,-7703.9650757489,-21402.9543761613,-10176.9764488309,-3811.5675328771,-5605.5849201484,-1198.6641494217,-22858.3082577598,8242.1544739245,10688.0805538786,13705.9978937824
560972748780,33981,-2,0,5820.2960982861,7649.7214833122,13680.6647489971,142.9461022759,-7476.5386544313,-4827.7892361355,-7707.5180432212,-21405.8137849147,-10181.1256334476,-3815.4855312540,-5610.4885019681,-1201.4018812068,-22862.1897530463,8241.4609152055,10689.9422114925,13705.0366457334
560972748780,33981,-2,0,5817.3150125645,7644.5380444657,13675.1284469426,136.2538690233,-7479.1790446419,-4839.0078526063,-7712.6771466741,-21407.0183869002,-10181.9287014379,-3816.5927916649,-5617.2659090985,-1200.7448255784,-22862.0680760781,8242.0571323499,10689.6258513751,13710.7432955434
560972748780,33981,-2,0,5814.2852560555,7640.7903938442,13665.8809973572,128.8072385677,-7476.6724990963,-4848.8758547297,-7711.9835879552,-21405.4365863132,-10178.3027277846,-3816.3616054253,-5616.9130458906,-1196.8146595046,-22858.2839223661,8246.1576461792,10693.2031542411,13718.7739754465
560972748780,33981,-2,0,5814.8084670189,7641.4352817758,13663.6178057481,129.2209402596,-7475.0176923284,-4846.4423153651,-7710.1827688254,-21405.8259526115,-10176.0882069629,-3816.2885992444,-5612.7395258803,-1196.9241687760,-22855.8138799111,8245.8899568491,10693.9210483536,13716.2309268105
560972748780,33981,-2,0,5817.8138881342,7646.1076773558,13676.8805952851,136.0470181773,-7474.7621706951,-4836.3066239116,-7709.5987193779,-21408.9287153014,-10177.8768583958,-3817.6148781981,-5611.4984208044,-1201.7425767179,-22859.6953751976,8241.2418966627,10690.1003915512,13706.4846016554
560972748780,33981,-2,0,5818.4587760658,7644.2095166514,13681.3704754128,136.0226827837,-7479.0695353705,-4836.7811640877,-7713.8695809628,-21414.0148125734,-10182.8169433059,-3824.7816516268,-5620.5390195438,-1207.5222327088,-22863.8202244206,8237.9444508237,10682.7632703670,13698.0037169698
560972781298,33982,-2,0,5813.7985481826,7639.3181025286,13674.5930682824,130.4498776388,-7480.7486775320,-4848.0971221330,-7718.3837964841,-21413.5524400941,-10185.7128551498,-3831.2792017302,-5628.1194946645,-1204.9791840728,-22860.8269710021,8243.9066222670,10687.1071381328,13705.2191611858
560972781298,33982,-2,0,5810.0265621675,7634.9864024596,13663.1919363593,124.9500786748,-7479.1182061578,-4857.8069441977,-7715.6825677894,-21409.1477338442,-10181.7096828951,-3833.9195919408,-5624.5908625859,-1198.0800999742,-22858.1744130947,8248.0436391868,10691.7917014096,13714.2597599252
560972781298,33982,-2,0,5811.0851517911,7634.1346636820,13659.8214843394,124.7188924352,-7478.4003120452,-4855.3003986522,-7710.8398244539,-21405.5704309783,-10179.0814603813,-3833.6762380043,-5617.3997537635,-1195.2328589176,-22857.4443512854,8245.9386276364,10693.0449741824,13711.5463635337
560972781298,33982,-2,0,5814.7719639285,7642.2626851598,13668.0711827853,134.1245220793,-7477.4633993898,-4844.4589807830,-7706.1065903897,-21406.0449711544,-10181.3689873840,-3834.6131506597,-5612.5326750343,-1197.3865412553,-22860.4376047038,8240.5970087311,10689.9543791893,13701.6175229262
560972781298,33982,-2,0,5814.4677715079,7644.3920321038,13673.3641309033,138.1885328182,-7481.0407022558,-4839.8474236871,-7707.5058755244,-21407.6024363477,-10185.3599919419,-3836.0732742785,-5616.0856425066,-1200.7569932752,-22865.7427205186,8236.7276811414,10686.6082625630,13697.0424689208
560972781298,33982,-2,0,5810.1239037421,7639.4519471937,13667.2072763109,132.2628644654,-7483.5959185886,-4848.2796375854,-7711.8497432902,-21407.6267717413,-10186.6984385925,-3834.5279767819,-5623.0942358767,-1200.3067884928,-22864.9518202251,8234.7686819529,10685.9877100251,13696.8721211652
560972781298,33982,-2,0,5805.3419988907,7633.8183035646,13653.0197418154,124.6093831637,-7482.0019503048,-4856.1156343393,-7712.3242834663,-21405.7529464306,-10184.8246132817,-3833.9317596376,-5623.4227636909,-1194.2716108686,-22861.1433311195,8241.9354553816,10693.6776944172,13709.2953396215
560972781298,33982,-2,0,5804.1373969052,7632.9909001807,13648.9070602892,122.8328994276,-7480.5174912924,-4854.8136907793,-7708.3089435147,-21403.0273823423,-10180.3469008509,-3828.3711221895,-5613.9319601690,-1189.0881720220,-22858.7462948454,8247.2284034996,10698.8611332637,13715.6955481503
560972812866,33983,-2,0,5808.9436371503,7638.5515376288,13660.8557385693,133.2849509985,-7477.2930516343,-4839.9325975648,-7701.3246855383,-21400.3018182539,-10177.8038522149,-3822.8104847414,-5606.1446342023,-1188.2120978508,-22858.8558041168,8248.8102040866,10701.7083743203,13714.1259152602
560972812866,33983,-2,0,5812.6912877717,7642.5060390962,13671.6849887417,140.6950783637,-7476.3439712821,-4830.0767631382,-7699.1588355038,-21399.5960918382,-10178.2297216037,-3818.6369647312,-5604.9156968232,-1188.9421596601,-22858.7827979359,8250.2094892212,10701.7813805012,13711.7045435924
560972812866,33983,-2,0,5811.7543751164,7638.7705561716,13673.7534972016,139.0402715958,-7475.3097170522,-4832.0844331140,-7701.3855240224,-21398.3184836718,-10178.5095786306,-3816.4224439094,-5610.0869679729,-1189.0151658411,-22858.6489532708,8249.9661352848,10702.6696223693,13711.9722329225
560972812866,33983,-2,0,5808.5056000646,7632.5406953982,13667.0247608586,131.9465043480,-7474.6404937269,-4841.7090813010,-7702.9916600031,-21397.6127572561,-10176.9399457405,-3814.4756124177,-5610.4885019681,-1187.5185391318,-22856.0328984539,8251.1464018766,10703.7160442961,13717.7032181261
560972812866,33983,-2,0,5809.6858666565,7633.4654403568,13662.4862099436,131.0460947831,-7473.1195316240,-4840.3706346504,-7699.6090402863,-21395.0818763169,-10174.7497603123,-3813.0884949799,-5605.6700940262,-1184.3671056547,-22852.7841234022,8252.4605131335,10705.0301555530,13719.2120125322
560972812866,33983,-2,0,5815.1369948331,7639.1599224699,13671.6119825608,139.3322963195,-7472.8396745971,-4829.3101982384,-7696.2385882663,-21393.4149018521,-10174.6159156473,-3809.9248938060,-5599.8174318544,-1185.8150615766,-22852.7962910990,8249.3577504436,10702.7061254598,13715.9023989963
560972812866,33983,-2,0,5817.9355651024,7641.2040955362,13681.4313138969,146.9249391370,-7473.5940718001,-4820.0627486530,-7695.9465635426,-21395.2157209819,-10176.0638715692,-3807.8442176492,-5601.1315431112,-1187.6888868874,-22856.8237987474,8248.3599993042,10702.8886409121,13714.1137475633
560972812866,33983,-2,0,5817.3636833517,7640.1698413062,13680.0076933686,147.1196222862,-7475.0298600253,-4825.0880074408,-7700.3025990052,-21396.0187889723,-10177.8646906990,-3810.7036264026,-5607.6412609115,-1186.7641419288,-22859.3303442929,8247.8976268249,10702.5357777043,13715.1236663996
560972849248,33984,-2,0,5814.6989577475,7638.8192269589,13672.8774230304,141.9361834396,-7474.9690215411,-4836.0876053688,-7700.6919653035,-21392.4293184095,-10176.8061010754,-3813.1858365545,-5609.4542477381,-1183.0773297915,-22858.5881147867,8247.3257450742,10702.7669639439,13719.8934035542
560972849248,33984,-2,0,5813.9202251509,7638.1013328463,13668.7647415042,140.4030536399,-7472.9856869590,-4840.1881191981,-7696.6401222615,-21388.5599908198,-10173.7276737792,-3811.7257129357,-5603.1270453902,-1179.1106606272,-22857.0549849870,8246.6078509616,10702.7547962471,13724.1520974423
560972849248,33984,-2,0,5816.1834167599,7643.1387593310,13677.3916385517,148.3728950590,-7469.0555208852,-4829.6387260526,-7690.6779508183,-21385.2747126776,-10172.7299226397,-3811.0564896105,-5596.4226444408,-1178.4292696051,-22858.2109161852,8246.7295279299,10701.4893557775,13720.5504591827
560972849248,33984,-2,0,5819.8337258068,7645.4627894242,13687.5760007925,156.0385440574,-7468.9703470074,-4818.7729727897,-7687.1736541332,-21384.8488432888,-10172.1215377986,-3809.1096581188,-5595.3518871203,-1178.7821328130,-22858.9288102977,8246.4496709029,10699.5546919826,13717.6910504293
560972849248,33984,-2,0,5819.2010055720,7643.7714795658,13691.3723222013,155.1989729766,-7471.0631908610,-4822.3259402620,-7687.7577035807,-21382.5126454988,-10173.2409659063,-3808.9758134538,-5599.4889040401,-1177.2124999228,-22859.9387291341,8246.1333107856,10699.6520335572,13720.2584344589
560972849248,33984,-2,0,5820.0162412591,7642.0923374042,13685.2032999120,150.2832234602,-7468.1064405330,-4830.8189926444,-7688.5242684806,-21382.0137699290,-10171.6713330161,-3810.9469803391,-5602.8471883633,-1172.6009428269,-22855.1446565858,8249.1387319008,10702.4141007360,13727.7294003082
560972849248,33984,-2,0,5820.3082659829,7641.0215800838,13676.2843781408,145.1241200072,-7466.4272983714,-4837.8640891049,-7687.5873558252,-21380.8213356404,-10169.0552781992,-3812.0542407500,-5600.3163074241,-1170.7392852130,-22851.3483351771,8252.2414945907,10702.9616470931,13733.4238824214
560972849248,33984,-2,0,5823.6300472156,7642.7372253359,13679.9711902782,148.3607273621,-7466.3177891000,-4832.7171533488,-7685.8108720891,-21384.9826879538,-10169.5906568594,-3811.5188620898,-5595.7290857219,-1176.1052395119,-22852.6259433435,8252.3023330748,10700.3090891857,13729.4207101666
560972879036,33985,-2,0,5823.0094946776,7643.8323180499,13687.0649575259,153.1791353040,-7468.2767882885,-4824.7108088393,-7688.2322437568,-21388.7303385753,-10172.1580408890,-3813.8063890925,-5598.3451405388,-1180.4369395809,-22856.8846372315,8248.4330054851,10697.1941587990,13718.9808262925
560972879036,33985,-2,0,5819.8823965941,7643.7836472626,13686.9919513450,153.9457002039,-7467.3155402395,-4824.6621380520,-7689.6436965883,-21389.0223632991,-10170.7587557544,-3812.5044455324,-5602.9932007252,-1180.2544241286,-22855.5461905810,8247.5569313138,10698.2649161194,13717.3016841310
560972879036,33985,-2,0,5820.6976322812,7641.9584927392,13682.1370403127,150.6847574553,-7464.5169699702,-4831.1475204587,-7688.7919578107,-21384.9096817729,-10166.9137635584,-3808.8541364855,-5603.4190701140,-1174.0367310520,-22851.4456767516,8251.6574451432,10700.4185984571,13724.0790912613
560972879036,33985,-2,0,5819.1645024815,7639.8778165825,13673.5101432652,147.0466161053,-7463.0568463515,-4836.1362761561,-7686.8329586222,-21381.1741988483,-10164.0178517145,-3806.4692679082,-5599.2090470132,-1171.0191422399,-22847.0653058954,8253.0567302778,10701.0391509950,13726.8046553497
560972879036,33985,-2,0,5820.8071415526,7642.1288404947,13673.4858078715,149.1637953524,-7463.6652311926,-4829.2250243606,-7684.0708914434,-21381.6730744180,-10163.9813486240,-3806.5666094828,-5594.3663036777,-1171.9438871985,-22848.3307463650,8251.8642959892,10699.4451827112,13722.8501538822
560972879036,33985,-2,0,5825.1631770153,7647.3366147349,13686.2497218388,157.1944752556,-7461.9982567279,-4816.4732780902,-7682.5620970373,-21381.5392297530,-10163.9935163208,-3802.6851141963,-5591.0445224450,-1174.2679172917,-22851.1779874215,8249.6741105610,10698.9706425351,13719.0173293830
560972879036,33985,-2,0,5827.1951823847,7649.8674956741,13692.2118932820,159.6645177106,-7459.1753510650,-4811.9103917816,-7683.7545313260,-21381.6365713275,-10162.3873803402,-3800.9207981570,-5593.7822542302,-1173.6230293600,-22852.1514031674,8249.8687937102,10699.5425242858,13717.6910504293
560972879036,33985,-2,0,5828.7161444876,7647.4947947936,13686.4809080784,155.5518361845,-7457.2406872701,-4818.8459789707,-7683.9857175656,-21378.6676533027,-10159.1751083790,-3800.4097548904,-5596.2401289884,-1169.4373416530,-22849.3284975044,8249.6497751674,10698.2770838162,13719.1268386544
560972915202,33986,-2,0,5826.6111329372,7644.8422368862,13678.4258927817,149.7965155872,-7455.4398681403,-4824.6012995679,-7683.0244695166,-21376.8424987793,-10154.1741849847,-3796.2970733643,-5592.7966707875,-1166.0425542394,-22848.1360632158,8254.5776923807,10700.5159400317,13725.2106870659
560972915202,33986,-2,0,5823.0459977681,7644.9882492481,13674.9824345808,150.0520372205,-7456.6323024290,-4820.7563073719,-7681.3939981423,-21378.9596780265,-10154.7095636449,-3795.7616947040,-5587.5280580632,-1169.5711863180,-22848.3064109713,8253.7502889967,10697.3888419482,13719.5892111337
560972915202,33986,-2,0,5822.8634823157,7647.7503164269,13684.3028903471,157.6081769476,-7457.5570473875,-4810.3650942851,-7681.3088242646,-21382.4761424083,-10157.0335937381,-3795.9077070659,-5586.8588347379,-1174.9614760106,-22849.4988452600,8250.3068307958,10694.3712531361,13712.0087360130
560972915202,33986,-2,0,5823.3745255823,7647.9571672729,13692.2362286757,157.7420216126,-7459.1023448840,-4809.4890201138,-7685.4945119717,-21385.4937312204,-10161.7668278023,-3797.6111846211,-5594.7921730665,-1179.4756915319,-22852.6502787371,8247.3744158615,10690.9642980256,13708.0298991519
560972915202,33986,-2,0,5820.6002907066,7640.8390646315,13684.9599459756,149.5409939540,-7465.0523486304,-4822.1799279001,-7691.7852112291,-21389.1075371768,-10165.2224537000,-3803.0501451010,-5602.2753066126,-1181.4225230236,-22857.1523265616,8243.5172559686,10689.0418019276,13710.3417615482
560972915202,33986,-2,0,5818.3979375817,7637.5172833988,13672.4272182479,142.5810713712,-7467.5710618728,-4834.6761525373,-7693.8902227795,-21388.3653076706,-10166.6339065314,-3807.8685530429,-5603.3217285394,-1178.0520710036,-22857.1279911680,8244.7096902573,10691.6091859573,13714.6369585267
560972915202,33986,-2,0,5819.5173656894,7637.7849727289,13670.1640266389,142.4107236157,-7469.2745394280,-4834.7248233246,-7693.2088317574,-21389.0710340864,-10165.9525155093,-3808.5377763681,-5597.0310292819,-1179.0619898399,-22857.1036557743,8243.6632683305,10690.2342362163,13711.5463635337
560972915202,33986,-2,0,5819.4930302958,7643.1265916342,13681.1636245668,148.4824043304,-7470.9901846800,-4826.2074355485,-7693.6468688430,-21393.6825911822,-10168.1913717248,-3808.9149749696,-5596.7268368613,-1183.5031991803,-22858.5881147867,8242.4586663450,10690.4167516686,13710.3660969419
560972935744,33987,-2,0,5818.3979375817,7641.6543003186,13685.7751816627,149.1759630493,-7473.6184071938,-4825.5747153137,-7699.1345001102,-21397.3085648355,-10171.5253206542,-3810.8983095518,-5603.7475979282,-1187.1291728335,-22858.4177670312,8243.6024298464,10689.9787145830,13706.9591418315
560972935744,33987,-2,0,5815.5506965251,7635.3757687580,13678.7300852022,142.5324005839,-7476.2831327980,-4836.7446609972,-7704.7803114360,-21401.0075446697,-10172.5474071874,-3813.7942213956,-5611.9121224964,-1188.0782531857,-22859.2208350215,8244.9652118906,10688.4942555706,13708.6382839930
560972935744,33987,-2,0,5812.2532506861,7631.6037827429,13670.0423496706,135.8158319377,-7475.8329280156,-4847.7442589251,-7704.9019884043,-21400.0462966206,-10171.3306375051,-3814.8284756256,-5610.6101789363,-1185.5108691561,-22856.5804448109,8246.2428200570,10690.5992671210,13718.1777583022
560972935744,33987,-2,0,5812.5452754099,7632.5406953982,13666.4285437142,136.2173659328,-7472.9735192622,-4844.8483470813,-7699.4995310149,-21396.1282982437,-10168.7145826881,-3814.6094570828,-5604.2829765884,-1182.7366342804,-22854.7309548938,8248.0314714899,10693.2761604220,13719.9785774320
560972935744,33987,-2,0,5815.5141934347,7636.1666690515,13676.7832537106,143.4206424520,-7473.0951962304,-4834.2989539358,-7697.7230472787,-21397.2477263514,-10170.7344203608,-3814.4756124177,-5600.9611953557,-1186.2044278750,-22856.7751279601,8245.2937397048,10693.1909865442,13713.5053627222
560972935744,33987,-2,0,5813.4943557621,7633.6236204155,13682.9766113934,141.9726865301,-7477.7189210231,-4833.1186873440,-7703.4783678760,-21404.1589781468,-10176.0030330851,-3817.9555737091,-5609.3690738604,-1192.1909347119,-22859.8048844690,8241.9476230785,10690.9764657225,13703.8077083543
560972935744,33987,-2,0,5807.9215506171,7627.0530641311,13673.5831494461,132.1655228908,-7482.9753660506,-4845.0308625336,-7711.8497432902,-21409.9021310472,-10180.1157146112,-3826.3026137296,-5622.2059940086,-1194.9286664970,-22862.1532499558,8240.5240025502,10685.3671574871,13699.3786667108
560972935744,33987,-2,0,5803.5898505482,7621.9913022527,13659.8579874298,120.6305463026,-7485.3845700216,-4859.6077633275,-7717.2522006796,-21409.7074478981,-10181.7948567728,-3832.2526174761,-5626.1483277792,-1195.1720204335,-22863.1753364890,8237.7497676745,10685.7686914822,13708.3340915724
560972984979,33988,-2,0,5803.6993598196,7621.9669668591,13654.7353870674,118.5863732364,-7484.7153466963,-4859.1453908482,-7716.6073127479,-21412.7493721038,-10182.4032416140,-3832.0701020237,-5623.0212296957,-1196.2306100571,-22861.5570328115,8237.8836123396,10685.5983437267,13709.7577121007
560972984979,33988,-2,0,5807.2766626855,7627.8926352119,13662.3036944913,127.7729843377,-7483.6324216791,-4848.4986561282,-7713.8939163564,-21413.5281047005,-10180.2008884890,-3830.9871770065,-5618.2636602379,-1197.3378704680,-22861.4231881465,8239.3924067456,10688.4212493896,13706.6427817141
560972984979,33988,-2,0,5807.8363767394,7628.8173801704,13668.8742507756,132.0925167099,-7483.6932601632,-4840.9060133107,-7714.4049596230,-21415.4384331017,-10183.2793157852,-3831.1088539747,-5620.7945411771,-1199.1386895978,-22863.7837213301,8237.5672522222,10685.2211451252,13702.6639448530
560972984979,33988,-2,0,5805.9747191255,7624.8628787030,13669.9085050056,127.5296304013,-7486.0416256500,-4845.3107195606,-7718.7244919951,-21417.6894570139,-10184.5082531643,-3832.2404497792,-5628.5696994470,-1200.8299994561,-22865.6088758535,8234.5374957133,10683.0431273939,13702.7491187307
560972984979,33988,-2,0,5805.5001789494,7623.4027550842,13662.7904023642,123.2344334228,-7484.2408065202,-4855.3003986522,-7719.6614046505,-21414.9517252288,-10183.7295205677,-3833.2503686155,-5630.5286986355,-1196.6808148395,-22862.2627592272,8236.9223642906,10684.4789156190,13706.3142538998
560972984979,33988,-2,0,5808.3595877028,7624.2666615586,13657.5461250335,122.6868870657,-7482.8536890824,-4855.5802556791,-7715.0376798578,-21409.6344417171,-10179.9575345525,-3829.3932087227,-5622.7778757593,-1195.3423681890,-22858.4177670312,8238.1391339729,10683.9313692620,13706.1925769316
560972984979,33988,-2,0,5813.0198155860,7631.1657456572,13669.6408156755,132.1411874972,-7479.1547092482,-4839.4337219951,-7709.1485145955,-21409.2815785093,-10177.9498645768,-3822.0560875384,-5613.9197924722,-1194.4784617146,-22859.7318782881,8240.7551887898,10685.8173622695,13708.5774455089
560972984979,33988,-2,0,5814.8328024126,7635.1445825183,13676.9049306788,137.7991665198,-7478.8140137372,-4830.4174586493,-7708.1020926687,-21410.0359757123,-10179.4586589828,-3819.8659021103,-5613.8954570785,-1195.2206912208,-22863.0049887334,8238.7961896013,10684.4789156190,13704.2092423495
560973005071,33989,-2,0,5812.3627599575,7631.3725965032,13673.6561556271,134.8180807982,-7480.4688205051,-4834.3476247231,-7711.2291907522,-21411.3257515755,-10181.3568196872,-3821.5085411814,-5620.8432119644,-1196.7903241109,-22866.1807576042,8235.8029361829,10681.3274821419,13701.8487091658
560973005071,33989,-2,0,5807.4956812283,7626.6028593486,13666.2338605651,126.0451713889,-7482.0384533953,-4847.3670603236,-7715.3175368847,-21412.9440552530,-10180.9066149047,-3821.6788889369,-5624.1771608939,-1196.0115915143,-22865.9252359709,8234.6956757720,10680.1350478532,13705.7788752396
560973005071,33989,-2,0,5805.5610174335,7626.0309775980,13660.5880492392,123.4656196624,-7479.6779202116,-4851.3580648816,-7712.8718298233,-21410.9850560645,-10176.0517038724,-3819.4400327215,-5617.9838032110,-1194.2229400813,-22860.4376047038,8236.0097870289,10682.6050903083,13709.3318427119
560973005071,33989,-2,0,5809.8927175025,7633.2464218140,13668.3753752059,131.9221689543,-7474.7743383920,-4840.2124545917,-7708.2724404242,-21408.9287153014,-10173.2166305126,-3816.5684562713,-5610.2451480316,-1193.1400150640,-22856.9089726251,8239.8547792249,10686.4622502012,13708.1880792106
560973005071,33989,-2,0,5814.3582622365,7636.6533769244,13681.4921523810,138.6022345101,-7473.4967302256,-4830.9406696127,-7707.1651800133,-21410.4131743138,-10174.6402510409,-3815.2665127112,-5610.7075205109,-1195.2571943112,-22859.2086673247,8242.3856601641,10687.4234982502,13703.7103667797
560973005071,33989,-2,0,5808.5907739424,7633.1734156330,13677.5254832168,133.2727833017,-7478.3881443484,-4837.3043750511,-7712.3851219504,-21413.9296386956,-10178.4974109338,-3819.9510759881,-5619.8819639154,-1196.4496285999,-22862.9441502493,8240.7186856993,10684.5762571936,13700.1330639138
560973005071,33989,-2,0,5803.4195027927,7627.2112441898,13663.8976627751,124.2200168654,-7481.0285345590,-4850.7131769499,-7715.1958599165,-21412.9927260403,-10179.6046713447,-3825.4995457393,-5624.2623347717,-1194.0769277194,-22864.2704292030,8244.4176655335,10686.0485485092,13705.0244780366
560973005071,33989,-2,0,5802.8476210420,7624.4856801014,13655.4654488768,121.3606081120,-7479.7022556053,-4854.4243244809,-7710.8763275443,-21409.2694108124,-10176.7330948945,-3824.1245959983,-5617.9107970301,-1189.4166998362,-22859.7318782881,8246.5348447807,10687.2044797074,13709.3683458024
560973067435,33990,-2,0,5807.6416935902,7630.7520439653,13663.1310978752,127.7486489441,-7477.3052193311,-4845.7122535557,-7705.4130316708,-21407.3104116239,-10176.8912749532,-3824.4409561157,-5611.2550668679,-1188.8204826919,-22858.5881147867,8248.2504900327,10691.1103103875,13708.2002469074
560973067435,33990,-2,0,5812.4114307448,7638.0891651495,13673.4614724779,139.2957932290,-7477.7554241136,-4836.4039654862,-7702.6996352793,-21407.5172624699,-10178.6069202052,-3825.3413656806,-5612.8125320613,-1190.9985004232,-22857.9432268551,8245.3667458857,10689.5163421037,13700.8266226327
560973067435,33990,-2,0,5809.7832082311,7634.0373221075,13674.5565651920,137.8965080944,-7482.1479626667,-4840.0177714426,-7707.9074095195,-21411.3014161819,-10182.7561048218,-3828.6144761260,-5621.6341122579,-1195.4518774604,-22859.2451704151,8241.2540643596,10684.7101018587,13698.6242695077
560973067435,33990,-2,0,5802.1662300199,7627.8561321214,13662.3523652785,128.2961953011,-7485.6522593517,-4853.9741196985,-7713.1881899407,-21414.4163465685,-10185.0436318245,-3832.7636607426,-5629.4214382246,-1196.3157839348,-22862.4817777700,8240.1833070391,10683.7610215065,13701.7513675912
560973067435,33990,-2,0,5800.8399510662,7627.0652318279,13652.7033816980,123.9401598385,-7481.6490870969,-4858.6586829753,-7711.8619109870,-21412.6520305292,-10180.7362671492,-3832.3742944443,-5625.0654027620,-1192.9818350053,-22862.3114300145,8243.0792188830,10685.7565237854,13706.4480985649
560973067435,33990,-2,0,5802.0080499612,7630.8372178430,13655.0760825784,127.6999781568,-7479.8604356640,-4848.8028485487,-7708.6009682384,-21410.3766712233,-10179.1057957749,-3828.6509792165,-5616.9495489811,-1192.5559656165,-22863.6985474523,8243.3347405163,10685.2211451252,13708.9424764136
560973067435,33990,-2,0,5806.2789115460,7634.4510237994,13666.9030838903,135.9983473900,-7480.1767957814,-4837.7667475303,-7707.9195772164,-21412.6885336197,-10179.9818699462,-3827.0935140231,-5616.0856425066,-1195.2571943112,-22864.1244168411,8241.0472135136,10682.4955810369,13708.0177314551
560973067435,33990,-2,0,5809.4425127200,7632.7597139410,13670.1275235484,137.1664462850,-7481.8437702461,-4836.2336177306,-7709.4162039256,-21413.7714586369,-10181.0891303571,-3826.8988308740,-5620.7337026930,-1194.8799957097,-22861.2650080878,8234.1237940213,10681.1084635991,13703.7103667797
560973082812,33991,-2,0,5809.0774818153,7631.4577703810,13664.8710785209,132.4575476145,-7480.3349758401,-4843.4733973403,-7710.5843028206,-21411.0580622454,-10179.3369820146,-3823.9299128492,-5621.0257274168,-1190.4509540662,-22859.7927167722,8240.4874994597,10686.0485485092,13708.8816379295
560973082812,33991,-2,0,5810.3672576786,7632.4555215205,13659.1765964078,129.3426172279,-7476.9766915169,-4848.2187991012,-7706.3864474167,-21405.8016172179,-10173.7520091728,-3819.7198897484,-5614.7471958561,-1184.7321365594,-22854.8891349525,8248.2383223359,10691.0738072971,13713.8095551428
560973082812,33991,-2,0,5813.0198155860,7636.7628861958,13661.1355955963,132.5670568860,-7475.1028662062,-4841.3440503963,-7702.1520889223,-21402.7961961026,-10172.8881026984,-3817.3350211711,-5607.0572114640,-1184.1602548087,-22854.6336133192,8250.5501847323,10692.5217632190,13715.0019894314
560973082812,33991,-2,0,5817.6557080755,7642.9440761818,13673.6804910207,139.9163457670,-7476.4778159472,-4830.9650050063,-7701.5193686875,-21405.7286110370,-10175.0782881265,-3813.8550598798,-5605.1468830628,-1187.7862284620,-22858.6732886645,8247.2770742869,10690.4532547591,13712.5684500668
560973082812,33991,-2,0,5819.2131732688,7643.2847716929,13682.4047296428,143.0799469410,-7478.0717842310,-4827.9230808006,-7703.5635417537,-21406.3613312718,-10176.6114179262,-3811.1294957914,-5609.4907508286,-1189.1611782029,-22861.3988527528,8245.4032489762,10689.6866898592,13711.8383882575
560973082812,33991,-2,0,5818.6899623054,7641.6056295313,13677.0266076470,138.1763651213,-7475.2610462649,-4835.9415930069,-7704.9141561011,-21403.5262579120,-10173.9466923220,-3810.1195769551,-5614.3578295578,-1185.2310121291,-22858.5637793931,8248.3356639105,10693.1666511506,13713.3958534508
560973082812,33991,-2,0,5815.6845411902,7636.6777123180,13669.0080954407,134.6355653459,-7472.7666684162,-4843.1205341324,-7702.2737658905,-21402.3581590170,-10170.2477124878,-3808.5134409745,-5610.0261294888,-1182.2255910139,-22853.7453714512,8252.3753392557,10696.5249354737,13715.3061818520
560973082812,33991,-2,0,5812.7156231654,7636.5925384403,13668.0468473917,134.0150128079,-7473.7157487684,-4841.1006964598,-7701.8235611081,-21404.4023320833,-10170.6127433925,-3808.9758134538,-5605.8769448722,-1185.6325461243,-22853.2708312751,8249.7957875293,10692.9232972141,13708.3705946629
560973100262,33992,-2,0,5812.2532506861,7638.6732145970,13675.6638256028,139.2957932290,-7475.8085926219,-4833.3498735836,-7702.6631321888,-21408.3324981571,-10174.9687788551,-3813.3683520068,-5606.4731620165,-1190.9254942423,-22856.8846372315,8249.9661352848,10691.0859749939,13703.5156836306
560973100262,33992,-2,0,5811.6083627545,7636.6047061371,13680.9324383272,140.1110289162,-7478.4489828325,-4833.5567244296,-7707.0435030451,-21412.7493721038,-10180.3712362445,-3816.5197854840,-5613.6399354452,-1195.4153743699,-22859.9508968309,8245.0625534651,10687.8371999421,13700.5467656058
560973100262,33992,-2,0,5809.3938419327,7629.4135973147,13675.6029871187,132.2750321622,-7482.2331365444,-4845.4202288320,-7712.5676374027,-21414.0269802702,-10183.0481295456,-3822.3359445654,-5621.0135597199,-1194.7948218320,-22862.4452746796,8241.3514059341,10685.9147038441,13706.2655831125
560973100262,33992,-2,0,5808.2257430377,7627.7709582436,13667.2072763109,127.3957857362,-7480.3106404464,-4854.8745292634,-7710.4991289428,-21411.0093914581,-10181.6366767141,-3825.8524089472,-5619.3952560425,-1189.8547369219,-22860.5349462784,8242.7871941592,10688.4577524801,13713.5296981158
560973100262,33992,-2,0,5811.8030459037,7631.2022487477,13666.7084007412,129.6589773453,-7478.1569581087,-4850.6766738595,-7705.9240749374,-21409.3180815997,-10178.9476157162,-3825.0615086537,-5612.7516935772,-1188.2729363349,-22857.8337175837,8244.4054978367,10690.3437454877,13715.5252003948
560973100262,33992,-2,0,5815.9643982171,7636.0693274769,13676.3695520186,136.2173659328,-7477.0862007883,-4840.6261562837,-7705.9605780279,-21411.9098010230,-10178.8989449290,-3824.9276639886,-5609.9774587015,-1192.1544316214,-22858.0040653392,8243.2008958512,10688.7619449007,13708.3097561788
560973100262,33992,-2,0,5814.0175667254,7634.3658499217,13680.6039105130,138.1276943340,-7480.3958143242,-4837.9614306795,-7710.3287811873,-21415.8764701873,-10182.9264525773,-3827.9695881944,-5617.5092630349,-1195.9020822429,-22861.0338218481,8241.3635736310,10687.2409827978,13703.8685468384
560973100262,33992,-2,0,5811.7300397227,7628.9998956228,13672.7435783653,130.7053992720,-7484.1678003393,-4848.8636870329,-7715.6582323958,-21420.0743255912,-10185.6520166657,-3831.8145803904,-5624.7003718573,-1195.2450266144,-22858.9288102977,8240.4144932788,10685.0021265824,13706.9834772251
560973158962,33993,-2,0,5809.6736989596,7626.8462132851,13663.3622841149,125.1325941271,-7484.5206635471,-4861.5180917287,-7716.2666172369,-21418.0058171313,-10181.6731798046,-3829.7460719305,-5625.9901477205,-1192.4829594356,-22857.0306495934,8241.6799337484,10688.0562184850,13716.4012745661
560973158962,33993,-2,0,5809.6736989596,7628.8660509577,13659.9553290044,124.2443522591,-7482.0141180016,-4857.7461057136,-7713.6383947231,-21416.8863890236,-10179.8723606748,-3828.5536376419,-5621.5124352897,-1191.6433883548,-22854.9499734366,8240.5848410343,10684.9656234919,13715.3426849425
560973158962,33993,-2,0,5815.5020257378,7636.8845631640,13669.8720019151,133.8324973555,-7480.5296589892,-4845.6879181621,-7710.2071042191,-21414.7083712923,-10180.2252238827,-3826.3756199106,-5617.4849276413,-1192.9818350053,-22858.7584625422,8240.5848410343,10684.4910833158,13711.9844006193
560973158962,33993,-2,0,5817.2541740803,7640.0116612475,13681.3948108065,139.3931348036,-7479.7995971798,-4838.6914924889,-7709.6595578620,-21414.9273898351,-10181.9408691347,-3825.1831856219,-5620.8675473581,-1195.2815297049,-22864.2947645967,8237.6280907063,10681.2666436578,13706.1074030538
560973158962,33993,-2,0,5815.4046841633,7636.9332339513,13679.4479793148,137.3611294342,-7480.3958143242,-4841.3197150026,-7710.5964705174,-21415.9129732778,-10183.2549803916,-3827.1908555977,-5627.0974081314,-1193.9065799639,-22866.1929253010,8236.8006873224,10681.5465006847,13706.8618002569
560973158962,33993,-2,0,5812.0829029306,7633.9764836233,13669.1054370153,132.6643984605,-7479.3372247006,-4849.7032581136,-7710.8763275443,-21411.5204347247,-10179.9818699462,-3826.3999553042,-5624.4205148304,-1188.6866380268,-22863.4673612127,8239.4775806234,10685.8051945727,13712.8239717001
560973158962,33993,-2,0,5813.0684863732,7632.1634967967,13666.1365189905,132.5670568860,-7478.2786350770,-4848.5838300059,-7707.9804157005,-21408.7218644554,-10176.4289024739,-3823.6257204286,-5616.2924933526,-1186.3747756305,-22859.7318782881,8243.1035542766,10689.0539696244,13716.6081254120
560973158962,33993,-2,0,5816.2564229409,7634.8160547041,13671.4172994116,137.2394524660,-7478.5949951944,-4839.6770759315,-7707.5423786148,-21409.1720692379,-10177.4266536134,-3821.1800133672,-5612.8855382422,-1190.3901155821,-22858.5151086058,8244.6975225604,10689.8448699179,13710.3904323355
560973175305,33994,-2,0,5817.0108201439,7638.9895747144,13679.1316191974,142.5202328871,-7477.4755670867,-4831.6707314220,-7709.5743839843,-21413.2725830672,-10179.4221558923,-3821.1191748831,-5616.2316548685,-1191.9597484722,-22858.4421024248,8243.6267652400,10688.9687957467,13704.6594471319
560973175305,33994,-2,0,5816.6579569360,7636.4343583816,13679.4966501021,136.9230923486,-7478.9600260991,-4837.8884244986,-7713.4680469676,-21413.6741170623,-10180.1157146112,-3820.2431007118,-5623.1794097544,-1192.5559656165,-22859.0018164787,8242.9210388243,10685.2211451252,13702.6761125498
560973175305,33994,-2,0,5811.3406734244,7630.1193237305,13667.6331456997,129.3182818342,-7479.3250570037,-4849.5572457518,-7714.2832826548,-21413.6619493655,-10179.2639758336,-3821.5207088782,-5624.1284901066,-1190.4752894598,-22858.7341271486,8242.0084615626,10684.7952757364,13706.3629246871
560973175305,33994,-2,0,5807.3131657760,7627.9534736960,13658.9089070777,125.5584635159,-7479.7874294830,-4853.4265733415,-7711.2291907522,-21411.8854656294,-10178.1810508164,-3823.9907513333,-5618.9450512600,-1190.0615877678,-22860.8391386989,8241.1688904818,10683.1404689685,13706.7157878950
560973175305,33994,-2,0,5807.3131657760,7632.2730060681,13665.4064571811,130.3038652769,-7481.7342609747,-4846.3936445778,-7711.1075137840,-21415.3410915271,-10181.4176581713,-3825.5360488298,-5615.8057854797,-1195.3423681890,-22866.4362792375,8236.6790103541,10679.4779922248,13701.4593428675
560973175305,33994,-2,0,5810.2699161040,7636.4100229879,13675.8098379647,136.9109246517,-7482.6468382364,-4842.1349506898,-7712.0687618330,-21417.1540783537,-10184.0458806851,-3828.0425943753,-5619.2614113774,-1198.8466648740,-22868.9671601767,8232.2986394979,10677.6893407918,13697.0303012239
560973175305,33994,-2,0,5810.5741085245,7636.5438676530,13672.9869323018,137.0447693168,-7484.0704587647,-4846.3449737905,-7712.7258174614,-21415.4019300112,-10186.1995630227,-3829.6122272655,-5625.7102906936,-1195.6830637000,-22866.9838255945,8232.6149996153,10680.2080540342,13699.5611821631
560973175305,33994,-2,0,5808.6637801233,7632.9300616966,13666.1608543841,130.0483436436,-7483.7540986473,-4857.0768823883,-7713.0178421852,-21411.5812732088,-10184.6177624357,-3828.8213269720,-5624.7368749478,-1189.9764138901,-22862.4452746796,8237.2143890143,10683.8340276874,13710.7676309370
560973193108,33995,-2,0,5808.2500784314,7631.1414102636,13661.0747571121,126.7752331982,-7482.2696396349,-4859.8632849608,-7710.9371660284,-21408.7218644554,-10181.3081488999,-3828.7483207910,-5616.9860520715,-1185.3648567942,-22859.3303442929,8242.2883185895,10686.2919024456,13716.9244855294
560973193108,33995,-2,0,5812.3992630480,7634.9985701565,13668.0833504822,132.0681813162,-7480.0186157227,-4849.0583701820,-7706.1917642675,-21406.3491635749,-10178.6799263861,-3826.3877876074,-5609.9774587015,-1184.0994163246,-22856.5682771141,8242.4830017387,10688.1048892723,13714.4057722871
560973193108,33995,-2,0,5817.1811678994,7642.5182067930,13681.2001276573,140.4030536399,-7478.9600260991,-4839.4337219951,-7706.8244845023,-21408.3446658539,-10178.5582494179,-3823.0416709811,-5610.5006696649,-1186.5572910828,-22855.4366813096,8243.4685851813,10687.7276906707,13710.2930907609
560973193108,33995,-2,0,5813.0563186764,7641.5204556536,13681.7841771048,138.1398620309,-7480.9555283780,-4843.5342358244,-7711.2656938427,-21410.7538698248,-10180.8457764206,-3824.7086454458,-5618.7260327172,-1188.4189486967,-22857.3835128012,8243.2130635480,10684.4789156190,13708.4801039343
560973193108,33995,-2,0,5810.4037607690,7635.6556257849,13672.4150505511,130.8149085434,-7481.4422362509,-4854.0471258794,-7713.1273514566,-21410.8512113994,-10180.9917887825,-3828.0669297690,-5623.2524159354,-1184.8051427403,-22857.9553945519,8244.5150071081,10688.0318830913,13714.5031138617
560973193108,33995,-2,0,5811.8152136005,7634.2563406503,13664.3356998607,126.8482393792,-7479.6049140307,-4857.1377208725,-7710.0610918572,-21409.1599015410,-10176.2098839311,-3825.9497505218,-5616.7305304383,-1182.7001311900,-22854.8404641652,8244.2838208685,10689.7475283434,13718.7009692656
560973193108,33995,-2,0,5816.3659322123,7638.2716806018,13667.7426549711,131.9830074385,-7476.6846667932,-4848.4864884313,-7706.3377766294,-21408.7705352427,-10174.3968971045,-3822.1047583257,-5610.3668249999,-1183.1381682756,-22854.3780916860,8244.2108146875,10689.6258513751,13715.5860388789
560973193108,33995,-2,0,5821.1113339732,7645.1585970036,13680.6160782098,140.0501904321,-7475.7599218346,-4837.2070334765,-7705.2305162185,-21408.6610259713,-10175.6136667868,-3820.0240821690,-5611.0117129315,-1184.9511551022,-22856.8237987474,8244.3446593526,10688.7132741134,13712.8726424874
560973224154,33996,-2,0,5821.0261600955,7644.9639138545,13683.2443007235,141.0966123588,-7475.9302695901,-4837.5720643812,-7706.4594535976,-21409.5857709298,-10177.9133614863,-3819.5008712056,-5616.3411641399,-1185.0119935863,-22859.9022260436,8242.0814677435,10685.1238035506,13710.2809230641
560973224154,33996,-2,0,5816.2929260313,7639.0504131985,13676.3695520186,134.1853605634,-7478.0717842310,-4846.4423153651,-7707.5058755244,-21409.3789200838,-10177.7308460340,-3819.9389082912,-5620.0401439741,-1182.8704789455,-22860.5349462784,8243.9796284479,10687.2653181915,13714.8438093727
560973224154,33996,-2,0,5814.2244175714,7636.2153398388,13666.7205684380,129.6954804357,-7475.6260771696,-4851.2363879133,-7704.7073052551,-21403.3072393692,-10174.1778785617,-3819.4156973278,-5613.8224508976,-1178.2589218496,-22856.3857616618,8246.3888324188,10691.2076519621,13718.9321555052
560973224154,33996,-2,0,5813.2388341288,7637.8579789099,13667.6088103061,133.6499819032,-7474.8473445729,-4845.2377133796,-7700.9353192400,-21401.9079542346,-10174.5550771632,-3818.1745922519,-5606.8381929212,-1178.6361204511,-22855.6556998524,8246.4861739934,10691.4023351113,13716.5837900184
560973224154,33996,-2,0,5814.3460945397,7642.0314989201,13677.5984893977,138.1641974245,-7475.3827232331,-4834.2502831485,-7700.0470773719,-21404.8647045625,-10176.2220516279,-3815.4855312540,-5605.0252060946,-1181.1061629062,-22859.1113257501,8244.9287088001,10692.1323969206,13714.4057722871
560973224154,33996,-2,0,5816.0860751853,7642.0801697074,13680.1050349432,140.3422151558,-7475.1272015998,-4832.5346378965,-7703.2836847268,-21407.4442562890,-10178.3757339656,-3818.1259214646,-5611.4010792298,-1183.2598452438,-22860.1212445864,8243.5050882718,10692.2905769793,13712.5441146732
560973224154,33996,-2,0,5814.4556038111,7637.6632957607,13673.2059508446,133.0659324557,-7475.3948909299,-4843.6072420053,-7707.4815401307,-21407.8579579810,-10177.9498645768,-3820.1822622277,-5616.3898349272,-1180.9723182411,-22860.7539648212,8244.5393425017,10691.3049935367,13717.1800071627
560973224154,33996,-2,0,5815.4411872537,7634.5118622836,13666.6110591666,128.4178722693,-7474.3363013063,-4851.4919095466,-7705.4373670645,-21404.6943568070,-10174.1048723807,-3819.6955543548,-5611.2185637775,-1178.4049342115,-22856.0328984539,8246.4618385998,10692.7286140650,13720.8789869969
560973251757,33997,-2,0,5819.3591856307,7639.2572640445,13670.2492005166,133.6256465095,-7470.3087936579,-4844.8483470813,-7698.9519846579,-21403.0882208264,-10172.2310470700,-3817.8947352250,-5603.2365546616,-1176.2025810865,-22854.3050855050,8247.9706330058,10694.5294331948,13723.3246940583
560973251757,33997,-2,0,5826.5137913626,7645.2924416687,13683.8526855647,143.6639963885,-7468.6783222837,-4832.3156193537,-7695.3868494887,-21402.2729851392,-10170.6614141798,-3815.0231587748,-5599.2212147100,-1176.8839721086,-22855.0351473144,8246.6930248394,10695.1621534296,13719.1511740480
560973251757,33997,-2,0,5825.8567357342,7646.5457144414,13690.3989064554,144.9659399485,-7469.6882411200,-4829.6995645367,-7696.3480975377,-21403.4897548215,-10172.6082456715,-3813.8550598798,-5604.8913614295,-1179.1471637177,-22854.8039610748,8247.1919004092,10694.4077562265,13715.9389020868
560973251757,33997,-2,0,5818.5561176404,7638.7462207779,13681.0419475986,137.3246263437,-7472.3407990274,-4843.0596956483,-7701.7748903208,-21403.4654194279,-10173.4113136618,-3816.8118102077,-5611.8999547995,-1178.2345864559,-22851.6646952945,8250.4650108545,10696.6344447451,13717.6667150356
560973251757,33997,-2,0,5815.9157274298,7636.0449920832,13669.0080954407,129.5129649834,-7469.7125765136,-4851.6744249990,-7701.1056669955,-21403.4045809438,-10170.1747063069,-3817.8703998313,-5609.9531233079,-1175.4846869740,-22848.8052865411,8250.6840293973,10697.1698234053,13720.6964715446
560973251757,33997,-2,0,5815.0274855617,7635.6069549976,13667.9130027266,130.0970144309,-7469.2867071248,-4848.4743207345,-7701.1543377828,-21407.1278961716,-10169.7853400086,-3817.0916672347,-5606.2784788673,-1179.6217038938,-22851.1171489374,8250.7448678814,10695.6731966961,13719.4797018623
560973251757,33997,-2,0,5815.0274855617,7640.8147292378,13675.4448070600,135.0614347347,-7470.4548060198,-4839.1903680586,-7703.3080201205,-21411.0337268518,-10172.3892271287,-3817.9677414059,-5606.4001558356,-1183.7830562072,-22854.8526318621,8248.1653161550,10692.4730924317,13711.6193697146
560973251757,33997,-2,0,5819.9067319877,7644.9760815513,13682.9644436966,142.2768789507,-7468.8851731297,-4832.7049856520,-7703.4175293919,-21410.6200251598,-10172.9489411825,-3815.6680467064,-5609.0892168334,-1182.8948143391,-22852.6137756466,8247.0458880473,10691.4266705049,13708.6991224771
560973291445,33998,-2,0,5819.3226825402,7642.0071635265,13680.6404136034,137.9695142753,-7468.7999992519,-4839.3242127237,-7705.5468763359,-21408.4055043380,-10172.1945439795,-3814.3782708431,-5613.3844138119,-1179.7920516493,-22852.3095832261,8249.3334150500,10694.2617438647,13716.4134422629
560973291445,33998,-2,0,5816.9256462661,7637.8458112130,13670.5655606340,129.5129649834,-7471.5864018244,-4850.1534628961,-7706.2282673580,-21406.3248281813,-10173.3383074809,-3818.5517908534,-5612.9585444231,-1177.6383693116,-22853.9887253876,8248.4086700914,10695.2473273073,13720.2097636716
560973291445,33998,-2,0,5812.7642939527,7636.8237246799,13664.9197493082,126.6535562300,-7474.9690215411,-4852.3314806274,-7705.4617024581,-21406.9088776288,-10176.3315608993,-3822.8348201351,-5610.0382971856,-1179.7068777715,-22856.4100970554,8244.0648023257,10691.3414966272,13717.6058765515
560973291445,33998,-2,0,5811.5961950577,7636.4586937752,13670.4438836658,129.2452756533,-7478.2542996833,-4844.2886330274,-7706.3012735389,-21410.8268760058,-10180.3347331541,-3822.7253108637,-5609.3082353763,-1185.6690492148,-22861.5935359020,8238.9178665695,10686.5474240789,13712.4832761891
560973291445,33998,-2,0,5815.1978333173,7641.0702508711,13677.8175079405,134.1366897761,-7479.4832370624,-4839.4215542983,-7709.1485145955,-21413.9174709988,-10181.2351427190,-3821.6423858464,-5614.4551711324,-1188.3459425158,-22861.5570328115,8239.4897483202,10686.7664426217,13708.8816379295
560973291445,33998,-2,0,5819.7363842322,7639.9629904602,13674.5565651920,133.2241125144,-7475.1880400839,-4841.9037644501,-7708.4306204829,-21409.9021310472,-10176.3680639898,-3819.2696849660,-5617.4484245508,-1184.0020747500,-22856.4709355395,8246.0359692110,10692.8259556396,13716.1214175391
560973291445,33998,-2,0,5824.3601090249,7639.4276118000,13670.6872376023,132.0073428321,-7467.9604281711,-4845.3107195606,-7704.9263237979,-21404.6335183229,-10168.5320672358,-3812.4071039578,-5611.6931039536,-1176.0444010278,-22850.1315654948,8254.6750339553,10696.7074509261,13725.8434073007
560973291445,33998,-2,0,5828.4849582479,7642.0193312233,13673.3641309033,135.0736024315,-7464.9063362686,-4842.1957891739,-7700.8866484527,-21403.3680778533,-10163.4338022670,-3809.7423783536,-5605.0373737914,-1174.0854018393,-22846.2379025114,8258.3131753053,10700.5037723348,13730.4184613061
560973317191,33999,-2,0,5829.3123616319,7648.1275150284,13679.2289607720,141.6684941095,-7464.9671747527,-4832.9240041948,-7699.6577110736,-21406.3613312718,-10166.6704096219,-3811.9082283881,-5604.0639580456,-1179.1836668081,-22847.1626474700,8255.7092881852,10696.7561217134,13721.0615024492
560973317191,33999,-2,0,5828.8013183653,7651.7291532880,13691.0437943870,146.5599082323,-7464.9428393590,-4825.8667400375,-7701.4098594161,-21408.7461998491,-10169.6393276467,-3810.8374710677,-5607.8481117575,-1183.3936899089,-22850.9224657883,8252.3875069525,10693.0084710919,13714.7586354950
560973317191,33999,-2,0,5827.3898655339,7649.9648372487,13690.5084157268,145.0267784326,-7467.1451924840,-4833.0456811630,-7703.4905355728,-21408.2351565825,-10171.4766498670,-3813.5995382465,-5613.9562955626,-1182.9313174296,-22852.0297261991,8251.4384266004,10690.4897578495,13716.3282683851
560973317191,33999,-2,0,5825.6498848882,7647.0324223144,13679.6304947671,139.4661409846,-7466.6463169142,-4844.5563223575,-7703.3323555141,-21405.7651141274,-10171.0142773877,-3816.4954500903,-5616.4020026240,-1179.1714991113,-22853.6358621798,8249.9539675880,10692.5460986126,13719.6257142241
560973317191,33999,-2,0,5820.7949738558,7642.4086975216,13672.2203674020,134.5503914681,-7471.1361970419,-4851.3580648816,-7704.0502496267,-21407.6632748318,-10173.2774689968,-3820.4864546483,-5613.2384014501,-1181.7267154441,-22858.2960900630,8247.3014096806,10690.3437454877,13717.1313363754
560973317191,33999,-2,0,5817.2906771708,7637.9553204844,13673.5588140525,136.9474277422,-7477.0010269106,-4847.9754451648,-7706.2282673580,-21413.7714586369,-10178.7285971734,-3825.0006701696,-5614.4065003451,-1188.5649610586,-22864.8788140442,8241.7286045356,10684.1868908953,13707.6770359440
560973317191,33999,-2,0,5815.9765659139,7641.4474494726,13678.0243587865,141.4859786572,-7478.1812935024,-4842.5243169881,-7710.1827688254,-21416.9837305982,-10181.8313598633,-3826.0592597932,-5619.2735790743,-1192.6168041007,-22865.4020250076,8241.2418966627,10681.7655192275,13700.6319394835
560973317191,33999,-2,0,5819.8945642909,7647.0932607985,13679.5453208894,140.5977367891,-7477.6215794485,-4844.8483470813,-7710.6938120920,-21415.2559176493,-10180.5294163032,-3825.3535333774,-5622.7170372751,-1189.8547369219,-22863.1996718826,8241.2175612691,10682.6172580051,13702.6517771561
560973349037,34000,-2,0,5823.4840348537,7650.6705636644,13674.9459314903,136.5215583534,-7473.5575687097,-4852.7451823194,-7710.0854272508,-21411.4839316342,-10175.6623375741,-3822.7009754700,-5620.9770566295,-1183.5397022707,-22858.8558041168,8245.2450689175,10688.0927215754,13711.8140528638
560973349037,34000,-2,0,5827.3290270497,7652.4348797037,13672.0500196464,136.8257507740,-7469.4083840931,-4853.2075547986,-7705.1453423407,-21407.6389394382,-10172.8881026984,-3821.9830813575,-5613.9927986531,-1179.8772255270,-22855.2663335540,8248.7615332993,10690.7939502701,13717.2773487373
560973349037,34000,-2,0,5830.3101127714,7653.9193387161,13677.6958309723,143.9438534154,-7470.9901846800,-4843.4490619466,-7703.5513740569,-21408.8192060300,-10173.8006799601,-3820.2552684086,-5610.5250050586,-1183.2355098502,-22858.6611209676,8243.7119391178,10685.8660330568,13712.5927854605
560973349037,34000,-2,0,5829.5557155683,7655.2699530635,13688.7319319907,149.0299506874,-7472.8761776876,-4836.8906733591,-7706.8974906832,-21411.7759563580,-10176.8426041659,-3820.1822622277,-5613.1288921787,-1187.7497253715,-22862.8468086747,8239.3559036552,10680.3175633056,13708.2732530883
560973349037,34000,-2,0,5827.2803562624,7652.8364136989,13685.8725232373,145.3431385500,-7477.0862007883,-4841.8429259660,-7712.2269418917,-21414.7083712923,-10182.5614216727,-3825.0615086537,-5622.8752173338,-1189.5018737140,-22865.1951741616,8237.2873951953,10678.8696073836,13707.5553589758
560973349037,34000,-2,0,5820.0770797433,7646.5457144414,13672.9990999986,135.7428257567,-7482.1236272730,-4856.7118514837,-7714.7213197404,-21412.1044841722,-10183.8633652327,-3827.7505696516,-5623.5444406591,-1185.8637323639,-22865.9009005773,8237.1900536207,10681.9967054671,13714.2962630157
560973349037,34000,-2,0,5815.9157274298,7644.1121750769,13666.0026743254,132.9442554875,-7480.4566528083,-4860.4473344083,-7713.0665129725,-21410.6078574630,-10181.6975151982,-3827.1178494168,-5618.3244987221,-1182.8948143391,-22866.6431300835,8236.0462901193,10681.4491591101,13715.9997405709
560973349037,34000,-2,0,5818.2640929166,7648.0180057570,13669.3852940422,137.5801479770,-7480.1646280845,-4852.7451823194,-7709.0876761114,-21408.1499827047,-10182.6587632472,-3826.8258246930,-5613.5790969611,-1183.0043236105,-22867.1055025628,8234.4036510482,10683.5785060541,13713.9433998078
560973374899,34001,-2,0,5820.9044831272,7652.9215875767,13679.0586130164,142.9704376696,-7479.4345662752,-4841.7334166946,-7707.6762232799,-21412.6033597419,-10184.6177624357,-3825.1466825315,-5614.5525127069,-1186.3017694496,-22869.2956879909,8233.3693968183,10679.2589736820,13706.6306140172
560973374899,34001,-2,0,5820.9288185209,7650.9990914786,13682.7819282443,144.6252444375,-7479.9821126322,-4841.4292242740,-7710.3287811873,-21412.3965088959,-10186.7227739861,-3824.9398316855,-5620.9770566295,-1187.9322408238,-22871.3398610571,8232.5298257375,10678.1638809679,13706.1560738411
560973374899,34001,-2,0,5817.1446648089,7644.9395784608,13673.7656648985,137.6409864611,-7479.5440755466,-4850.5306614976,-7711.3995385077,-21411.2527453946,-10185.8223644212,-3825.4873780425,-5622.5345218228,-1184.1602548087,-22867.2150118342,8234.2576386864,10681.4126560196,13711.1204941449
560973374899,34001,-2,0,5815.4533549505,7642.2140143725,13664.7494015527,133.6743172968,-7478.3394735611,-4856.0547958552,-7709.4527070161,-21408.2716596730,-10182.4397447044,-3825.7063965853,-5618.8963804727,-1182.3837710726,-22863.4186904254,8236.4843272050,10684.0043754429,13715.5008650012
560973374899,34001,-2,0,5816.4267706964,7643.1995978151,13668.4848844773,135.5238072139,-7479.2642185196,-4851.2242202165,-7707.5180432212,-21409.8777956536,-10183.7781913550,-3825.2926948933,-5614.4551711324,-1185.7298876989,-22865.1708387679,8238.0904631856,10682.1792209195,13711.4003511718
560973374899,34001,-2,0,5818.4222729753,7648.2491919967,13679.5818239798,140.9992707843,-7480.3836466273,-4841.6239074232,-7709.0146699304,-21413.4916016100,-10186.2360661132,-3827.5193834119,-5616.7792012255,-1189.4897060172,-22866.2537637852,8238.1999724570,10679.8065200390,13704.3065839241
560973374899,34001,-2,0,5817.9599004961,7647.1419315858,13682.1492080095,142.3377174348,-7481.2597207986,-4842.5851554722,-7711.9592525616,-21414.1243218448,-10187.8178667002,-3828.7726561847,-5622.3398386736,-1189.6113829854,-22866.7039685676,8237.3969044667,10681.5951714720,13705.6328628778
560973374899,34001,-2,0,5813.0441509796,7639.7561396142,13672.2081997051,132.7130692478,-7481.1380438304,-4852.7695177130,-7713.6627301168,-21413.6741170623,-10186.8931217416,-3828.6753146101,-5624.6760364636,-1185.7907261830,-22866.0225775455,8235.4744083687,10682.5442518242,13710.8528048148
560973431845,34002,5,0,5812.6791200749,7638.2351775114,13663.3379487212,127.9311643964,-7477.8527656882,-4859.7416079926,-7711.1075137840,-21410.8998821867,-10182.5614216727,-3827.5193834119,-5620.3808394851,-1181.5320322950,-22864.4651123522,8239.8182761344,10687.3626597661,13718.6401307815
560973431845,34002,5,0,5815.4411872537,7641.7881449837,13664.7250661590,132.1776905876,-7474.5431521523,-4852.6478407448,-7707.1043415292,-21410.6808636439,-10179.6046713447,-3825.4752103457,-5612.5083396407,-1182.4081064662,-22863.6985474523,8241.5704244770,10687.6181813993,13716.1579206296
560973431845,34002,5,0,5818.6169561245,7644.0756719864,13676.0531919012,137.8965080944,-7473.8495934334,-4841.4657273645,-7706.9826645610,-21413.5402723973,-10179.4099881955,-3822.1899322035,-5612.8612028486,-1187.3725267700,-22863.8810629047,8238.2608109411,10684.2598970762,13709.2953396215
560973431845,34002,5,0,5816.9013108725,7645.0855908227,13679.9103517941,138.8090853561,-7477.0740330915,-4840.7965040392,-7713.0300098820,-21417.6529539234,-10182.9629556678,-3825.3535333774,-5621.0987335977,-1191.5947175675,-22866.0834160296,8235.7420976988,10681.9236992862,13704.9393041588
560973431845,34002,5,0,5812.5209400162,7639.2329286509,13670.0423496706,131.4354610814,-7481.0041991653,-4852.7208469257,-7717.2400329827,-21418.7480466375,-10185.5790104847,-3829.9650904733,-5627.7909668503,-1190.2562709170,-22866.9959932914,8234.8416881339,10681.8628608021,13706.9713095283
560973431845,34002,5,0,5810.6471147055,7634.2563406503,13661.6709742565,124.5728800733,-7481.8316025493,-4864.0733080615,-7716.5586419606,-21415.0734021970,-10182.7682725186,-3828.8699977593,-5622.8143788497,-1186.7276388384,-22866.6431300835,8233.7222600262,10682.6050903083,13712.7753009128
560973431845,34002,5,0,5813.5795296398,7637.3834387338,13664.7859046431,128.2961953011,-7478.5463244071,-4858.6465152785,-7711.2656938427,-21413.8931356052,-10180.4564101223,-3826.4242906979,-5615.6232700274,-1184.6956334689,-22864.2460938094,8238.7596865109,10686.3405732329,13716.7054669866
560973431845,34002,5,0,5818.4344406722,7644.4528705879,13675.0919438522,137.6288187643,-7476.6968344900,-4844.5928254480,-7709.5865516811,-21415.4140977080,-10179.3613174082,-3823.9907513333,-5614.4916742228,-1186.8128127161,-22862.5426162542,8240.0859654646,10685.7321883918,13712.3859346145
560973442463,34003,5,0,5820.5394522225,7648.9792538060,13683.8648532615,141.6563264127,-7476.4169774631,-4838.3629646747,-7712.4337927377,-21417.5434446520,-10180.3469008509,-3821.0948394894,-5619.3952560425,-1189.1733458998,-22863.1266657017,8237.9566185205,10685.9147038441,13708.4557685407
560973442463,34003,5,0,5817.0229878407,7643.6863056880,13676.0166888107,134.2948698348,-7478.0231134437,-4847.1723771745,-7716.5464742638,-21417.6042831362,-10181.8921983474,-3821.5328765750,-5625.1749120334,-1186.5937941733,-22862.1897530463,8238.2973140316,10688.4090816928,13711.7045435924
560973442463,34003,5,0,5808.3474200059,7634.5727007677,13659.6876396743,123.9888306258,-7479.2642185196,-4858.9750430927,-7716.1692756623,-21415.0734021970,-10181.6245090173,-3824.6234715681,-5621.6341122579,-1183.3206837279,-22860.5957847625,8239.9399531027,10688.6767710229,13716.2065914169
560973442463,34003,5,0,5803.7845336973,7630.8980563271,13652.9589033312,122.0176637405,-7481.2110500113,-4860.2769866528,-7715.1106860387,-21415.4627684953,-10182.0382107093,-3826.1322659741,-5615.1852329417,-1185.1823413418,-22861.8977283225,8241.6555983547,10686.2675670520,13712.8604747906
560973442463,34003,5,0,5805.3176634970,7636.1179982642,13661.7683158310,127.0429225283,-7481.8681056397,-4850.2629721675,-7715.6095616085,-21418.2005002805,-10183.3279865725,-3824.7816516268,-5616.3776672304,-1190.2197678265,-22862.1532499558,8239.3680713520,10685.6470145140,13706.2412477189
560973442463,34003,5,0,5810.5497731309,7642.8954053946,13671.4416348053,134.5503914681,-7481.3327269795,-4843.1448695261,-7718.5663119364,-21419.7214623833,-10185.4451658197,-3825.8037381599,-5624.6395333732,-1192.8966611276,-22861.5326974179,8238.8205249950,10687.7398583676,13705.4625151222
560973442463,34003,5,0,5811.6692012386,7640.8147292378,13670.7602437832,131.3867902941,-7482.4643227841,-4849.7032581136,-7722.0706086214,-21419.4051022659,-10185.5790104847,-3826.3391168201,-5631.4777789877,-1190.0007492837,-22860.8634740926,8242.8967034307,10688.3847462992,13711.5463635337
560973442463,34003,5,0,5808.9558048471,7636.8358923767,13659.0549194395,124.6702216479,-7483.4864093172,-4862.9903830443,-7721.3405468121,-21417.4582707743,-10187.7083574288,-3828.2981160086,-5628.2168362391,-1185.9489062417,-22861.4596912369,8245.5492613381,10690.5505963337,13718.7861431434
560973475116,34004,5,0,5805.3906696780,7635.9476505087,13651.4136058347,123.2222657259,-7485.4454085057,-4867.0908968736,-7718.7609950856,-21416.3996811507,-10189.1684810475,-3831.0236800969,-5619.9184670059,-1187.1291728335,-22863.0049887334,8245.9751307269,10687.8128645485,13718.7618077497
560973475116,34004,5,0,5807.7268674680,7639.5614564651,13657.8989882414,126.0330036920,-7486.0416256500,-4856.9552054201,-7717.8849209144,-21419.2104191168,-10189.5578473458,-3829.0525132116,-5618.5070141744,-1190.5726310344,-22865.2316772520,8243.5172559686,10685.1724743379,13712.3250961304
560973475116,34004,5,0,5812.7277908622,7641.3014371108,13670.0666850643,132.7009015510,-7485.4210731120,-4846.8681847539,-7720.0386032520,-21420.6218719482,-10188.6939408714,-3826.7406508153,-5626.0023154173,-1193.7483999052,-22867.0933348659,8240.9985427263,10684.4545802254,13707.4215143107
560973475116,34004,5,0,5812.3749276543,7638.6002084161,13669.5313064041,130.4742130324,-7485.6522593517,-4851.0782078546,-7723.1170305482,-21419.5632823246,-10188.7791147492,-3828.6753146101,-5633.1812565429,-1191.1566804819,-22866.0955837265,8241.9597907753,10689.1999819863,13711.0839910544
560973475116,34004,5,0,5810.9391394292,7635.0837440342,13659.1522610141,125.8869913302,-7487.9154509607,-4867.6506109275,-7722.1679501960,-21415.8156317032,-10189.0833071698,-3831.2426986397,-5628.7887179898,-1185.7055523052,-22865.6575466408,8239.2950651711,10689.4068328323,13718.0560813340
560973475116,34004,5,0,5810.8539655515,7636.1666690515,13657.3514418843,125.5827989096,-7489.0592144621,-4872.3473419011,-7717.5198900097,-21415.7061224318,-10191.0666417519,-3834.4184675105,-5619.1640698028,-1184.9876581927,-22868.9184893894,8236.5573333859,10689.1391435022,13722.8623215790
560973475116,34004,5,0,5814.4069330238,7642.2626851598,13664.6520599781,132.7130692478,-7487.4530784815,-4861.8587872398,-7715.5852262148,-21415.5114392826,-10189.8620397664,-3833.5058902488,-5618.3610018125,-1188.1512593666,-22870.6463023382,8232.7123411898,10683.8705307779,13712.5562823700
560973475116,34004,5,0,5819.0671609070,7647.5069624905,13676.9170983756,140.0988612194,-7482.6468382364,-4846.4788184556,-7716.6559835352,-21416.7890474490,-10188.2315683921,-3829.6852334464,-5624.6517010700,-1190.9254942423,-22869.7702281670,8230.5708265490,10680.0133708850,13703.8807145352
560973505407,34005,5,0,5819.2010055720,7646.8134037715,13678.2677127230,138.5292283292,-7482.5616643587,-4847.9997805584,-7720.1967833107,-21416.8620536300,-10187.3311588273,-3827.8722466198,-5631.5872882591,-1188.6501349364,-22870.9869978493,8234.1724648086,10682.4712456432,13708.6504516898
560973505407,34005,5,0,5814.8814731999,7642.5547098835,13664.5668861003,130.9365855117,-7483.7540986473,-4860.9827130685,-7717.3617099510,-21411.7759563580,-10188.5965992968,-3830.2206121066,-5625.5642783317,-1181.8970631996,-22869.3930295655,8238.0539600951,10687.3991628565,13720.0394159161
560973505407,34005,5,0,5812.5696108035,7642.9440761818,13655.8061443878,130.8027408466,-7482.7076767205,-4865.9471333723,-7711.0831783903,-21407.7971194969,-10187.5136742796,-3829.7947427178,-5612.0581348582,-1178.7943005098,-22866.8134778390,8238.9787050537,10689.6745221624,13724.8213207675
560973505407,34005,5,0,5815.6358704029,7645.8156526321,13663.0824270879,135.2682855806,-7481.5639132192,-4854.7771876888,-7709.6838932557,-21410.0359757123,-10186.7471093798,-3826.1566013678,-5607.4344100655,-1181.7875539282,-22867.7625581912,8236.7033457478,10686.3770763234,13716.4256099597
560973505407,34005,5,0,5819.7363842322,7650.3907066375,13678.4623958721,142.3012143443,-7479.2885539133,-4839.5067281760,-7712.3607865567,-21413.8079617274,-10185.3599919419,-3824.6964777490,-5618.1298155729,-1186.3017694496,-22870.0257498003,8237.1292151366,10686.5352563821,13708.4314331470
560973505407,34005,5,0,5821.2208432446,7651.8873333467,13683.4389838727,142.2038727697,-7478.5341567103,-4841.4657273645,-7715.9624248163,-21414.4285142654,-10183.3888250566,-3824.3436145411,-5628.7278795057,-1185.2066767355,-22868.9914955703,8239.1003820219,10688.3117401182,13707.2876696457
560973505407,34005,5,0,5816.8161369947,7646.5700498351,13672.4272182479,134.7694100109,-7481.0893730431,-4856.1764728234,-7716.5464742638,-21413.9053033020,-10186.1143891450,-3826.2052721550,-5626.9757311632,-1181.8240570187,-22868.7238062402,8239.7209345599,10688.2265662405,13716.9366532263
560973505407,34005,5,0,5814.8206347158,7643.7228087785,13660.2960245155,131.7274858052,-7484.5328312440,-4867.5289339592,-7712.8839975201,-21411.7394532675,-10190.2392383679,-3830.1476059257,-5617.0590582525,-1180.9723182411,-22867.1541733501,8236.0827932098,10684.4910833158,13719.4675341654
560973539272,34006,5,0,5817.3393479581,7646.0103357812,13665.6011403303,138.3345451800,-7480.0551188131,-4855.5559202855,-7706.2891058421,-21410.4010066170,-10187.3068234336,-3825.7915704631,-5610.2451480316,-1181.7875539282,-22866.6309623867,8239.1612205060,10688.3239078151,13718.8226462338
560973539272,34006,5,0,5824.1775935726,7650.1960234883,13686.1158771738,147.9713610638,-7466.6463169142,-4829.2006889670,-7700.6189591226,-21405.8137849147,-10174.3360586203,-3808.5742794586,-5606.8990314053,-1176.9813136832,-22857.9675622487,8248.8467071771,10695.9895568135,13719.5892111337
560973539272,34006,5,0,5825.2726862867,7653.2987861782,13694.8644511895,151.9015271376,-7455.6102158958,-4815.8527255522,-7695.6545388188,-21399.6934334128,-10163.8353362622,-3798.8036189098,-5609.9774587015,-1170.7514529098,-22849.0364727807,8255.9039713344,10701.4650203838,13721.6090488063
560973539272,34006,5,0,5822.6201283793,7650.2568619724,13680.2875503956,144.7225860121,-7462.0834306056,-4832.4372963219,-7701.3125178415,-21404.1833135404,-10169.3473029229,-3808.2092485539,-5615.0392205799,-1173.8177125092,-22854.4876009574,8249.8322906197,10696.3910908087,13720.6964715446
560973539272,34006,5,0,5818.2519252198,7648.2978627839,13665.3334510002,137.4463033120,-7477.5242378740,-4856.8943669360,-7710.0367564636,-21413.0170614339,-10186.6984385925,-3824.6721423554,-5616.4993441986,-1183.9047331754,-22865.5480373694,8239.2950651711,10685.0021265824,13716.1822560232
560973539272,34006,5,0,5816.6336215424,7650.0256757328,13662.2306883103,136.6919061089,-7486.2971472833,-4859.1575585451,-7715.9015863322,-21421.4857784227,-10195.3375033367,-3835.1850324104,-5619.0302251378,-1194.3567847463,-22870.5367930668,8234.7565142561,10677.8961916378,13704.2579131368
560973539272,34006,5,0,5820.1379182274,7651.7778240753,13673.7900002921,143.0069407600,-7485.5549177771,-4846.3571414873,-7718.8218335697,-21425.0752489854,-10193.5245165101,-3836.4139697895,-5626.8905572854,-1198.2991185170,-22869.8432343479,8235.3040606131,10676.6064157746,13695.0347989450
560973539272,34006,5,0,5818.6777946086,7650.0135080360,13681.9545248603,141.6319910190,-7481.1988823145,-4840.8208394329,-7721.3892175994,-21425.8418138853,-10188.8886240206,-3831.9970958428,-5636.0163299026,-1198.0192614900,-22865.3411865234,8234.0507878404,10675.9128570557,13691.8590300742
560973567894,34007,5,0,5812.0220644465,7641.8246480741,13670.2370328198,133.4552987540,-7479.6535848180,-4851.5527480307,-7719.9412616774,-21421.2424244862,-10184.3987438929,-3830.1719413193,-5635.1159203377,-1189.3801967458,-22863.8080567237,8240.6335118216,10683.4811644795,13704.2214100463
560973567894,34007,5,0,5806.3032469397,7634.9864024596,13652.8128909694,125.8869913302,-7479.0451999768,-4864.8277052646,-7713.6505624200,-21416.6065319967,-10186.0413829640,-3832.6541514712,-5622.6196957006,-1184.6104595912,-22864.2460938094,8241.0472135136,10685.5375052426,13711.6315374115
560973567894,34007,5,0,5804.8187879273,7633.4046018727,13653.3726050232,126.9577486506,-7478.9113553118,-4860.8853714939,-7709.2580238669,-21414.7813774732,-10183.9485391105,-3830.0137612606,-5612.2284826138,-1184.0020747500,-22864.0879137507,8242.5073371323,10687.2166474042,13712.6171208541
560973567894,34007,5,0,5808.4569292774,7636.1910044451,13665.7958234794,133.3092863922,-7474.7256676047,-4842.0741122057,-7708.2724404242,-21416.4605196348,-10179.3369820146,-3824.7208131427,-5614.6011834942,-1186.1557570877,-22861.1189957259,8245.2450689175,10689.3824974387,13707.6405328535
560973567894,34007,5,0,5812.5574431067,7640.9120708124,13675.7611671774,137.8235019135,-7469.7247442104,-4833.0943519503,-7709.0998438082,-21413.5402723973,-10173.5086552364,-3818.9898279390,-5620.8797150549,-1183.5397022707,-22855.8017122143,8248.5911855438,10692.6069370967,13708.2975884820
560973567894,34007,5,0,5808.0310598886,7637.5781218829,13669.6773187660,132.5670568860,-7470.0046012374,-4842.7555032277,-7711.6063893537,-21411.1189007295,-10173.4599844491,-3818.0650829805,-5623.7147884146,-1180.5342811555,-22856.7386248696,8248.9927195389,10692.9232972141,13715.1114987028
560973567894,34007,5,0,5800.0247153791,7631.6159504397,13653.4334435073,125.2421033985,-7474.2997982159,-4857.7826088041,-7710.3409488841,-21411.5082670279,-10179.0936280781,-3821.8127336020,-5615.2704068195,-1179.2201698986,-22859.7197105912,8246.5470124775,10690.4654224559,13720.5869622731
560973567894,34007,5,0,5798.8444487872,7630.8128824494,13648.6880417464,124.5850477701,-7479.9821126322,-4859.7051049021,-7709.5135455002,-21412.3356704118,-10183.8390298391,-3823.7839004873,-5610.2816511221,-1183.4180253025,-22861.2650080878,8241.8989522912,10685.8173622695,13715.4035234266
560973597372,34008,5,0,5800.3532431933,7633.4897757504,13659.2861056792,130.6932315752,-7478.1569581087,-4842.4999815945,-7713.2490284248,-21417.9693140408,-10181.9652045283,-3818.8316478803,-5614.1631464086,-1187.4333652541,-22861.1920019068,8245.0138826778,10689.1513111990,13714.7586354950
560973597372,34008,5,0,5806.1450668810,7637.8458112130,13672.1473612210,134.5503914681,-7474.9811892380,-4832.5589732901,-7716.6438158384,-21419.4537730532,-10178.3392308751,-3813.1006626767,-5623.4957698718,-1187.6888868874,-22859.7683813785,8245.3545781889,10691.3536643240,13715.3426849425
560973597372,34008,5,0,5804.4537570226,7634.0129867138,13665.9783389318,129.1235986851,-7473.4358917414,-4839.2633742396,-7718.3107903032,-21416.8498859331,-10176.9034426500,-3813.5873705497,-5626.6107002585,-1183.8317269945,-22857.6390344345,8246.4618385998,10694.6997809503,13720.5626268795
560973597372,34008,5,0,5797.1653066257,7627.4545981262,13648.9678987733,120.1195030361,-7477.5364055708,-4856.0912989457,-7716.9236728653,-21415.7061224318,-10182.0017076188,-3819.5373742961,-5616.5601826827,-1180.6072873364,-22860.5227785816,8244.2108146875,10693.3126635125,13727.7415680050
560973597372,34008,5,0,5794.4275748405,7624.8628787030,13647.6172844260,121.3241050216,-7480.0429511163,-4858.6830183690,-7712.5919727964,-21413.0900676148,-10183.2428126947,-3820.4621192546,-5607.5074162465,-1182.1525848329,-22864.6962985918,8240.2076424328,10689.4920067101,13721.7915642586
560973597372,34008,5,0,5800.6209325234,7629.9854790654,13660.4420368773,128.4543753598,-7476.0519465584,-4840.8451748265,-7710.0124210699,-21413.4550985195,-10181.6001736236,-3819.7685605357,-5609.1378876207,-1185.1215028577,-22867.5313719516,8239.5384191075,10688.7862802943,13713.0064871525
560973597372,34008,5,0,5804.8552910178,7634.5605330708,13674.7390806443,134.4530498935,-7471.8297557608,-4830.0645954414,-7711.7158986251,-21415.2315822557,-10178.9841188067,-3815.7897236746,-5617.5214307317,-1185.8637323639,-22868.1032537022,8238.2121401538,10687.6181813993,13707.0321480124
560973597372,34008,5,0,5803.2856581276,7632.9057263029,13674.0211865318,132.0316782257,-7472.6328237511,-4837.4990582002,-7712.7258174614,-21412.3356704118,-10178.7285971734,-3815.3760219826,-5620.6606965121,-1180.5221134587,-22865.9374036678,8235.4379052782,10688.1170569691,13708.3827623597
560973636724,34009,5,0,5800.2680693155,7626.2499961408,13656.7917278305,125.2664387922,-7476.5508221281,-4856.4563298504,-7709.5865516811,-21407.8336225873,-10181.5271674427,-3820.4012807705,-5611.9851286773,-1174.2679172917,-22867.4583657706,8240.5848410343,10693.9940545346,13722.2782721315
560973636724,34009,5,0,5798.0900515842,7622.4901778225,13649.6371220986,123.9036567480,-7479.7509263926,-4860.4229990147,-7705.4495347613,-21406.8723745383,-10183.6565143867,-3823.3336957048,-5600.3771459082,-1174.1705757171,-22866.9716578977,8241.0958843009,10693.3735019966,13723.1543463028
560973636724,34009,5,0,5801.6186836629,7625.1427357299,13658.8845716840,130.0483436436,-7477.1227038788,-4846.6978369984,-7705.1453423407,-21407.8701256778,-10179.6290067383,-3820.6202993133,-5601.9102757079,-1176.7136243531,-22864.0149075697,8240.6821826089,10693.5073466616,13716.6081254120
560973636724,34009,5,0,5805.5245143430,7630.9345594176,13671.8918395877,133.8203296587,-7473.4358917414,-4834.5544755691,-7708.1385957592,-21408.1378150079,-10176.5019086548,-3820.3282745896,-5612.7881966676,-1178.1615802750,-22861.0824926354,8243.8457837828,10695.3325011851,13710.9866494798
560973636724,34009,5,0,5803.5655151545,7630.1314914273,13672.5123921257,130.3038652769,-7473.6427425874,-4842.9015155896,-7712.5067989186,-21409.2450754188,-10177.4753244007,-3824.7694839299,-5621.1352366882,-1177.2246676196,-22862.0072375940,8242.7750264624,10696.3667554150,13712.4589407954
560973636724,34009,5,0,5795.6443445228,7623.1228980573,13657.9476590286,120.1560061266,-7479.8482679671,-4864.3409973916,-7713.3463699994,-21411.0215591549,-10183.4618312376,-3833.2625363124,-5617.8377908491,-1176.4581027198,-22866.1442545138,8239.1855558997,10694.1887376837,13719.4675341654
560973636724,34009,5,0,5791.2883090602,7614.8610319145,13646.4978563183,115.5809521211,-7486.7595197626,-4876.2775079749,-7713.8452455691,-21413.6376139719,-10190.5312630917,-3842.1206195995,-5612.8125320613,-1179.1958345050,-22873.5300464853,8233.7344277230,10693.2153219379,13717.6058765515
560973636724,34009,5,0,5795.0237919848,7615.9074538413,13650.4645254825,119.9978260679,-7487.3679046037,-4865.3387485311,-7715.3418722784,-21418.1639971900,-10191.0301386614,-3842.2909673550,-5614.4673388292,-1184.8173104372,-22872.9216616441,8231.0331990283,10692.4122539476,13712.9578163652
560973661577,34010,5,0,5803.6020182450,7623.5609351429,13663.3257810244,124.3173584400,-7483.4985770140,-4849.1192086661,-7718.1647779413,-21419.5511146278,-10185.1044703087,-3834.3454613296,-5623.4470990845,-1184.6956334689,-22869.3686941718,8237.8349415523,10695.1743211264,13712.3007607367
560973661577,34010,5,0,5806.5952716634,7627.5762750945,13665.2726125161,124.4877061955,-7479.3493923974,-4848.7055069742,-7718.4689703619,-21416.2293333952,-10181.5636705332,-3830.1962767130,-5629.3362643468,-1180.5221134587,-22865.8765651836,8240.2441455232,10697.6930343687,13717.5450380674
560973661577,34010,5,0,5800.7182740980,7621.2855758370,13649.6127867049,116.3596847178,-7482.7563475078,-4864.2679912107,-7719.2355352617,-21413.5281047005,-10185.1531410959,-3833.6762380043,-5624.0554839257,-1177.1881645292,-22868.1640921864,8236.8250227160,10696.5736062610,13722.1079243760
560973661577,34010,5,0,5794.9264504102,7615.8952861444,13640.6208587528,113.4759405708,-7487.6842647211,-4872.8827205613,-7716.3274557210,-21414.7935451701,-10189.8620397664,-3837.5455655940,-5613.6886062325,-1178.8186359034,-22872.5931338299,8233.2112167596,10693.6411913267,13721.7793965618
560973661577,34010,5,0,5793.5271652756,7616.9052049808,13648.1039922989,119.1217518966,-7487.4652461783,-4860.2648189560,-7716.8019958971,-21417.2635876251,-10191.0301386614,-3835.3918832564,-5614.1753141054,-1184.1845902024,-22872.5079599522,8235.0120358894,10691.4631735954,13713.8703936269
560973661577,34010,5,0,5797.4451636526,7619.9471291865,13663.3379487212,125.9234944206,-7482.8415213856,-4842.6216585627,-7720.5253111249,-21420.3906857086,-10187.0269664067,-3832.2891205665,-5625.1749120334,-1188.1999301539,-22869.9527436193,8237.4820783444,10690.6601056051,13706.2412477189
560973661577,34010,5,0,5800.4749201615,7620.3486631816,13668.4240459932,126.6413885332,-7482.1357949698,-4842.4513108072,-7723.6402415116,-21420.1716671658,-10184.2892346215,-3828.2251098277,-5633.2177596333,-1188.4676194840,-22866.9716578977,8238.3824879093,10691.0129688129,13706.6306140172
560973661577,34010,5,0,5798.9052872713,7618.5113409614,13657.6069635176,121.3971112025,-7481.5030747351,-4854.8380261729,-7721.3283791152,-21416.4605196348,-10183.5470051153,-3827.7018988643,-5626.6958741362,-1183.0408267010,-22862.9684856430,8239.8912823154,10692.2540738889,13713.7608843555
560973688929,34011,5,0,5796.0215431243,7616.2481493523,13647.5686136387,119.0365780188,-7484.6058374249,-4865.9714687659,-7716.5951450511,-21414.1364895416,-10187.5136742796,-3829.1985255735,-5614.1753141054,-1182.4081064662,-22863.8567275110,8240.0372946773,10692.2540738889,13714.1137475633
560973688929,34011,5,0,5796.7881080242,7616.9052049808,13653.4942819914,121.7499744104,-7485.8469425008,-4854.5094983587,-7714.1859410802,-21417.3609291997,-10186.0657183577,-3825.0493409569,-5610.3059865157,-1185.6447138211,-22864.5137831395,8240.7430210930,10690.4167516686,13708.1515761201
560973688929,34011,5,0,5799.6961875648,7619.5820982818,13665.1022647605,126.5927177459,-7481.0285345590,-4836.8298348750,-7716.1206048750,-21418.6628727597,-10179.5681682542,-3820.3039391959,-5618.1541509665,-1188.5041225745,-22861.5083620242,8242.4951694355,10691.0008011161,13701.8122060754
560973688929,34011,5,0,5800.4870878583,7619.8132845214,13671.7701626195,127.3471149489,-7477.8649333850,-4835.1506927134,-7719.9169262838,-21419.8309716548,-10177.1346288896,-3818.8559832740,-5626.9148926791,-1186.5572910828,-22858.9774810850,8242.5073371323,10691.8768752874,13703.2966650877
560973688929,34011,5,0,5795.5713383419,7613.3035667212,13660.7949000852,119.1947580775,-7481.7220932779,-4852.1854682655,-7721.9854347437,-21417.3365938060,-10178.1567154228,-3820.4012807705,-5624.3110055589,-1182.5419511313,-22859.2451704151,8241.9111199880,10690.6114348178,13710.9866494798
560973688929,34011,5,0,5790.1080424684,7606.2341348670,13646.0598192326,112.1131585266,-7486.9663706086,-4868.5631881892,-7717.7510762493,-21417.6164508330,-10184.2405638342,-3825.9984213091,-5613.9806309563,-1180.8263058792,-22862.9319825525,8243.3834113036,10689.9422114925,13718.2750998768
560973688929,34011,5,0,5789.8890239255,7608.8015188967,13646.0598192326,116.0433246004,-7489.3390714890,-4862.7105260174,-7715.7312385767,-21418.9305620899,-10187.4771711891,-3829.8069104146,-5610.3789926967,-1183.5883730580,-22865.9009005773,8242.4586663450,10688.2022308468,13712.5927854605
560973688929,34011,5,0,5795.8755307624,7612.1354678262,13660.8800739630,121.9933283468,-7487.9519540512,-4848.1336252235,-7717.0331821367,-21420.3785180118,-10184.5569239516,-3825.8889120377,-5616.9738843747,-1187.2995205890,-22864.4894477458,8239.8547792249,10687.8128645485,13704.8054594938
560973721444,34012,5,0,5801.4118328169,7617.8177822425,13670.9305915387,126.0573390857,-7484.0096202806,-4842.7798386214,-7718.8948397507,-21419.3077606914,-10180.5659193937,-3824.3679499348,-5626.2578370506,-1183.9047331754,-22860.5836170657,8244.1743115971,10694.7727871312,13710.0375691277
560973721444,34012,5,0,5801.1198080931,7615.5059198461,13660.0283351854,120.3871923662,-7483.9001110092,-4855.3612371363,-7717.8849209144,-21414.8422159573,-10179.9575345525,-3827.6897311674,-5624.2988378621,-1179.6947100747,-22857.7242083123,8247.1432296219,10699.0558164129,13720.2827698526
560973721444,34012,5,0,5795.6443445228,7610.5658349360,13646.4370178341,115.3010950942,-7488.6090096797,-4871.4834354267,-7714.6969843467,-21413.9783094829,-10183.9972098978,-3832.2647851729,-5614.4916742228,-1177.4801892529,-22860.2794246451,8244.6366840763,10698.4352638749,13726.4882952323
560973721444,34012,5,0,5792.4685756520,7609.9209470044,13644.0278138632,116.6030386543,-7490.6410150491,-4867.3342508101,-7714.0764318088,-21416.7525443585,-10186.8566186512,-3836.4139697895,-5611.1090545061,-1181.9457339869,-22865.1586710711,8240.0859654646,10693.0206387887,13719.6135465273
560973721444,34012,5,0,5792.6997618916,7611.2107228676,13655.3802749990,122.1393407087,-7488.2074756845,-4853.3779025542,-7718.0065978826,-21421.3275983640,-10185.8101967244,-3835.9272619166,-5618.8963804727,-1188.1877624571,-22865.9495713646,8238.1391339729,10689.8083668275,13708.4436008439
560973721444,34012,5,0,5794.0868793295,7612.8898650292,13665.1022647605,124.4512031051,-7486.4796627356,-4847.0020294189,-7722.0584409246,-21422.2158402320,-10182.0868814966,-3831.5468910603,-5628.9712334421,-1189.1976812934,-22861.7882190511,8238.0904631856,10687.2166474042,13705.6815336650
560973721444,34012,5,0,5794.1963886009,7610.0304562758,13660.1378444568,117.8684791238,-7486.2849795865,-4855.9087834933,-7723.8227569639,-21422.1671694448,-10181.0161241761,-3831.1818601556,-5629.7864691293,-1183.3328514248,-22860.1334122832,8242.7385233720,10689.3459943482,13712.3615992208
560973721444,34012,5,0,5791.5073276030,7605.1390421530,13640.9980573543,112.2470031916,-7489.7284377874,-4870.4735165904,-7720.7686650614,-21420.9990705498,-10184.8611163722,-3835.6230694960,-5620.1009824582,-1181.0696598157,-22860.4862754911,8244.7705287414,10694.7606194344,13721.9010735300
560973752767,34013,5,0,5791.7385138426,7605.8447685687,13638.6010210802,111.9306430742,-7490.9817105601,-4868.6848651574,-7719.3328768363,-21423.0919144033,-10187.3676619177,-3834.8443368993,-5614.0901402277,-1183.7343854199,-22862.4939454669,8242.9818773084,10692.1567323143,13718.7496400529
560973752767,34013,5,0,5789.9255270160,7608.7528481094,13650.3793516048,117.9901560921,-7490.2029779635,-4853.2197224955,-7721.3405468121,-21425.5497891615,-10186.1752276291,-3830.5978107081,-5618.7016973236,-1189.1976812934,-22864.4164415649,8241.9476230785,10691.8890429842,13711.1691649322
560973752767,34013,5,0,5794.3302332659,7611.2715613517,13661.0260863248,120.6913847868,-7485.6522593517,-4844.2277945433,-7723.5307322402,-21426.6570495724,-10183.0359618488,-3828.2129421308,-5628.3141778137,-1189.2220166871,-22863.8080567237,8243.4320820909,10693.4100050871,13709.0763210786
560973752767,34013,5,0,5796.7151018432,7610.9308658407,13658.1423421778,118.0023237889,-7483.7175955568,-4851.2972263974,-7722.8371735213,-21422.5200326526,-10180.2495592763,-3826.3147814265,-5628.9468980485,-1183.9655716595,-22862.2992623177,8246.0724723014,10695.8192090580,13716.9488209231
560973752767,34013,5,0,5794.8291088357,7607.1710475224,13645.1837450614,111.6629537441,-7483.7784340409,-4863.3919170394,-7718.9678459316,-21419.0522390581,-10179.9940376430,-3823.9177451523,-5616.2194871717,-1178.7212943289,-22860.5592816720,8247.6177697980,10698.0215621830,13725.8069042102
560973752767,34013,5,0,5794.4275748405,7610.0912947599,13642.5190194572,115.4471074561,-7483.1578815030,-4860.5203405892,-7712.1296003171,-21415.6331162508,-10180.3347331541,-3824.5261299935,-5606.0594603245,-1178.5752819670,-22859.3911827770,8248.1044776709,10699.2504995621,13724.0060850804
560973752767,34013,5,0,5798.1022192810,7614.3621563448,13656.4266969258,123.6237997211,-7481.1015407399,-4844.4954838734,-7710.4261227619,-21415.5236069794,-10176.8061010754,-3819.0871695136,-5607.0572114640,-1180.2179210381,-22859.5128597452,8246.7903664140,10699.1896610780,13717.5693734611
560973752767,34013,5,0,5800.3532431933,7614.5690071907,13670.4438836658,126.7752331982,-7479.3858954879,-4834.0921030898,-7714.7943259213,-21419.2225868136,-10175.5406606058,-3817.2133442029,-5616.7548658319,-1182.5419511313,-22860.7296294275,8245.9264599396,10698.0093944861,13715.2210079742
560973826453,34014,5,0,5796.2040585767,7609.5072453124,13665.0292585796,120.6062109090,-7481.7950994588,-4844.0452790910,-7717.6172315842,-21419.5267792342,-10176.0152007819,-3819.6103804770,-5623.3497575099,-1180.6316227301,-22860.3645985229,8246.0724723014,10698.5934439336,13719.1268386544
560973826453,34014,5,0,5791.4221537252,7603.3017199327,13649.3937681621,110.7017056951,-7484.8978621487,-4860.7515268289,-7715.9137540290,-21416.8620536300,-10179.2761435305,-3823.8690743650,-5615.5624315433,-1176.1782456929,-22860.4984431879,8247.6177697980,10698.3865930876,13727.9605865479
560973826453,34014,5,0,5793.0769604932,7606.2219671702,13645.9259745676,111.4195998077,-7484.9830360264,-4862.3941659000,-7711.5698862632,-21415.6209485540,-10179.5438328606,-3824.0880929079,-5604.2829765884,-1176.8961398054,-22858.9166426009,8246.7538633235,10697.8512144274,13728.1674373938
560973826453,34014,5,0,5799.2946535697,7612.8168588482,13659.3226087696,119.0244103220,-7482.4156519968,-4846.4788184556,-7710.3774519746,-21415.8764701873,-10177.1589642833,-3821.3260257290,-5605.0495414882,-1179.4270207446,-22856.6899540823,8249.5524335928,10698.9828102320,13721.6090488063
560973826453,34014,5,0,5805.3176634970,7616.4793355920,13673.3762986001,125.4367865477,-7477.0740330915,-4834.3111216326,-7711.0953460871,-21416.9107244172,-10173.4964875396,-3817.6757166822,-5612.9707121200,-1180.5951196396,-22855.7408737301,8252.0711468351,10699.5546919826,13717.9830751530
560973826453,34014,5,0,5807.4591781379,7616.7713603157,13673.4858078715,123.5021227529,-7475.3218847490,-4838.6063186111,-7714.0034256278,-21415.4871038890,-10171.2697990210,-3815.9479037333,-5617.7161138809,-1178.2832572432,-22853.5385206052,8254.4925185029,10701.2703372347,13719.6378819210
560973826453,34014,5,0,5800.0125476822,7611.7339338310,13656.6092123781,116.5787032606,-7479.1425415514,-4855.9209511902,-7712.4094573440,-21414.3676757813,-10174.4699032854,-3821.2773549418,-5614.0414694404,-1173.5256877855,-22854.3780916860,8254.9670586790,10701.5866973521,13722.4364521902
560973826453,34014,5,0,5792.8822773440,7609.1300467109,13646.6925394674,114.6927102531,-7481.3570623732,-4861.4207501541,-7708.9538314463,-21415.0734021970,-10177.4509890070,-3824.8668255045,-5606.0959634150,-1174.5356066218,-22859.1234934469,8251.2802465417,10699.1774933811,13719.5892111337
560973833889,34015,5,0,5794.9386181071,7611.7947723151,13658.5317084761,122.4800362197,-7481.2597207986,-4849.3503949058,-7706.8731552896,-21416.0346502460,-10177.9741999704,-3822.3237768685,-5604.5384982217,-1177.9182263385,-22860.9851510608,8248.6763594215,10696.2694138404,13713.8703936269
560973833889,34015,5,0,5800.8642864598,7616.1994785650,13672.0986904337,128.7464000835,-7478.1447904119,-4834.0921030898,-7707.4693724339,-21414.6962035955,-10175.6014990899,-3818.5882939439,-5610.6466820268,-1178.1372448814,-22858.2109161852,8250.4406754609,10697.2063264958,13711.3881834750
560973833889,34015,5,0,5802.6042671055,7618.0854715726,13671.2469516561,129.1235986851,-7475.2245431744,-4835.7834129482,-7708.5036266639,-21410.6930313407,-10172.8637673048,-3815.5342020413,-5614.0293017436,-1172.2602473159,-22854.4510978669,8254.4681831093,10702.9251440026,13720.5504591827
560973833889,34015,5,0,5798.8201133936,7612.1841386135,13658.7993978062,122.1880114960,-7476.7211698836,-4848.7298423678,-7705.8754041501,-21406.3491635749,-10172.8637673048,-3815.1691711366,-5607.0572114640,-1166.0425542394,-22853.2708312751,8257.1085733198,10704.2149198658,13730.1142688855
560973833889,34015,5,0,5793.9773700581,7609.9817854885,13648.6758740496,119.1217518966,-7478.1569581087,-4854.5581691460,-7703.6852187220,-21406.4830082400,-10175.5163252122,-3818.8924863645,-5599.4767363433,-1167.3810008899,-22855.7773768206,8253.7867920872,10702.0490698313,13727.9727542447
560973833889,34015,5,0,5796.9706234765,7615.4085782715,13657.0594171606,124.1835137749,-7475.6017417759,-4840.9181810075,-7701.5072009907,-21407.5415978636,-10174.0805369871,-3817.2133442029,-5598.4059790229,-1170.2039065528,-22859.5493628357,8250.1973215244,10698.9219717478,13720.7329746350
560973833889,34015,5,0,5802.9206272229,7619.4725890104,13673.2302862383,131.5328026560,-7470.0897751151,-4825.4287029519,-7703.0646661840,-21409.9264664409,-10169.0674458960,-3811.2998435469,-5604.6115044026,-1172.8321290666,-22858.9288102977,8248.2748254264,10698.8246301733,13715.6468773630
560973833889,34015,5,0,5808.3109169155,7619.8011168246,13679.7643394322,132.8347462161,-7465.3930441415,-4823.7130576998,-7701.8843995922,-21408.6731936681,-10164.5167272842,-3808.3309255221,-5609.2230614985,-1169.0114722642,-22854.4754332606,8253.1662395492,10701.3798465061,13719.9055712511
560973865155,34016,5,0,5808.3352523091,7617.7447760615,13669.5678094946,127.7243135504,-7465.5755595938,-4837.1826980828,-7701.2760147510,-21404.4753382642,-10164.5897334652,-3809.8275522314,-5605.4389077866,-1164.0713873540,-22852.0175585023,8253.1054010651,10702.7182931566,13725.8069042102
560973865155,34016,5,0,5804.7092786559,7615.5789260271,13661.0382540217,124.1956814718,-7471.2943771006,-4848.7541777614,-7697.9420658215,-21403.7452764548,-10169.3594706198,-3813.8915629702,-5596.1184520202,-1163.0249654273,-22855.7895445174,8250.4163400672,10703.5943673279,13729.3963747730
560973865155,34016,5,0,5807.6051904997,7621.9669668591,13666.5258852888,130.0970144309,-7474.1537858540,-4840.4193054377,-7696.1290789949,-21406.0936419417,-10172.9732765762,-3814.0132399385,-5594.7435022792,-1167.9163795501,-22857.2009973489,8247.4960928297,10698.0458975766,13722.7649800045
560973865155,34016,5,0,5813.5186911557,7627.4667658231,13679.5088177989,139.0646069894,-7470.9415138927,-4826.5359633628,-7697.5161964327,-21406.5316790273,-10171.4036436860,-3813.5143643687,-5602.6768406078,-1169.8875464354,-22859.1113257501,8248.4573408787,10695.1134826423,13713.6513750841
560973865155,34016,5,0,5813.0319832828,7629.6082804639,13682.0883695254,140.5125629113,-7468.7026576773,-4823.8590700617,-7699.2440093816,-21405.9597972766,-10168.9701043214,-3810.8374710677,-5608.4564965987,-1169.3278323815,-22857.2131650457,8250.3311661895,10695.0404764613,13714.4301076807
560973865155,34016,5,0,5805.1838188320,7624.3761708300,13669.7989957342,132.1290198003,-7471.6229049148,-4839.8474236871,-7702.4562813429,-21406.1788158194,-10170.7344203608,-3811.9934022659,-5608.1036333908,-1166.7847837456,-22855.2176627668,8248.3234962137,10694.5294331948,13720.5261237890
560973865155,34016,5,0,5801.9107083866,7619.8984583992,13656.6943862559,125.5097927286,-7476.1127850425,-4851.9664497227,-7699.9132327069,-21406.4830082400,-10174.2873878331,-3816.7996425109,-5599.9999473067,-1166.3589143568,-22855.0838181017,8246.3158262379,10693.9575514441,13721.8402350459
560973865155,34016,5,0,5805.1351480447,7624.1449845904,13662.6687253959,130.9487532085,-7477.4999024803,-4844.8361793845,-7698.9033138706,-21407.3712501081,-10175.8691884200,-3816.4954500903,-5596.5078183185,-1170.8244590908,-22859.0139841755,8245.5979321253,10694.3225823488,13718.5306215101
560973877692,34017,5,0,5811.2311641530,7628.1846599356,13677.2212907962,139.8190041924,-7477.4025609057,-4831.1840235491,-7700.6919653035,-21410.7782052185,-10175.4433190312,-3812.2975946864,-5603.3947347203,-1173.4283462109,-22859.0504872660,8247.3014096806,10694.7971225249,13713.5053627222
560973877692,34017,5,0,5815.3681810728,7633.3924341758,13684.4610704058,142.3012143443,-7474.6404937269,-4829.2128566638,-7703.3201878173,-21409.4032554775,-10174.5550771632,-3813.2953458259,-5611.2307314743,-1171.1286515113,-22856.7142894760,8251.0490603020,10695.2108242169,13712.9821517588
560973877692,34017,5,0,5808.5664385488,7629.3770942243,13672.5853983066,134.0515158984,-7477.5607409644,-4845.6270796780,-7705.3643608835,-21407.6876102255,-10177.1346288896,-3817.1160026283,-5613.1653952691,-1169.4495093498,-22857.1644942584,8249.5767689864,10695.6001905152,13717.7275535198
560973877692,34017,5,0,5797.1531389288,7619.4482536167,13654.6623808864,123.1005887577,-7483.8149371314,-4861.6276010001,-7704.9749945852,-21409.9751372282,-10182.1842230711,-3823.6987266095,-5606.7530190434,-1169.4616770466,-22863.5160320000,8245.4640874603,10690.6966086955,13720.3192729430
560973877692,34017,5,0,5797.1896420193,7620.3121600912,13654.1026668326,126.3858668999,-7482.9997014443,-4856.4563298504,-7702.8456476412,-21411.4109254533,-10182.8534463964,-3825.5725519203,-5603.1635484807,-1172.8686321570,-22868.1275890959,8239.7574376503,10687.0584673455,13715.6955481503
560973877692,34017,5,0,5802.5069255309,7623.3905873874,13670.4682190595,132.8469139129,-7479.0451999768,-4838.7158278825,-7702.6144614016,-21411.8002917516,-10179.6168390415,-3821.6423858464,-5606.6921805593,-1174.8519667392,-22866.3754407534,8240.8160272739,10688.4577524801,13710.4634385165
560973877692,34017,5,0,5808.4690969742,7626.3838408058,13681.0906183859,135.9010058154,-7475.2245431744,-4831.5125513633,-7704.9628268884,-21411.9949749008,-10174.4820709822,-3817.5662074108,-5614.4430034355,-1172.8807998538,-22861.0094864545,8245.6952736999,10691.9620491651,13712.4589407954
560973877692,34017,5,0,5806.6439424507,7622.1373146146,13670.7237406927,128.8924124454,-7478.3151381674,-4843.7897574577,-7707.6640555831,-21411.3987577565,-10176.8669395595,-3822.3116091717,-5617.2537414016,-1169.5833540148,-22859.6710398039,8249.3455827468,10695.9895568135,13720.2949375494
560973911723,34018,5,0,5800.4505847679,7615.1165535478,13651.4379412284,118.6228763269,-7484.2408065202,-4860.6420175575,-7708.4914589670,-21411.6177762993,-10181.5636705332,-3826.9231662676,-5611.2915699584,-1169.4008385625,-22861.7638836575,8248.1409807613,10696.5249354737,13728.3864559367
560973911723,34018,5,0,5799.4284982347,7615.9196215381,13649.9899853064,120.2411800043,-7485.1290483883,-4858.4153290389,-7707.6032170990,-21413.9904771797,-10182.4397447044,-3827.3368679596,-5605.6700940262,-1173.3796754236,-22864.6597955014,8247.5325959202,10695.2594950041,13726.0624258435
560973911723,34018,5,0,5802.2149008072,7621.9304637686,13663.8368242909,127.6148042790,-7481.4909070382,-4842.4148077167,-7707.2381861943,-21414.4041788717,-10180.6145901810,-3824.6599746585,-5608.2009749654,-1176.3850965389,-22863.6742120587,8246.3279939347,10695.4298427597,13720.0272482193
560973911723,34018,5,0,5806.1572345778,7625.2887480918,13674.3132112555,130.9000824212,-7476.3074681917,-4834.2624508453,-7711.0466752999,-21415.4749361921,-10176.4167347771,-3821.2530195481,-5617.1442321302,-1176.4946058103,-22862.3844361955,8245.1112242524,10696.6587801388,13716.9731563167
560973911723,34018,5,0,5803.4560058831,7619.3630797390,13669.8598342183,124.5120415892,-7476.0519465584,-4844.7996762940,-7713.4437115740,-21415.7791286127,-10175.9178592073,-3820.2431007118,-5621.0987335977,-1175.0101467979,-22860.8269710021,8246.1333107856,10698.2162453321,13722.6798061267
560973911723,34018,5,0,5799.6110136871,7612.6708464864,13654.0783314389,115.2645920037,-7478.0961196246,-4856.2981497917,-7711.6793955346,-21414.1851603289,-10176.1612131438,-3823.3458634017,-5615.7327792988,-1171.7127009588,-22860.4011016133,8247.5204282234,10699.0071456256,13729.0556792619
560973911723,34018,5,0,5799.5258398093,7613.7051007163,13649.7222959763,117.9658206984,-7479.0695353705,-4856.2616467012,-7709.1485145955,-21415.2802530430,-10178.6190879020,-3825.3170302870,-5607.9941241194,-1173.2823338490,-22864.0514106602,8244.2473177780,10696.0382276008,13723.8965758090
560973911723,34018,5,0,5801.6551867533,7616.3089878364,13659.3712795569,123.3561103910,-7480.4323174146,-4845.9921105826,-7709.4527070161,-21418.4803573074,-10180.5415840000,-3824.3557822380,-5606.5218328038,-1178.2832572432,-22866.1929253010,8241.7042691420,10692.4487570380,13716.6567961993
560973942927,34019,5,0,5803.1396457657,7617.5014221251,13665.9175004477,125.2056003081,-7482.0384533953,-4842.9380186801,-7713.0543452756,-21420.8773935815,-10182.2328938584,-3824.0880929079,-5614.0779725309,-1179.6095361969,-22866.6431300835,8240.1711393423,10692.1202292238,13712.9334809715
560973942927,34019,5,0,5803.4073350958,7613.1210512688,13662.9607501197,120.1803415202,-7483.0970430189,-4851.1025432483,-7717.2643683764,-21420.2446733467,-10181.7826890760,-3824.3922853284,-5619.7602869472,-1177.6870400989,-22865.6332112472,8241.3270705405,10695.0039733709,13721.2805209921
560973942927,34019,5,0,5799.6840198680,7607.2318860065,13655.4411134831,112.8918911233,-7482.3304781190,-4861.3355762764,-7716.5708096575,-21416.8012151458,-10178.8259387480,-3822.6644723796,-5616.2438225653,-1173.4526816045,-22862.6642932224,8243.6876037241,10696.8169601975,13728.7514868413
560973942927,34019,5,0,5799.0756350269,7610.2738102123,13654.4555300405,114.4006855293,-7481.7707640652,-4860.3621605305,-7713.1760222439,-21416.1563272142,-10177.8768583958,-3822.1899322035,-5610.4033280903,-1173.5013523918,-22860.1820830705,8246.2671554506,10697.1333203149,13725.5270471833
560973942927,34019,5,0,5801.9228760834,7617.2459004918,13663.2284394498,123.1979303323,-7481.0163668621,-4848.5716623091,-7710.8276567570,-21416.9958982950,-10179.9453668557,-3821.7397274210,-5608.0184595130,-1176.3729288420,-22861.5935359020,8247.8854591281,10695.6731966961,13717.8613981848
560973942927,34019,5,0,5799.3554920538,7618.9737134407,13669.6773187660,125.6923081810,-7482.8171859919,-4844.0817821814,-7713.4072084835,-21418.7237112439,-10181.9530368315,-3821.3625288195,-5611.5592592885,-1179.0498221431,-22863.9662367824,8244.6975225604,10692.4852601285,13711.5098604432
560973942927,34019,5,0,5796.3622386353,7615.5667583302,13663.9219981687,120.4845339408,-7483.8392725251,-4852.6965115321,-7717.5928961906,-21419.3807668723,-10184.1797253501,-3826.0105890059,-5619.9671377932,-1178.8794743876,-22866.2537637852,8244.3689947462,10693.5195143585,13715.9510697836
560973942927,34019,5,0,5791.1057936078,7608.3269787206,13647.2522535213,111.0667365998,-7484.6545082122,-4865.2779100470,-7717.8484178239,-21416.9107244172,-10183.7781913550,-3829.5513887814,-5621.0743982040,-1176.5432765976,-22862.2992623177,8243.3590759099,10690.1490623385,13720.7573100287
560973971428,34020,5,0,5794.4884133246,7609.2395559823,13645.2932543328,110.8477180570,-7483.2795584712,-4864.7790344773,-7716.1814433591,-21417.4704384711,-10181.5028320491,-3828.5049668546,-5614.7593635529,-1176.2877549643,-22861.9463991098,8244.9043734064,10693.1909865442,13722.5824645521
560973971428,34020,5,0,5797.4208282589,7613.7051007163,13656.2928522607,119.6814659505,-7481.2353854050,-4853.1345486177,-7713.4680469676,-21418.0058171313,-10181.3689873840,-3826.1444336709,-5611.7904455281,-1177.8695555513,-22861.7395482638,8243.4320820909,10694.2739115615,13717.8613981848
560973971428,34020,5,0,5802.3852485627,7616.8321987998,13664.3843706480,126.5562146554,-7480.0186157227,-4843.5342358244,-7713.1030160629,-21418.8210528184,-10180.9066149047,-3825.7915704631,-5614.5038419197,-1179.5243623192,-22860.6809586403,8242.8845357338,10695.6610289993,13718.2507644831
560973971428,34020,5,0,5802.8597887388,7619.7889491278,13669.9936788834,126.4832084745,-7479.3980631847,-4846.4666507587,-7714.5144688944,-21416.9958982950,-10180.4807455159,-3822.4941246241,-5617.9473001206,-1177.1759968323,-22860.2550892514,8244.9165411033,10696.9386371657,13724.7239791929
560973971428,34020,5,0,5802.0688884453,7617.0268819490,13659.5659627061,120.7278878772,-7479.5075724561,-4856.9308700265,-7713.9182517501,-21414.7083712923,-10178.8259387480,-3823.4188695826,-5617.8621262428,-1173.1606568808,-22857.6025313440,8248.4938439692,10698.6786178114,13732.4139635850
560973971428,34020,5,0,5801.1684788804,7617.5135898219,13655.1125856689,119.4259443172,-7479.0086968864,-4858.5978444912,-7711.1561845713,-21413.5402723973,-10178.0228707577,-3824.5504653871,-5612.2649857042,-1172.0777318635,-22858.9288102977,8249.4185889277,10697.2549972831,13731.7325725630
560973971428,34020,5,0,5801.9472114771,7620.3608308785,13659.1400933173,124.9135755843,-7481.3813977668,-4850.2994752580,-7710.7668182729,-21414.9030544415,-10180.1765530954,-3823.8204035778,-5609.0892168334,-1175.5576931549,-22861.6787097797,8243.7484422083,10695.5150166374,13725.9164134816
560973971428,34020,5,0,5798.2117285524,7615.1043858510,13661.0017509312,124.8770724939,-7484.7518497868,-4844.5076515702,-7713.3707053930,-21419.7701331706,-10184.1310545628,-3825.0615086537,-5613.2749045405,-1178.7699651162,-22865.5967081567,8241.1080519977,10690.3072423972,13716.5837900184
560974001094,34021,5,0,5793.7826869089,7614.2404793765,13657.5217896398,121.5431235644,-7484.3138127012,-4848.7055069742,-7716.3517911147,-21418.0544879186,-10183.8755329295,-3825.4022041647,-5618.6895296268,-1176.3120903579,-22864.4894477458,8243.8579514797,10695.3568365787,13722.2904398284
560974001094,34021,5,0,5790.4852410699,7608.5703326570,13647.2765889149,113.9504807469,-7483.8027694346,-4859.1940616355,-7716.1814433591,-21415.3289238303,-10179.8601929780,-3824.1245959983,-5617.6917784873,-1171.6518624747,-22860.5106108847,8246.9728818663,10698.3014192099,13730.3697905188
560974001094,34021,5,0,5793.3081467328,7610.2616425154,13647.9823153307,116.1650015686,-7480.7365098352,-4859.5590925402,-7710.4504581555,-21411.8124594484,-10177.1467965864,-3821.6667212401,-5609.1622230144,-1167.8555410660,-22860.8269710021,8247.6177697980,10699.9440582810,13731.3918770519
560974001094,34021,5,0,5798.1265546747,7618.7668625947,13656.9985786765,123.3561103910,-7478.4611505293,-4846.6735016047,-7705.2548516121,-21410.2306588615,-10176.9521134373,-3820.5959639197,-5604.3438150725,-1169.4251739561,-22864.3312676871,8245.1233919492,10698.9098040510,13724.2859421073
560974001094,34021,5,0,5798.7106041222,7619.9836322770,13667.1829409173,130.3768714578,-7478.5584921039,-4837.7667475303,-7708.1020926687,-21413.4916016100,-10179.9210314621,-3820.0240821690,-5607.6655963052,-1174.4991035313,-22869.5877127146,8240.4266609756,10695.6366936057,13718.7496400529
560974001094,34021,5,0,5797.4694990462,7616.9295403744,13665.2117740319,126.8360716823,-7487.1245506673,-4846.8073462698,-7716.3882942051,-21420.5853688578,-10188.3167422699,-3826.6554769375,-5620.8188765708,-1181.1913367839,-22873.6395557567,8235.4622406718,10690.5384286368,13715.2453433679
