timestamp,sequence,battery,flags,EEG-ch1,EEG-ch2,EEG-ch3,EEG-ch4,EEG-ch5,EEG-ch6,EEG-ch7,EEG-ch8,EEG-ch9,EEG-ch10,EEG-ch11,EEG-ch12,EEG-ch13,EEG-ch14,EEG-ch15,EEG-ch16
2205047309,6824,-2,0,-28819.5914591333,-38249.9823663021,-42579.1393866335,-33123.6343532221,-69773.1143825249,-47807.7568915104,-85982.6889038086,-75593.5199900824,-88138.8412839244,-75836.4358894556,-72964.8594392413,-85916.4479623045,-73867.6538727163,-82161.8130828620,-80829.5354546276,-47975.1843997941
2205047309,6824,-2,0,-28819.9808254316,-38245.5898277491,-42589.4210904489,-33126.7736190024,-69787.5817740474,-47845.8782856566,-85989.5758202104,-75603.6313461423,-88143.2216547806,-75859.1408117272,-72972.7806098730,-85926.7174984231,-73880.7463144978,-82167.8969312735,-80834.9257443202,-47978.9442181123
2205047309,6824,-2,0,-28819.6036268301,-38243.3388038368,-42597.0137332664,-33123.7438624935,-69795.2717584395,-47865.8333084463,-85997.1806307247,-75616.1032353858,-88149.3176708889,-75868.3274228285,-72977.1244776388,-85934.6265013580,-73888.0712679852,-82179.5900879203,-80841.2894497586,-47980.7085341517
2205047309,6824,-2,0,-28821.5017875345,-38247.9868640232,-42600.1773344404,-33126.2990788263,-69779.3442432983,-47847.5209247277,-85994.8687683284,-75619.0964888042,-88153.6615386547,-75856.4517507293,-72976.8324529151,-85933.7869302772,-73881.9630841801,-82185.0777191875,-80841.0825989126,-47978.7738703568
2205047309,6824,-2,0,-28823.7406437499,-38252.1603840334,-42594.9208894128,-33125.7758678629,-69764.7795102012,-47801.9894032163,-85982.9444254419,-75604.3005694675,-88152.2014150360,-75836.5940695143,-72961.6349995832,-85917.3970426567,-73869.6493749952,-82181.8167764389,-80836.2033524866,-47975.0870582195
2205047309,6824,-2,0,-28825.3832828210,-38258.9864619511,-42594.2516660876,-33128.3432518926,-69762.9786910714,-47803.8267254366,-85983.2972886497,-75609.0581389253,-88157.2510092175,-75842.9942780432,-72961.7201734610,-85919.3682095420,-73872.8738146533,-82186.5013397157,-80839.1114320273,-47975.9631323907
2205047309,6824,-2,0,-28820.8325642092,-38258.2320647481,-42594.3368399653,-33127.6496931737,-69779.6484357188,-47857.9243055114,-85996.9859475756,-75636.5936368356,-88162.3249387927,-75870.6027821344,-72978.6211043480,-85938.1186303462,-73882.1577673292,-82196.2720002646,-80851.2791288502,-47978.6156902981
2205047309,6824,-2,0,-28814.3228464089,-38254.1680540092,-42593.6797843369,-33123.4153346793,-69783.8706265164,-47879.9235013672,-85999.6506731798,-75650.9880221771,-88163.8824039860,-75882.3689449622,-72981.0181406222,-85939.1772199698,-73879.1158431235,-82201.6136191698,-80854.1020345131,-47980.6233602739
2205073631,6825,-2,0,-28808.4093457530,-38247.3054730011,-42587.8392898619,-33121.1278076766,-69772.4694945933,-47851.3050784397,-85989.8800126310,-75641.0956846601,-88160.4876165724,-75866.5387713956,-72972.4520820588,-85931.5602417586,-73866.0720721293,-82200.1899986416,-80852.7392524690,-47979.5526029535
2205073631,6825,-2,0,-28808.6770350831,-38245.6628339300,-42580.4291624967,-33123.5005085570,-69761.7375859954,-47815.4468759025,-85980.4865506837,-75624.5962877682,-88151.7512102535,-75838.0055223458,-72966.4047367378,-85925.1235301393,-73856.0823930377,-82202.0151531650,-80849.8798437156,-47974.9897166449
2205073631,6825,-2,0,-28805.3430861536,-38241.1972891960,-42572.1794640508,-33117.1854739059,-69760.1436177116,-47801.1254967419,-85974.5852177245,-75613.6696960212,-88142.7836176950,-75820.5327097080,-72957.6561627221,-85914.1969383923,-73855.3766666219,-82198.5595272673,-80846.9352610844,-47968.3461541796
2205073631,6825,-2,0,-28804.1506518650,-38238.4473897140,-42576.8883627212,-33109.2643032742,-69777.3852441098,-47835.8034326873,-85978.8560793094,-75621.1649972641,-88141.4208356508,-75833.6494868832,-72962.7909307814,-85919.7089050530,-73866.9724816942,-82194.6536965871,-80850.8654271582,-47968.0906325463
2205073631,6825,-2,0,-28812.4855241887,-38242.9494375385,-42589.1168980283,-33109.1426263060,-69793.3005915542,-47882.5395561842,-85993.0679491986,-75641.8379141663,-88145.1563185755,-75852.0713798731,-72972.9509576285,-85930.3556397731,-73875.1856770497,-82188.5820158725,-80852.7270847721,-47967.0320429227
2205073631,6825,-2,0,-28816.5373672307,-38246.8309328250,-42590.4675123757,-33109.7145080566,-69777.3365733225,-47863.1199120548,-85981.6546495786,-75635.7662334516,-88138.4275822324,-75845.5981651633,-72962.1460428498,-85916.9833409647,-73862.1662414491,-82176.0857912353,-80842.7739087710,-47959.0743692005
2205073631,6825,-2,0,-28805.2944153663,-38237.8390048728,-42573.6760907600,-33107.1957948143,-69750.2512801946,-47808.8154811340,-85965.5202835914,-75614.8256272194,-88132.3559015178,-75822.2726903537,-72946.2671984958,-85901.0801612171,-73847.4798313839,-82171.7540911663,-80833.2831052491,-47955.2293770044
2205073631,6825,-2,0,-28796.5945121379,-38234.3468758847,-42563.9906040889,-33110.2498867169,-69750.0809324391,-47806.3819417694,-85974.4148699690,-75622.1992514941,-88134.3270684031,-75819.2916046321,-72956.7679208540,-85910.9603310373,-73854.6831079030,-82186.2579857793,-80842.0073438711,-47958.1252888483
2205098438,6826,-2,0,-28791.9707873452,-38232.9597584468,-42564.8788459570,-33113.4621586781,-69758.5253140342,-47837.9084442376,-85986.3027097650,-75641.1200200537,-88140.5812645701,-75834.9149273527,-72972.0383803668,-85926.5593183644,-73870.0144058999,-82204.1810031995,-80854.1385376036,-47966.8738628640
2205098438,6826,-2,0,-28789.4520741029,-38234.7484098798,-42573.1285444030,-33117.7816910503,-69785.3429178320,-47868.1816739331,-85998.1175433801,-75661.2697259925,-88149.6583664000,-75850.6112562543,-72983.4030091995,-85937.7779348351,-73883.2771954370,-82218.5632208442,-80862.6437576828,-47976.7662003810
2205098438,6826,-2,0,-28786.6170007431,-38230.8547468965,-42574.5278295376,-33120.1300565371,-69781.4735902423,-47874.9712487603,-86008.2532348336,-75670.3346601256,-88153.0044830263,-75850.0393745036,-72985.9947286227,-85939.9924556569,-73880.7463144978,-82220.3762076708,-80861.5973357561,-47977.9829700633
2205098438,6826,-2,0,-28778.8540101701,-38221.9966636094,-42561.1433630324,-33115.8348595586,-69750.8961681262,-47823.5383942897,-85988.5415659804,-75644.4174658928,-88141.1044755335,-75824.8400743833,-72967.2564755154,-85921.0838547940,-73859.2703296053,-82204.5703694978,-80842.4575486536,-47968.2974833923
2205098438,6826,-2,0,-28763.1941843589,-38208.2958369867,-42544.0112459057,-33100.6495739235,-69728.0452334927,-47786.1470619528,-85970.4482008047,-75616.6751171364,-88131.7718520703,-75811.0540738829,-72949.0657687651,-85903.6718806404,-73846.4699125475,-82189.1904007136,-80830.1925102560,-47956.0324449947
2205098438,6826,-2,0,-28748.3130911445,-38198.5130087411,-42534.9828148630,-33087.3016105088,-69739.7748932300,-47819.2797004017,-85975.1449317784,-75623.1970026335,-88133.5970065937,-75827.5656384717,-72958.7999262235,-85915.1825218349,-73857.9683860452,-82186.4039981412,-80834.3781979631,-47957.5290717040
2205098438,6826,-2,0,-28742.6186090314,-38196.4688356748,-42536.6619570246,-33082.8969042589,-69758.5739848215,-47856.1234863816,-85983.0174316228,-75641.6675664108,-88139.8268673671,-75845.5373266792,-72967.2808109091,-85926.8391753913,-73866.6682892736,-82189.3242453787,-80843.9906784533,-47962.5786658855
2205098438,6826,-2,0,-28745.1981607578,-38201.4819267659,-42542.8309793138,-33087.4962936579,-69757.6857429534,-47840.2203066340,-85978.9534208840,-75639.2096916525,-88139.8390350639,-75837.9446838616,-72960.7832608056,-85918.1271044661,-73855.2549896537,-82183.1430553926,-80836.3980356357,-47961.2158838413
2205130041,6827,-2,0,-28749.3230099808,-38203.1002304433,-42542.2712652600,-33093.5193035853,-69747.3432006539,-47800.2859256611,-85971.4946227315,-75623.5742012351,-88138.3302406578,-75817.1014192039,-72953.5556488928,-85912.0797591451,-73851.4830036386,-82184.6883528891,-80837.6634761053,-47963.3208953917
2205130041,6827,-2,0,-28753.8737285926,-38205.7649560476,-42539.8863966827,-33100.1872014443,-69741.7095570249,-47773.3588125919,-85967.7469721100,-75613.0978142705,-88137.7705266040,-75804.0819836034,-72948.8224148287,-85906.2757677605,-73846.6645956967,-82185.3089054271,-80830.9104043686,-47961.1307099636
2205130041,6827,-2,0,-28753.0828282991,-38202.8690442037,-42538.0125713719,-33097.3642957814,-69749.0588459060,-47780.9636231062,-85969.2435988192,-75608.8147849888,-88134.2418945253,-75808.9125592421,-72949.0657687651,-85906.6407986652,-73850.6312648610,-82188.0953079996,-80830.0586655910,-47962.1771318903
2205130041,6827,-2,0,-28750.6492889345,-38199.9609646630,-42540.4947815238,-33091.7428198492,-69765.7772613407,-47822.5771462407,-85979.9146689330,-75617.5268559141,-88136.6632661931,-75828.7824081540,-72959.2866340964,-85919.3195387547,-73859.5380189354,-82191.9646355892,-80836.8604081150,-47962.9558644870
2205130041,6827,-2,0,-28749.4811900395,-38195.8117800464,-42540.7259677635,-33087.7761506849,-69755.6415698872,-47823.3558788374,-85973.8429882183,-75611.5038459867,-88138.1355575087,-75830.9969289757,-72958.4835661061,-85917.4822165345,-73849.6456814183,-82188.5698481756,-80837.8946623450,-47965.2920622770
2205130041,6827,-2,0,-28749.8827240346,-38192.1614709995,-42536.7227955087,-33085.9874992519,-69738.9839929366,-47776.1573828612,-85961.7604652731,-75588.8354268056,-88132.9399509653,-75811.8814772669,-72938.6380525878,-85895.9818962483,-73835.1661221990,-82170.7076692396,-80819.8378002597,-47954.0247750190
2205130041,6827,-2,0,-28746.1472411100,-38184.8730206026,-42528.2784139136,-33081.9599916035,-69723.2146578540,-47748.1960155621,-85952.6468603528,-75569.8781551554,-88127.8781890869,-75798.6673585172,-72932.2135086653,-85888.2432410689,-73827.5734793815,-82165.9135966913,-80817.9031364649,-47950.7273291799
2205130041,6827,-2,0,-28745.0764837896,-38186.1871318594,-42528.7286186960,-33082.3250225082,-69734.8834791072,-47777.9582019910,-85961.3102604907,-75580.9385915675,-88131.7961874639,-75811.0297384893,-72942.1423492728,-85901.1409997012,-73845.6181737699,-82171.9244389219,-80825.2889284364,-47952.2482912828
2205160960,6828,-2,0,-28750.2477549393,-38192.2466448773,-42539.7403843208,-33087.8491568658,-69755.0453527428,-47819.4743835509,-85974.9867517197,-75604.4709172230,-88140.4109168146,-75834.1118593624,-72956.0986975288,-85916.7643224219,-73863.9183897917,-82176.5603314114,-80833.1249251904,-47959.5610770734
2205160960,6828,-2,0,-28754.7619704606,-38199.4499213965,-42547.9535796763,-33097.7658297765,-69763.6600820935,-47842.5321690303,-85987.3491316918,-75623.0631579685,-88147.4803486687,-75844.6855879015,-72967.8283572661,-85928.3966405846,-73872.5817899296,-82180.4539943947,-80840.5837233428,-47964.7931867073
2205160960,6828,-2,0,-28756.1369202016,-38203.6112737099,-42545.1428417102,-33100.8807601632,-69750.6528141898,-47818.1846076876,-85983.8448350068,-75620.0212337627,-88143.9273811964,-75828.8554143349,-72962.2312167275,-85921.3637118210,-73861.1198195224,-82180.5391682725,-80836.2033524866,-47961.7512625015
2205160960,6828,-2,0,-28757.6335469109,-38204.2439939447,-42538.3897699735,-33101.3431326425,-69731.8537225983,-47780.1727228128,-85970.8132317094,-75602.5362534282,-88138.8412839244,-75808.8760561516,-72950.5258923839,-85907.0545003572,-73847.9543715599,-82180.8920314804,-80830.5088703735,-47958.0522826673
2205160960,6828,-2,0,-28763.0238366034,-38208.4783524391,-42542.8066439202,-33106.6482484573,-69749.9714231677,-47810.5432940828,-85982.1413574516,-75615.9815584175,-88145.5700202675,-75821.3722807888,-72965.7355134125,-85923.0793570730,-73859.3920065735,-82192.2566603130,-80837.2497744134,-47961.2280515381
2205160960,6828,-2,0,-28764.8611588237,-38209.3422589135,-42550.9346653979,-33109.3981479392,-69773.9904566961,-47872.6228832735,-85997.2293015120,-75641.7649079853,-88151.0454838378,-75844.4787370556,-72983.8045431946,-85942.7180197452,-73871.9369019980,-82200.0926570670,-80851.9240167818,-47967.1902229814
2205160960,6828,-2,0,-28761.5272098942,-38203.6721121940,-42550.4966283123,-33107.9866951078,-69782.1184781739,-47884.7297416123,-85997.4483200548,-75647.6905763381,-88147.3100009132,-75843.0307811336,-72977.9883841132,-85937.9361148938,-73861.3023349747,-82191.6482754718,-80845.6089821307,-47961.0333683890
2205160960,6828,-2,0,-28760.4199494833,-38200.1069770249,-42546.8463192654,-33108.7897630981,-69768.1864653116,-47852.6191896966,-85988.2130381662,-75634.3547806202,-88140.8002831129,-75824.2925280263,-72965.4678240824,-85925.0261885647,-73854.4640893602,-82184.9195391288,-80841.1799404872,-47956.7746745009
2205234731,6829,-2,0,-28762.4762902464,-38198.0506362618,-42539.7282166240,-33105.7478388924,-69756.4933086648,-47824.7551639720,-85983.7839965227,-75624.2312568635,-88137.5880111516,-75810.5917014037,-72963.1559616861,-85918.9301724564,-73851.9332084210,-82177.7405980032,-80835.3151106185,-47953.5745702365
2205234731,6829,-2,0,-28772.4538016412,-38206.5071855538,-42549.8517403807,-33109.6658372693,-69769.1598810575,-47831.2405463786,-85992.0093595750,-75630.5827946051,-88146.3730882578,-75820.8125667349,-72970.5174182640,-85926.1699520660,-73865.7313766183,-82184.4571666495,-80840.4012078905,-47961.7999332888
2205234731,6829,-2,0,-28779.1582025906,-38214.7812193934,-42566.2659633948,-33113.6568418273,-69793.5317777938,-47879.0960979833,-86007.6326822956,-75650.5621527883,-88156.7399659509,-75846.2552207917,-72984.2912510675,-85944.6405158433,-73885.2605300191,-82193.4369269048,-80849.2227880871,-47967.6525954606
2205234731,6829,-2,0,-28776.8950109816,-38216.3630199803,-42567.9207701627,-33112.4765752355,-69799.0559121514,-47904.3805719814,-86011.6723576408,-75660.3936518213,-88155.0121530021,-75853.7505220347,-72987.4183491510,-85949.4832591788,-73885.2848654127,-82193.7167839318,-80846.7284102384,-47964.1848018661
2205234731,6829,-2,0,-28771.2491996557,-38212.6153693589,-42557.6999048315,-33110.3350605946,-69768.3568130671,-47856.9022189782,-85990.6830806213,-75639.1610208652,-88144.2194059201,-75832.6882388341,-72963.9955327669,-85923.4443879777,-73860.3167515321,-82181.2570623851,-80830.0951686815,-47952.8323407303
2205234731,6829,-2,0,-28764.8489911269,-38204.5116832748,-42542.5997930742,-33107.1471240270,-69728.4345997911,-47796.1732441349,-85965.5446189851,-75606.9409596781,-88131.4676596497,-75807.1969139901,-72945.0747642072,-85902.6132910168,-73842.0895416913,-82168.4809807210,-80815.8832987923,-47940.2022714281
2205234731,6829,-2,0,-28762.2937747940,-38201.8347899738,-42536.9174786579,-33107.5486580222,-69735.8325594594,-47803.1088313240,-85973.2346033772,-75613.3168328133,-88130.9931194736,-75810.1414966212,-72951.1099418314,-85909.9139091106,-73838.7069219745,-82163.1028587252,-80814.2284920244,-47942.5506369149
2205234731,6829,-2,0,-28763.7782338064,-38204.3048324288,-42544.3276060231,-33108.4247321934,-69755.0088496524,-47834.9273585160,-85985.8890080730,-75628.1614229373,-88137.6731850294,-75832.4813879881,-72963.7400111336,-85924.1136113029,-73859.9638883242,-82171.6080788045,-80832.3340248969,-47950.7516645736
2205244758,6830,-2,0,-28764.6908110682,-38206.9208872457,-42554.6944837162,-33110.7487622866,-69770.5226631016,-47855.4420953595,-85996.4749043090,-75638.2849466940,-88143.7326980472,-75846.7662640583,-72971.0406292273,-85934.6630044484,-73869.7345488730,-82178.4584921158,-80838.8072396067,-47958.5754936307
2205244758,6830,-2,0,-28771.0058457193,-38210.3643454466,-42559.4642208708,-33112.4522398418,-69769.9507813509,-47841.4857471036,-85998.5190773752,-75630.6314653924,-88147.5655225464,-75841.4124774562,-72970.4809151735,-85932.7040052599,-73867.9580651369,-82181.5125840183,-80838.8924134845,-47962.9680321838
2205244758,6830,-2,0,-28774.5831485852,-38211.0944072560,-42556.1789427286,-33111.5031594896,-69750.4094602533,-47788.5562659238,-85981.7884942437,-75600.5772542397,-88142.2117359444,-75819.9608279573,-72953.0324379294,-85913.0775102846,-73853.5636797953,-82175.1002077927,-80826.9802382948,-47958.0401149705
2205244758,6830,-2,0,-28779.4137242239,-38211.5324443416,-42557.2983708363,-33111.6613395483,-69749.0588459060,-47776.4859106754,-85979.9876751139,-75586.5844028933,-88142.2360713380,-75820.8003990381,-72952.4605561787,-85910.4371200740,-73859.8543790528,-82174.3579782865,-80824.1695003287,-47958.4051458752
2205244758,6830,-2,0,-28782.2244621900,-38212.5545308748,-42565.0613614094,-33113.8880280669,-69770.3644830429,-47826.5681507986,-85995.3919792917,-75606.6002641670,-88148.3564228399,-75840.9622726737,-72968.0838788994,-85930.8058445556,-73875.9157388591,-82181.6464286834,-80832.0541678700,-47960.7778467557
2205244758,6830,-2,0,-28781.0563632950,-38212.5910339652,-42571.4250668477,-33115.6888471967,-69782.1549812643,-47852.8382082394,-86000.5024119574,-75620.5566124230,-88149.3420062826,-75852.1565537508,-72972.6954359953,-85935.3200600769,-73876.6823037589,-82177.1200454653,-80826.7125489647,-47957.0180284374
2205244758,6830,-2,0,-28781.2388787474,-38215.9614859852,-42569.1253721482,-33116.6135921552,-69770.7538493413,-47830.1819567550,-85991.1089500101,-75614.5944409797,-88145.4605109961,-75838.7234164583,-72961.1604594071,-85922.7873323493,-73867.5321957481,-82179.9186157345,-80828.6837158500,-47957.6994194595
2205244758,6830,-2,0,-28779.1338671970,-38215.8641444106,-42560.3037919516,-33115.3603193825,-69752.8551673147,-47795.0416483304,-85979.5739734219,-75602.1468871299,-88138.3789114451,-75816.5903759374,-72950.7084078362,-85910.9724987342,-73852.0913884797,-82170.9753585697,-80820.5435266755,-47949.4132179231
2205252117,6831,-2,0,-28777.4790604291,-38217.7014666309,-42554.0982665719,-33116.0052073141,-69744.7149781402,-47779.2966486415,-85970.9227409808,-75596.3672311390,-88131.5771689211,-75804.2036605716,-72945.3059504468,-85905.1806750465,-73845.8980307969,-82163.8329205346,-80818.9860614821,-47944.2054436828
2205252117,6831,-2,0,-28778.0996129670,-38219.9524905431,-42558.7584944551,-33120.2882365958,-69759.5960713546,-47813.4757090171,-85982.2508667230,-75611.5646844708,-88136.6997692836,-75820.5935481921,-72958.1672059887,-85918.1392721629,-73859.1608203339,-82168.6999992638,-80830.1925102560,-47949.9729319769
2205252117,6831,-2,0,-28781.0928663855,-38224.2963583089,-42568.4683165198,-33123.5856824348,-69784.2478251179,-47866.9405688572,-86000.2225549305,-75639.5382194667,-88146.3122497737,-75843.5418244002,-72977.9518810228,-85939.0677106983,-73874.3461059689,-82178.5558336904,-80847.6409875001,-47958.6119967212
2205252117,6831,-2,0,-28784.0982875008,-38225.8173204118,-42570.3664772242,-33124.4982596965,-69776.5943438163,-47858.2284979319,-85998.4460711943,-75639.7207349191,-88149.2446647080,-75842.7995948940,-72974.2650688854,-85934.2127996660,-73866.6317861832,-82176.7671822574,-80850.6707440091,-47960.6683374843
2205252117,6831,-2,0,-28788.3448136920,-38226.7664007640,-42566.4241434535,-33123.2449869238,-69754.1449431779,-47805.2138428744,-85982.6280653245,-75615.4583474541,-88144.0855612551,-75821.4209515761,-72958.2645475632,-85914.8174909302,-73854.8899587490,-82170.6468307555,-80844.4773863262,-47955.7769233615
2205252117,6831,-2,0,-28782.3218037646,-38217.8961497800,-42557.2010292617,-33115.7010148935,-69744.4594565069,-47790.1989049949,-85979.1967748204,-75605.5538422403,-88140.3622460273,-75811.8693095701,-72956.8774301254,-85912.5908024116,-73853.8192014286,-82166.9113478308,-80839.2574443891,-47948.8656715660
2205252117,6831,-2,0,-28772.8310002427,-38206.4585147665,-42550.5818021900,-33107.0619501492,-69751.9060869625,-47814.3031124011,-85980.8515815883,-75610.3722501822,-88136.2008937138,-75818.1113380403,-72960.0897020867,-85917.8472474391,-73859.3190003926,-82161.0586856590,-80836.6657249659,-47941.3582026263
2205252117,6831,-2,0,-28767.3190335819,-38200.3381632645,-42552.2366089580,-33103.7888397039,-69761.9809399319,-47842.3009827907,-85984.8669215399,-75620.5566124230,-88140.7759477192,-75829.5489730538,-72963.5696633781,-85923.0063508921,-73866.9846493910,-82161.4602196541,-80836.9699173864,-47943.3902079957
2205284709,6832,-2,0,-28770.7381563892,-38206.8965518521,-42559.9387610469,-33109.7388434503,-69766.5316585437,-47852.1203141268,-85988.2982120440,-75623.9513998366,-88149.2324970112,-75833.2114497975,-72967.0617923662,-85927.1312001151,-73866.5466123054,-82163.0176848475,-80838.3326994306,-47946.6633184411
2205284709,6832,-2,0,-28774.6561547662,-38211.9704814273,-42557.5660601664,-33111.4423210055,-69749.5942245662,-47810.6771387479,-85972.8695724725,-75605.5295068466,-88150.0233973047,-75817.1379222944,-72955.0279402084,-85913.0775102846,-73852.4807547781,-82158.7346555658,-80829.6571315958,-47943.3658726021
2205284709,6832,-2,0,-28778.8783455637,-38214.1606668554,-42556.2519489095,-33115.0074561746,-69737.3413538655,-47781.9978773362,-85967.6496305354,-75591.1837922924,-88148.2834166590,-75806.8683861758,-72945.9143352880,-85903.4771974912,-73845.1801366843,-82154.1839369540,-80819.7769617756,-47940.1536006408
2205284709,6832,-2,0,-28782.5894930947,-38214.6230393347,-42560.9000090959,-33116.5527536711,-69751.5775591483,-47815.7632360199,-85979.8903335393,-75610.0072192775,-88158.0297418142,-75828.7580727603,-72964.4944083366,-85923.8824250633,-73861.8620490286,-82156.7026501964,-80828.0266602216,-47946.6876538347
2205284709,6832,-2,0,-28786.4953237749,-38220.3418568414,-42572.8608550729,-33123.0868068651,-69780.2324851663,-47867.0257427349,-85997.3631461771,-75636.2286059309,-88169.9662523975,-75855.5148380740,-72979.3268307638,-85942.0244610263,-73875.4411986830,-82161.4237165637,-80831.6161307843,-47951.7494157131
2205284709,6832,-2,0,-28788.6611738094,-38222.3373591204,-42578.8230265161,-33126.5667681564,-69780.4028329218,-47860.0536524554,-85995.0026129934,-75634.5981345566,-88174.8211634298,-75855.6000119517,-72972.8536160540,-85934.4683212993,-73871.5597033965,-82158.7224878690,-80830.8617335813,-47956.2636312344
2205284709,6832,-2,0,-28795.5115871207,-38231.6943179773,-42580.2101439539,-33134.3054233358,-69767.8214344069,-47826.1057783194,-85987.7384979901,-75616.8698002856,-88176.0257654153,-75841.2056266102,-72964.2997251874,-85924.4178037235,-73864.1739114249,-82161.2412011113,-80829.6327962022,-47955.1442031267
2205284709,6832,-2,0,-28803.2989130874,-38237.8390048728,-42575.8906115818,-33135.8020500450,-69755.7632468554,-47799.0448205851,-85980.6447307424,-75600.9301174476,-88173.8355799872,-75827.9306693764,-72958.5079014997,-85915.9247513411,-73858.0048891357,-82160.5598100892,-80824.2303388128,-47951.9684342559
2205339795,6833,-2,0,-28808.0564825451,-38239.1166130393,-42580.0641315920,-33132.6871196584,-69765.7772613407,-47810.5189586892,-85984.2950397892,-75600.4069064842,-88178.3741309021,-75837.0686096904,-72965.2974763269,-85923.1766986476,-73870.4524429856,-82162.6404862460,-80827.9658217375,-47957.7359225500
2205339795,6833,-2,0,-28802.2159880701,-38232.4730505739,-42586.1601477003,-33127.3576684499,-69793.3249269478,-47861.4042668027,-86005.9778755277,-75625.3141818807,-88193.8636089577,-75863.1439839820,-72986.2259148624,-85947.5850984744,-73892.0987756336,-82174.5648291324,-80840.1213508636,-47971.2055629329
2205339795,6833,-2,0,-28798.5291759328,-38224.8560723628,-42589.4332581457,-33127.9782209879,-69802.8644012570,-47874.9225779730,-86015.5660206242,-75636.6909784102,-88200.9817115992,-75870.9678130391,-72993.3318498070,-85953.7419530668,-73897.0023574532,-82180.4296590011,-80846.6919071480,-47978.8468765378
2205339795,6833,-2,0,-28800.3178273657,-38227.4112886956,-42589.7131151726,-33131.5555238538,-69789.1149038471,-47828.1256159920,-86004.9192859041,-75619.8143829168,-88205.9461319029,-75856.5977630912,-72981.4926807983,-85939.1893876666,-73886.3921258236,-82175.3313940323,-80843.2119458566,-47979.7472861027
2205339795,6833,-2,0,-28806.1096510535,-38236.6952413715,-42591.0880649136,-33135.5830315022,-69777.9936289509,-47796.6112812206,-86002.7412681728,-75609.9463807933,-88208.1849881183,-75847.1191272661,-72978.5724335607,-85936.5733328496,-73884.3601204542,-82170.5494891809,-80841.4597975141,-47980.4895156089
2205339795,6833,-2,0,-28812.4611887950,-38241.3554692547,-42596.7460439363,-33137.2865090574,-69796.8778944201,-47827.4928957572,-86013.2419905310,-75622.4547731273,-88216.0209848723,-75861.6595249696,-72992.8208065404,-85950.4080041373,-73895.4935630472,-82176.2804743845,-80847.9451799207,-47983.7626260542
2205339795,6833,-2,0,-28819.6522976174,-38246.3077218616,-42611.8583233904,-33139.9634023585,-69821.5783189707,-47872.7080571512,-86028.0744129582,-75642.2272804646,-88227.9331600620,-75887.3090298723,-73006.6433101313,-85964.9727372344,-73912.6743509612,-82193.6437777508,-80864.0917136048,-47996.7212231707
2205339795,6833,-2,0,-28824.0691715641,-38242.5235681497,-42620.4852204378,-33141.3018490090,-69831.7018427274,-47896.9582769194,-86034.6936400299,-75654.4923188621,-88235.0147596129,-75900.1216146269,-73013.5423942299,-85974.1228452452,-73916.9452125460,-82204.0106554440,-80873.4730078553,-48003.0484255186
2205351433,6834,-2,0,-28826.3688662637,-38241.7205001594,-42619.9011709903,-33141.0828304662,-69816.2610354591,-47873.2556035083,-86026.0059044983,-75643.6022302056,-88232.1553508595,-75883.8412362778,-73005.9984221997,-85965.6297928628,-73904.4611556057,-82202.1489978301,-80867.1944762946,-47997.9744959434
2205351433,6834,-2,0,-28827.2571081317,-38240.1386995724,-42612.7100621680,-33139.1968374586,-69787.9711403457,-47822.4554692725,-86006.4645834006,-75615.4340120605,-88220.3526849413,-75859.7856996588,-72985.9095547450,-85942.7423551389,-73887.5237216282,-82190.0056364007,-80853.3354696133,-47986.3665131743
2205351433,6834,-2,0,-28833.1949441813,-38243.7038347415,-42615.4356262563,-33142.2387616644,-69794.0671564540,-47837.5190779393,-86010.0905570539,-75620.3619292738,-88222.0683301933,-75865.4558463783,-72991.5431983740,-85951.0893951594,-73896.8563450913,-82188.1074756964,-80855.7325058874,-47986.8897241377
2205351433,6834,-2,0,-28843.1724555761,-38252.6227565127,-42630.3410548644,-33151.1211803451,-69825.9951929174,-47902.0808772818,-86034.8883231790,-75655.7577593317,-88236.3775416571,-75899.1603665779,-73017.7524173306,-85979.0385947617,-73921.2647449182,-82198.2309994531,-80869.1534754831,-47996.0154967549
2205351433,6834,-2,0,-28846.3725598406,-38253.2311413539,-42639.7466845086,-33155.0878495094,-69833.1376309525,-47921.2206643843,-86039.8892465732,-75670.9673803604,-88241.9503468020,-75909.6732566329,-73020.0521120302,-85981.2287801898,-73923.2237441067,-82200.5306941526,-80869.6766864465,-47996.5508754151
2205351433,6834,-2,0,-28846.2873859628,-38251.1139621067,-42637.9702007724,-33156.5479731281,-69820.1546984424,-47898.8807730174,-86032.1505913939,-75662.8636942763,-88243.8606752032,-75899.3793851207,-73010.7803270511,-85972.2611876313,-73914.0979714895,-82203.4631090869,-80867.9610411945,-47999.3616133812
2205351433,6834,-2,0,-28842.5640707350,-38246.8065974314,-42627.3599691428,-33154.1874399445,-69801.7449731493,-47871.0167472928,-86019.7273729376,-75644.0767703817,-88238.9205902931,-75882.7583112605,-73001.7397283116,-85961.2129189161,-73895.9802709201,-82196.7222050470,-80853.3598050069,-47988.2160030914
2205351433,6834,-2,0,-28836.5653962013,-38235.2594531464,-42617.7474886527,-33145.4997044129,-69792.2054988401,-47866.4173578938,-86006.9269558799,-75630.4124468495,-88234.0048407766,-75881.0426660085,-72993.8793961640,-85953.3525867685,-73891.8310863035,-82195.9556401472,-80849.3931358426,-47982.9717257607
2205383397,6835,-2,0,-28827.9019960634,-38230.3315359331,-42617.3337869607,-33138.7466326762,-69805.6873069199,-47911.1458114149,-86011.3194944330,-75639.6842318286,-88236.4018770507,-75900.2797946856,-73002.1777653973,-85965.9583206770,-73896.7103327295,-82198.5716949641,-80852.7635878626,-47983.1907443035
2205383397,6835,-2,0,-28824.7383948894,-38226.3161959815,-42617.8691656209,-33134.7434604214,-69819.2299534839,-47949.6079010722,-86020.2870869915,-75660.8925273910,-88241.3784650513,-75914.3578199097,-73014.1507790710,-85978.5518868888,-73902.6603364759,-82205.2152574294,-80859.4193180248,-47983.2029120004
2205383397,6835,-2,0,-28826.9650834080,-38228.6523937715,-42620.4852204378,-33134.4149326072,-69806.7945673308,-47916.6456103789,-86011.4533390980,-75657.2057152537,-88240.1495276722,-75901.3992227933,-73004.5626339746,-85967.6252951418,-73891.2348691591,-82205.1422512485,-80856.0975367921,-47982.6431979465
2205383397,6835,-2,0,-28833.6694843574,-38234.2860374005,-42618.8060782763,-33140.0850793267,-69792.1446603560,-47866.0158238986,-86003.8728639773,-75648.0191041523,-88240.1008568849,-75882.2351002972,-72994.8649796067,-85954.4720148762,-73885.5038839555,-82206.8092257132,-80854.4670654178,-47982.0469808022
2205383397,6835,-2,0,-28837.1616133456,-38242.5722389370,-42619.4631339047,-33147.5682128728,-69804.3245248757,-47872.5498770925,-86016.0770638908,-75661.7199307750,-88246.0386929345,-75885.5933846203,-73005.1101803316,-85965.6176251660,-73897.7202515658,-82215.2171042179,-80859.9303612913,-47986.6707055949
2205383397,6835,-2,0,-28835.1539433698,-38245.4073122967,-42622.9795982866,-33148.4929578314,-69822.0771945404,-47905.0254599130,-86026.5534508553,-75676.5645208990,-88251.7940135318,-75900.5231486220,-73014.7104931249,-85974.1228452452,-73911.5792582471,-82222.0553498324,-80869.5428417814,-47990.0898284022
2205383397,6835,-2,0,-28834.4238815605,-38246.7092558568,-42629.4041422091,-33149.6975598168,-69836.2160582487,-47931.3441881410,-86035.6183849884,-75685.3617657019,-88255.0792916740,-75912.6178392640,-73021.2932171061,-85980.5473891678,-73912.3823262374,-82220.2180276121,-80868.8736184562,-47989.6517913165
2205383397,6835,-2,0,-28830.2746969438,-38245.8088462919,-42624.6465727513,-33146.3514431905,-69827.0294471474,-47916.9984735867,-86029.7535551197,-75675.2382419453,-88250.1270390670,-75896.5929825482,-73014.1264436774,-85973.8673236120,-73907.4057382368,-82212.8565710342,-80866.5739237566,-47986.9383949250
2205418397,6836,-2,0,-28828.8754118092,-38244.6529150937,-42616.7984083005,-33144.1612577624,-69802.0004947826,-47862.0734901280,-86011.5506806726,-75642.7261560344,-88239.5046397406,-75867.5851933223,-72993.1493343546,-85950.7608673452,-73887.4993862345,-82193.8506285968,-80854.2967176623,-47978.7738703568
2205418397,6836,-2,0,-28837.0764394679,-38244.0201948589,-42618.6235628239,-33146.9354926380,-69796.4155219408,-47839.8431080325,-86006.9026204862,-75628.6116277197,-88240.8065833006,-75863.7888719136,-72988.6107834397,-85946.6603535159,-73890.5656458339,-82185.7347748159,-80849.2227880871,-47978.8712119314
2205418397,6836,-2,0,-28842.8804308524,-38247.0742867615,-42624.9629328687,-33148.1522623203,-69819.7653321441,-47883.3304564777,-86020.5912794121,-75644.2349504404,-88246.3915561424,-75886.4694587915,-73005.9375837155,-85965.1674203836,-73906.7486826084,-82186.1849795983,-80856.8519339951,-47981.6941175943
2205418397,6836,-2,0,-28841.8705120161,-38247.2081314265,-42630.9859427960,-33148.6876409805,-69830.0957067467,-47912.5694319432,-86025.6043705031,-75658.1912986963,-88249.0319463530,-75903.3825573754,-73009.0768494959,-85971.9448275139,-73911.2872335234,-82189.9569656135,-80861.5608326656,-47982.4363471005
2205418397,6836,-2,0,-28842.0651951653,-38248.6925904389,-42632.1175386006,-33149.9530814501,-69817.0519357525,-47886.2020329279,-86016.1379023749,-75650.6716620597,-88244.9436002204,-75892.3829594475,-72998.3692762917,-85959.1200750626,-73901.9181069697,-82190.0299717944,-80859.3463118438,-47978.9563858092
2205418397,6836,-2,0,-28842.6370769159,-38254.3384017647,-42626.3500503065,-33148.4442870441,-69798.4110242198,-47845.5619255393,-86005.7953600754,-75638.9906731097,-88241.1959495990,-75870.0917388678,-72984.3399218548,-85944.4945034814,-73889.7382424499,-82188.0588049091,-80855.8541828556,-47971.7409415932
2205418397,6836,-2,0,-28843.5374864808,-38260.6412687190,-42622.1278595089,-33146.0594184668,-69789.8327979596,-47821.3847119521,-85998.5434127689,-75632.4444522190,-88237.2292804347,-75855.4783349835,-72975.7130248074,-85934.6630044484,-73881.1235130993,-82177.5580825509,-80844.5017217198,-47966.2411426292
2205418397,6836,-2,0,-28849.1224593226,-38268.0148929937,-42630.8520981310,-33150.9143294991,-69806.3565302452,-47850.7818674763,-86007.9733778067,-75646.1087757511,-88244.6759108903,-75869.7632110536,-72984.9361389991,-85944.9082051734,-73898.2921333165,-82182.0357949817,-80853.6396620339,-47976.8392065620
2205444605,6837,-2,0,-28852.1400481347,-38270.6309478107,-42638.9922873055,-33154.8079924825,-69828.5869123407,-47901.7036786803,-86027.2470095742,-75673.3400812409,-88253.1446278791,-75892.7723257458,-73007.3003657597,-85969.1949280320,-73913.3800773769,-82187.2070661315,-80861.8406896925,-47986.0623207538
2205444605,6837,-2,0,-28847.1999632245,-38264.6931117611,-42635.1716305031,-33154.5768062428,-69820.2763754106,-47894.7924268849,-86023.0856572608,-75672.3301624046,-88249.3604741672,-75890.8133265573,-73004.3557831286,-85966.9317364229,-73903.5607460408,-82178.8600261109,-80856.7667601174,-47986.5368609299
2205444605,6837,-2,0,-28843.7565050236,-38257.1734751245,-42627.8710124094,-33151.1333480419,-69794.5416966301,-47845.6349317202,-86004.8827828136,-75645.4273847291,-88245.2234572474,-75872.6469552007,-72986.8708027940,-85945.8451178287,-73888.0712679852,-82164.4291376789,-80846.5215593924,-47982.3998440101
2205444605,6837,-2,0,-28843.8538465982,-38254.9589543027,-42623.4906415531,-33153.5547197097,-69789.9909780183,-47833.0657009021,-86006.0630494055,-75637.1533508894,-88247.7786735802,-75871.0773223105,-72989.8883916061,-85950.3349979564,-73892.1109433304,-82163.7599143537,-80845.8036652799,-47984.8577187683
2205444605,6837,-2,0,-28843.6713311459,-38254.5817557012,-42626.1310317637,-33155.2947003554,-69808.1451816781,-47869.6539652487,-86018.9729757346,-75653.4580646322,-88254.4100683487,-75887.9904208944,-73001.5572128593,-85964.2305077282,-73907.6247567797,-82171.8392650441,-80855.2944688018,-47990.3331823386
2205444605,6837,-2,0,-28840.7267485147,-38253.4014891094,-42632.0567001165,-33153.1775211082,-69824.8149263256,-47907.2156453411,-86028.9991579167,-75668.5825117831,-88260.2262274301,-75904.3803085149,-73010.0259298481,-85971.6162996997,-73919.2084041551,-82184.9925453097,-80865.5031664362,-47995.2489318551
2205444605,6837,-2,0,-28837.0034332869,-38248.8872735881,-42630.9616074024,-33148.3956162568,-69822.8680948339,-47916.8281258312,-86029.6805489388,-75673.4495905123,-88260.2870659142,-75903.2973834977,-73007.8235767231,-85971.0809210395,-73913.1002203500,-82193.5342684794,-80862.5220807146,-47990.9415671798
2205444605,6837,-2,0,-28834.1440245335,-38244.1662072208,-42622.6023996850,-33145.6578844716,-69793.0572376177,-47876.4192046822,-86010.4555879586,-75655.3927284270,-88254.1180436249,-75886.3842849138,-72994.6824641543,-85956.4310140647,-73901.8329330919,-82200.2751725193,-80858.4580699757,-47986.0258176633
2205475963,6838,-2,0,-28827.0989280730,-38234.9795961194,-42613.2819439187,-33141.7520537914,-69779.6849388093,-47844.0774665268,-86001.1229644954,-75630.0839190353,-88249.4334803481,-75876.8691459982,-72982.2957487886,-85940.6616789822,-73889.4340500294,-82201.9178115904,-80853.7856743957,-47981.2317451151
2205475963,6838,-2,0,-28820.2485147617,-38226.3040282847,-42610.3130258939,-33137.8583908081,-69788.7620406392,-47879.6923151276,-86009.2996567604,-75646.1939496289,-88252.0982059523,-75894.4027971201,-72993.6482099244,-85957.1002373900,-73897.2943821770,-82211.4086151123,-80862.2178882940,-47982.5823594624
2205475963,6838,-2,0,-28813.0939090298,-38222.0453343967,-42612.9777514981,-33136.7998011845,-69810.7490687983,-47938.8151539903,-86027.9405682931,-75677.4527627670,-88258.8756130827,-75921.5489287321,-73012.3377922444,-85978.4788807079,-73910.2408115966,-82225.5718142142,-80876.2229073372,-47987.7779660058
2205475963,6838,-2,0,-28807.9956440610,-38218.5532054085,-42614.7664029311,-33134.1472432771,-69811.6251429695,-47941.9057489833,-86025.0933272366,-75683.3784311198,-88260.9684569363,-75919.7481096023,-73010.9020040193,-85975.3517826244,-73905.5440806229,-82231.1932901464,-80877.8412110147,-47986.9627303187
2205475963,6838,-2,0,-28798.8942068375,-38214.1850022490,-42605.0687485632,-33129.1706552765,-69798.8733966991,-47907.6658501235,-86018.3159201062,-75676.1021484197,-88257.4033217671,-75895.9237592230,-73001.2043496514,-85962.5757009603,-73894.0821102157,-82231.4974825670,-80870.3702451654,-47979.4674290757
2205475963,6838,-2,0,-28787.9067766063,-38209.2449173389,-42594.4950200240,-33124.7537813298,-69793.1302437986,-47877.4777943058,-86014.2884124578,-75673.4617582091,-88256.0527074198,-75874.2530911813,-72997.5418729077,-85955.6279460744,-73889.1298576088,-82233.2009601222,-80869.1534754831,-47979.7351184058
2205475963,6838,-2,0,-28775.2888750010,-38202.2849947562,-42586.5616816955,-33119.3269885468,-69803.5579599759,-47880.4953831179,-86018.2794170157,-75682.6727047041,-88257.5615018258,-75870.5662790440,-72999.8902383945,-85952.4886802941,-73900.2633002018,-82245.0887999182,-80877.4518447164,-47983.4827690273
2205475963,6838,-2,0,-28757.9985778155,-38187.4039015417,-42582.8627018613,-33108.8871046727,-69829.9983651722,-47919.4320129513,-86031.5178711591,-75704.2947019585,-88259.1919732001,-75879.4852008152,-73012.1552767921,-85964.9484018408,-73914.1344745799,-82256.0032239684,-80885.4703569227,-47987.4859412820
2205505513,6839,-2,0,-28730.1223843942,-38156.5952931861,-42570.1596263782,-33091.7549875460,-69835.1331332314,-47928.5091147812,-86033.0266655651,-75713.5664869375,-88253.0837893950,-75874.6424574796,-73010.1962776036,-85965.6054574692,-73910.1921408093,-82251.5620146280,-80885.1296614116,-47986.3543454775
2205505513,6839,-2,0,-28712.8807579961,-38131.2499807039,-42558.8923391201,-33079.4291106643,-69813.2556143438,-47880.0451783355,-86017.7927091428,-75690.1801736438,-88246.0021898440,-75853.9817082743,-72994.0010731322,-85946.0276332811,-73893.2912099222,-82232.1302028018,-80872.1588965984,-47983.7991291447
2205505513,6839,-2,0,-28695.5052869329,-38106.8537485739,-42541.4316941792,-33067.6994509270,-69790.9765614610,-47844.1626404046,-86006.3672418260,-75656.3296410824,-88237.7646590949,-75842.1425392656,-72985.6296977180,-85940.7225174663,-73884.8224929335,-82209.4617836206,-80859.3341441470,-47980.5381863961
2205505513,6839,-2,0,-28663.4312381076,-38078.0528101940,-42521.2576528468,-33050.2266382893,-69791.6579524831,-47859.5669445825,-86009.3239921540,-75647.4593900985,-88240.3442108214,-75856.0258813405,-72994.9744888781,-85952.5495187782,-73891.0888567973,-82197.9633101230,-80858.3972314916,-47981.5846083229
2205505513,6839,-2,0,-28626.3562658881,-38045.4068796180,-42504.5514051089,-33033.6664029133,-69799.6034585084,-47892.1520366743,-86013.8747107658,-75655.8794363000,-88246.6714131693,-75876.2242580666,-73001.5572128593,-85960.9939003733,-73897.6229099912,-82197.0507328612,-80868.0097119818,-47986.0136499665
2205505513,6839,-2,0,-28602.8847787167,-38025.2815090729,-42496.6667375676,-33025.1125120467,-69802.2195133254,-47912.5815996400,-86014.2640770641,-75672.6586902188,-88252.6944230967,-75882.6488019891,-73002.1899330941,-85962.2715085397,-73896.5764880644,-82203.2805936346,-80872.0372196301,-47988.3376800597
2205505513,6839,-2,0,-28589.5489829987,-38014.6347743528,-42484.8397362557,-33018.9921605448,-69781.9602981152,-47886.9564301309,-86001.3906538255,-75671.8677899253,-88248.2288783626,-75867.1593239335,-72986.7126227353,-85950.0064701422,-73879.7242279646,-82202.2098363142,-80861.4148203037,-47980.0393108264
2205505513,6839,-2,0,-28579.7174839658,-38011.2156515455,-42474.0713245674,-33015.0133236837,-69749.8740815931,-47829.1842056156,-85977.4324587811,-75649.0046875950,-88240.1130245817,-75846.4620716377,-72961.8296827324,-85924.2474559680,-73860.2194099575,-82201.9056438936,-80845.8158329767,-47969.0397128985
2205537389,6840,-2,0,-28568.9004014902,-38008.0277149779,-42463.7652853584,-33011.5090269987,-69742.2692710787,-47825.9962690480,-85974.4148699690,-75634.9266623709,-88237.7524913981,-75852.1687214477,-72958.3983922283,-85920.5484761338,-73856.9219641185,-82201.7717992285,-80841.6544806633,-47962.9801998806
2205537389,6840,-2,0,-28564.0211550642,-38012.9191291008,-42465.7972907278,-33009.3066738737,-69759.1336988753,-47869.0334127107,-85985.3779648065,-75639.8910826746,-88240.5997324546,-75875.6523763159,-72969.5196671245,-85932.9473591964,-73863.8697190044,-82199.0584028370,-80844.9154234118,-47960.8873560271
2205537389,6840,-2,0,-28559.2514179096,-38013.8560417561,-42465.4565952167,-33006.2404142743,-69766.9696956293,-47873.0365849655,-85985.7064926207,-75631.6778873191,-88240.9647633593,-75882.3932803559,-72964.1050420383,-85928.3601374942,-73859.9638883242,-82184.5058374368,-80846.8744226003,-47961.5322439587
2205537389,6840,-2,0,-28559.7746288730,-38017.8713817077,-42464.7021980137,-33006.5324389981,-69762.9056848905,-47826.7263308573,-85975.0110871133,-75607.3181582796,-88237.0711003760,-75860.4305875904,-72948.8224148287,-85911.7999021181,-73847.5163344743,-82158.9293387150,-80838.1380162814,-47959.6097478607
2205537389,6840,-2,0,-28557.6939527163,-38017.2873322602,-42453.6417616017,-33001.7992049340,-69754.3517940239,-47773.8455204648,-85962.8798933808,-75581.6686533768,-88226.3026886877,-75826.6895643004,-72935.8516500154,-85896.1887470943,-73835.9570224925,-82133.8882186533,-80828.4890327008,-47952.5159806129
2205537389,6840,-2,0,-28556.2824998848,-38017.8592140109,-42447.9959502758,-32999.0493054520,-69754.3639617208,-47747.8431523542,-85956.3336724901,-75565.5342873896,-88213.5874455077,-75808.0851558581,-72930.3640187483,-85888.9854705751,-73837.0521152066,-82123.8863718649,-80822.5511966512,-47948.0869389694
2205537389,6840,-2,0,-28560.5776968633,-38019.1489898741,-42453.3375691811,-32998.8667899996,-69775.7061019482,-47777.5201649054,-85969.2070957288,-75574.2341906180,-88210.9713906908,-75817.3934439277,-72942.8602433854,-85900.1432485618,-73850.2297308658,-82131.1991576555,-80824.2425065096,-47945.9819274190
2205537389,6840,-2,0,-28565.1162477783,-38022.7871312242,-42461.6602738080,-33001.8965465086,-69793.2032499796,-47822.9178417518,-85984.5870645130,-75594.8584367329,-88210.4238443338,-75829.0014266968,-72956.2325421938,-85915.9247513411,-73869.1870025160,-82155.5832220887,-80837.5052960466,-47950.6908260895
2205621360,6841,-2,0,-28566.3816882479,-38023.5536961240,-42460.5773487907,-32999.6576902931,-69774.4163260850,-47807.4892021803,-85974.9624163260,-75590.9647737496,-88200.5193391199,-75815.9089849153,-72945.4762982023,-85904.9129857163,-73858.7592863387,-82170.5373214841,-80829.3894422657,-47949.6809072532
2205621360,6841,-2,0,-28577.5272985377,-38037.4613735926,-42467.0992342878,-33007.8830533454,-69756.1526131537,-47783.3484916835,-85969.8154805699,-75583.2504539638,-88201.3102394134,-75806.5763614521,-72940.3658655367,-85896.2374178816,-73855.2793250474,-82189.3120776818,-80826.4570273314,-47954.7791722220
2205621360,6841,-2,0,-28595.8761853467,-38052.5979884404,-42478.6707139665,-33019.8317316256,-69762.4068093207,-47812.5144609681,-85984.3193751829,-75601.3681545332,-88213.8794702315,-75823.7571493661,-72959.2257956123,-85912.9436656195,-73868.6272884621,-82212.6132170978,-80839.5738045065,-47967.4822477051
2205621360,6841,-2,0,-28611.9497128498,-38068.1848080706,-42497.6158179198,-33031.6343975438,-69787.1194015681,-47873.4746220511,-86004.4690811217,-75636.3137798087,-88228.2738555730,-75856.7316077563,-72980.0447248763,-85932.8865207123,-73885.4917162587,-82224.8052493144,-80858.2633868266,-47981.4385959610
2205621360,6841,-2,0,-28615.5878541998,-38071.3727446382,-42507.2769691972,-33035.6010667081,-69796.3790188504,-47915.9642193568,-86014.6656110593,-75658.5563296010,-88234.1630208353,-75877.0638291474,-72987.8807216303,-85941.4647469725,-73890.6751551053,-82212.2360184963,-80864.9921231697,-47986.3056746902
2205621360,6841,-2,0,-28618.5081014373,-38073.6724393377,-42509.2603037793,-33039.4582266010,-69788.8107114265,-47920.4175963940,-86014.0328908245,-75668.7406918418,-88230.5857179694,-75874.7519667510,-72982.9528044170,-85938.4593258572,-73875.8792357686,-82183.0700492117,-80850.9140979455,-47976.8148711683
2205621360,6841,-2,0,-28624.2390866409,-38077.3835868687,-42506.5225719942,-33045.1162056236,-69767.5172419864,-47882.3205376414,-86000.5754181383,-75657.1327090727,-88225.4752853037,-75861.9272142997,-72969.4709963372,-85924.6246545695,-73868.7124623399,-82173.1168732105,-80843.8446660914,-47975.1235613099
2205621360,6841,-2,0,-28635.8957401973,-38087.3976013540,-42513.6285069388,-33055.5804248914,-69763.4288958538,-47874.2533546477,-86001.8530263047,-75655.4779023048,-88229.8921592505,-75867.5608579287,-72969.5440025181,-85927.8490942276,-73873.8837334896,-82174.7716799784,-80842.1046854457,-47978.0559762443
2205633867,6842,-2,0,-28644.4617987607,-38094.7955610223,-42524.6281048667,-33063.7449494596,-69790.5628597690,-47936.0895899019,-86020.9076395295,-75676.2968315689,-88241.6218189878,-75897.8097522305,-72992.8694773277,-85955.4454306220,-73897.9027670181,-82194.0331440491,-80854.2723822687,-47984.7968802842
2205633867,6842,-2,0,-28652.7236649035,-38102.8870794096,-42538.1950868243,-33068.0888172254,-69812.0996831456,-47985.5269420936,-86031.1163371639,-75695.3392770968,-88247.2189595263,-75918.8598677342,-73002.4819578178,-85967.3211027212,-73906.9798688480,-82211.0800872981,-80861.4634910910,-47985.5026066999
2205633867,6842,-2,0,-28656.8120110360,-38108.5207230386,-42538.9616517241,-33069.2569161204,-69807.0014181768,-47971.9721278328,-86021.4795212801,-75687.2720941032,-88244.0796937460,-75910.9873678898,-72991.7378815232,-85955.4941014093,-73896.7346681231,-82221.8728343800,-80859.9060258977,-47980.3070001565
2205633867,6842,-2,0,-28663.1757164744,-38118.8267622476,-42538.4506084576,-33073.7589639448,-69797.4376084740,-47935.7975651782,-86013.0108042914,-75674.2769938962,-88240.5023908801,-75888.8056565815,-72980.3732526905,-85943.2533984054,-73885.3335362000,-82231.6799980193,-80856.4138969095,-47977.0338897111
2205633867,6842,-2,0,-28672.8612031454,-38128.7434351583,-42540.8598124285,-33080.7432219212,-69798.3745211293,-47913.7862016255,-86010.4069171713,-75669.7141075876,-88240.7579125133,-75876.3094319444,-72978.9131290718,-85939.3475677253,-73883.0703445910,-82233.6146618142,-80857.8740205282,-47977.6544422491
2205633867,6842,-2,0,-28682.7048698752,-38140.6191072575,-42551.1536839407,-33088.8225726117,-69817.6968236842,-47937.3185272811,-86020.3722608692,-75682.6362016136,-88244.2500415015,-75887.4428745374,-72989.5233607014,-85948.6923588853,-73894.3984703331,-82232.1058674081,-80863.2764779176,-47982.4363471005
2205633867,6842,-2,0,-28695.5539577202,-38152.1297484520,-42568.0181117373,-33097.0601033608,-69851.2796669155,-47996.3318568723,-86045.2308654785,-75714.7832566198,-88256.4542414149,-75917.5092533869,-73015.3432133597,-85975.3152795339,-73919.5004288788,-82238.1410450323,-80883.0489852549,-47997.7189743101
2205633867,6842,-2,0,-28710.8122495362,-38164.6868115733,-42584.0551361500,-33106.5265714890,-69858.7262973711,-48010.8722545757,-86058.3476426537,-75730.5525917024,-88263.9617103547,-75929.6282794225,-73024.7488430038,-85984.2585366988,-73925.0002278428,-82235.1477916139,-80890.2035909868,-48009.1931124142
2205642614,6843,-2,0,-28720.6072454787,-38171.2573678577,-42586.3913339400,-33111.5518302769,-69836.4715798820,-47966.7278505021,-86050.5603166870,-75712.1550341061,-88260.5790906379,-75915.2217263841,-73012.2891214571,-85968.0146614401,-73913.4652512547,-82223.4302995734,-80881.7835447853,-48008.3535413334
2205642614,6843,-2,0,-28724.2575545255,-38174.7981676332,-42581.9501245996,-33113.1457985607,-69820.4467231661,-47941.6623950468,-86044.6954868183,-75697.7728164614,-88249.1779587148,-75897.9800999860,-73006.9840056423,-85961.2980927939,-73911.0682149806,-82214.5965516799,-80875.8457087357,-48001.6856434744
2205642614,6843,-2,0,-28721.4224811658,-38172.0117650607,-42577.5089152592,-33111.3206440373,-69822.2353745991,-47957.0423638310,-86044.9388407548,-75697.6146364026,-88239.9791799167,-75897.1161935116,-73007.7140674517,-85963.9993214886,-73915.0592195385,-82206.9430703783,-80870.2485681972,-47994.9204040409
2205642614,6843,-2,0,-28720.8262640215,-38171.6467341560,-42579.1272189367,-33107.6703349904,-69829.8766882039,-47982.4485147973,-86047.6279017526,-75699.0625923246,-88235.5014674858,-75907.4222327206,-73008.3224522928,-85964.5833709361,-73919.4639257884,-82207.6366290972,-80869.4576679037,-47992.9249017619
2205642614,6843,-2,0,-28724.7320947016,-38174.9563476919,-42584.0308007563,-33107.4513164476,-69827.4796519298,-47991.9636537129,-86046.1191073466,-75706.1685272692,-88237.6916529140,-75915.1000494159,-73012.0701029143,-85970.2291822619,-73920.3643353533,-82213.3797819976,-80872.7551137427,-47997.7554774006
2205642614,6843,-2,0,-28730.5360860862,-38180.8698483478,-42584.7608625657,-33109.4589864234,-69817.9888484079,-47964.8661928882,-86041.9942581236,-75698.1013442756,-88238.1905284837,-75904.7088363291,-73003.3336965954,-85961.9186453318,-73910.4963332299,-82216.2878615383,-80867.8636996199,-47999.1304271416
2205642614,6843,-2,0,-28735.9263757787,-38183.3155554092,-42580.2953178317,-33110.0308681740,-69802.6088796237,-47923.5568621743,-86029.9360705721,-75678.9615571731,-88236.3410385666,-75893.7700768853,-72990.4359379631,-85946.4169995794,-73900.7378403779,-82215.5212966385,-80859.3098087533,-47998.0596698212
2205642614,6843,-2,0,-28739.7957033684,-38186.7590136101,-42584.7365271720,-33111.9046934848,-69818.5120593713,-47952.5159806129,-86040.1569359034,-75691.8958188959,-88242.9602656383,-75908.2861391951,-73000.7906479594,-85959.8866399624,-73912.8325310199,-82227.7498319455,-80867.6325133802,-48002.2696929219
2205682676,6844,-2,0,-28743.6163601708,-38189.5940869699,-42593.8988028797,-33115.9930396173,-69846.5829359418,-48010.4342174901,-86054.5756566385,-75718.5065718476,-88250.8327654827,-75931.2100800095,-73018.7014976828,-85981.7519911532,-73926.4846868552,-82239.8080194971,-80879.4595146921,-48008.4752183016
2205682676,6844,-2,0,-28745.0521483959,-38190.7135150776,-42600.2746760149,-33117.3436539646,-69850.1237357173,-48012.9772661261,-86051.3390492836,-75721.7553468994,-88249.8350143433,-75930.0054780240,-73015.0390209391,-85978.0043405318,-73919.3179134265,-82237.1797969833,-80876.5879382419,-48004.9830893134
2205682676,6844,-2,0,-28745.5510239657,-38190.9447013172,-42595.4197649826,-33117.0516292409,-69833.0889601652,-47977.1068958921,-86040.7288176540,-75708.4925573624,-88243.4834766017,-75910.8170201342,-73003.9055783461,-85965.4837805010,-73905.2398882024,-82229.8548434959,-80869.3481586323,-47999.6658058018
2205682676,6844,-2,0,-28748.5929481714,-38191.8694462758,-42591.3679219406,-33119.1079700040,-69818.4633885840,-47941.1026809930,-86035.5940495947,-75700.1576850386,-88238.6042301757,-75897.5055598099,-72996.8118110983,-85954.6301949349,-73899.1195367004,-82221.2279464484,-80868.2287305246,-47996.6482169897
2205682676,6844,-2,0,-28752.4379403675,-38194.9113704815,-42591.1245680041,-33120.6045967132,-69820.3128785011,-47938.7056447189,-86037.4313718150,-75704.4650497140,-88241.9138437115,-75903.3703896786,-72998.8438164678,-85954.6423626317,-73908.4764955573,-82220.9480894215,-80872.1102258111,-47997.4026141927
2205682676,6844,-2,0,-28755.1513367590,-38198.0263008682,-42599.3742664500,-33121.5658447622,-69841.8862049682,-47980.0149754328,-86054.7338366972,-75727.2916489538,-88247.1216179518,-75922.9360461699,-73016.1462813500,-85974.3783668785,-73930.2810082640,-82229.1734524738,-80891.1040005517,-48009.4851371379
2205682676,6844,-2,0,-28757.1225036443,-38202.6013548736,-42605.2269286219,-33123.1963161365,-69850.3184188665,-48001.3936187507,-86065.5144160824,-75741.0289786669,-88250.8449331796,-75926.0023057693,-73026.2089666226,-85984.3680459702,-73937.9588249592,-82233.3469724841,-80898.8304880343,-48012.7825829769
2205682676,6844,-2,0,-28757.2320129157,-38202.7108641450,-42603.2557617366,-33123.2206515301,-69832.5049107177,-47955.5214017282,-86052.9086821738,-75715.4524799451,-88243.7755013254,-75901.3140489155,-73008.9065017403,-85963.1719181046,-73919.4274226979,-82225.9733482094,-80889.8020569916,-48008.9010876904
2205698517,6845,-2,0,-28757.5727084267,-38199.2065674600,-42595.8943051587,-33120.2395658085,-69810.9802550379,-47909.9655448231,-86037.2366886658,-75681.6141150805,-88232.7515680038,-75878.0250771964,-72991.8838938850,-85945.9546271001,-73904.5706648771,-82219.3662888345,-80873.1444800410,-47999.7023088923
2205698517,6845,-2,0,-28756.5992926809,-38194.7775258164,-42592.1344868404,-33118.2318958327,-69812.9879250137,-47920.7096211177,-86039.5972218495,-75681.6506181710,-88231.8754938326,-75884.0845902142,-72995.3760228732,-85951.0163889785,-73909.2430604571,-82224.6470692557,-80876.1499011563,-48000.6027184572
2205698517,6845,-2,0,-28755.7962246906,-38190.3849872634,-42596.2836714570,-33117.5505048106,-69825.9343544333,-47958.6971705990,-86044.9145053611,-75694.3293582605,-88235.1121011875,-75910.5858338946,-73003.1998519304,-85961.6996267890,-73918.0646406537,-82229.7696696181,-80881.1264891569,-48006.4675483258
2205698517,6845,-2,0,-28756.9521558888,-38190.8838628331,-42603.3044325239,-33118.7916098866,-69835.6320088012,-47991.2579272972,-86052.4584773914,-75707.9936817926,-88242.0233529829,-75930.7233721366,-73012.2647860635,-85973.6483050691,-73920.6076892897,-82228.4433906644,-80883.2436684041,-48012.7947506738
2205698517,6845,-2,0,-28761.1013405054,-38194.0109609166,-42607.0764185390,-33123.8047009776,-69831.4949918814,-47988.9217295072,-86051.6797447947,-75712.0333571378,-88247.7665058834,-75931.2222477063,-73013.9195928314,-85976.6780615781,-73916.1299768589,-82224.0143490209,-80879.8732163841,-48017.5036493442
2205698517,6845,-2,0,-28766.7836549217,-38198.1114747459,-42605.8839842503,-33126.9804698484,-69815.1659427450,-47950.9828508132,-86040.0230912383,-75697.6754748868,-88248.2653814531,-75914.9662047509,-73003.2241873240,-85961.1155773415,-73902.4534856299,-82213.1485957580,-80868.5815937324,-48013.7803341164
2205698517,6845,-2,0,-28771.1153549907,-38202.1146470007,-42606.7113876343,-33129.0124752178,-69820.7874186772,-47952.9175146081,-86039.8770788764,-75699.4519586229,-88250.1392067638,-75912.6056715672,-73004.0394230112,-85961.2980927939,-73910.9952087996,-82221.4104619008,-80872.5847659872,-48017.1507861364
2205698517,6845,-2,0,-28773.8165836854,-38206.2516639205,-42613.1480992536,-33129.5113507876,-69847.1183146020,-48005.0317601007,-86057.1552083650,-75729.8225298930,-88255.8336888770,-75929.7134533003,-73018.1052805385,-85978.5032161015,-73929.2467540340,-82232.9941092762,-80885.6650400718,-48019.4869839264
2205737374,6846,-2,0,-28775.1915334264,-38209.9993145420,-42618.2220288288,-33130.8254620444,-69857.7042108380,-48030.8637804558,-86061.1462129229,-75743.9005551171,-88256.5272475959,-75936.2231711005,-73019.2733794335,-85977.6271419303,-73929.5631141514,-82239.2118023527,-80890.2522617741,-48018.4405619996
2205737374,6846,-2,0,-28775.3862165755,-38208.6000294073,-42613.8659933662,-33130.2170772033,-69845.6338555896,-48002.9875870345,-86052.1299495771,-75731.7328582942,-88248.5939092673,-75921.3785809766,-73006.1444345615,-85962.4175209016,-73914.7063563306,-82234.4907359854,-80884.3387611181,-48010.5072236710
2205737374,6846,-2,0,-28776.4204708055,-38209.9141406642,-42608.4513682800,-33131.3486730078,-69828.9762786390,-47967.3970738274,-86045.2065300849,-75713.4934807566,-88240.5875647578,-75902.2144584804,-72998.3814439885,-85954.9343873555,-73903.2322182266,-82229.4898125912,-80877.6951986528,-48004.9830893134
2205737374,6846,-2,0,-28778.0752775734,-38211.2039165274,-42604.1318359078,-33131.2269960396,-69823.4643119782,-47949.6322364659,-86039.5972218495,-75698.7218968135,-88233.6154744783,-75896.2887901277,-72994.4512779147,-85948.6923588853,-73900.5553249255,-82225.3527956714,-80876.3445843055,-48001.9533328045
2205737374,6846,-2,0,-28779.1460348938,-38207.3467566345,-42608.4392005831,-33129.6451954526,-69838.6982684006,-47980.4043417311,-86051.9352664280,-75707.3001230737,-88236.0490138429,-75911.7417650928,-73003.5527151382,-85959.6067829355,-73914.4873377878,-82230.9012654227,-80884.4604380864,-48006.6987345655
2205737374,6846,-2,0,-28781.4335618965,-38204.5116832748,-42616.2751973371,-33127.9052148069,-69860.5027811073,-48026.6902604456,-86067.2178936376,-75728.7274371789,-88242.7412470955,-75930.1028195986,-73019.7479196096,-85977.9921728349,-73922.7735393242,-82235.4519840344,-80889.5465353584,-48010.2638697346
2205737374,6846,-2,0,-28782.3339714614,-38202.3701686340,-42617.0904330242,-33127.6010223864,-69844.0398873058,-48004.0218412644,-86058.7126735583,-75721.8283530803,-88241.0621049339,-75919.7481096023,-73015.8299212326,-85970.6307162571,-73922.6883654465,-82243.7016824804,-80893.7808938527,-48013.5613155736
2205737374,6846,-2,0,-28782.4556484297,-38199.1457289759,-42610.1548458352,-33125.7150293788,-69826.0560314015,-47958.9161891418,-86049.9762672395,-75701.6543117479,-88233.9196668989,-75895.8507530420,-73000.2552692992,-85952.3791710227,-73911.2385627361,-82241.1464661476,-80883.6573700961,-48007.9033365509
2205759733,6847,-2,0,-28779.4015565271,-38198.5495118316,-42604.4481960252,-33124.4495889092,-69819.9113445059,-47952.9905207890,-86049.9397641490,-75695.1567616444,-88231.3644505660,-75894.8408342057,-73000.9366603213,-85954.0461454874,-73913.9154560371,-82245.5025016102,-80882.7569605312,-48004.9465862230
2205759733,6847,-2,0,-28777.7224143655,-38196.6635188240,-42603.9006496682,-33122.5392605080,-69831.6775073337,-47987.0965749837,-86057.2768853332,-75707.5069739197,-88235.5501382731,-75915.2460617778,-73007.9939244786,-85964.4738616647,-73925.0610663269,-82257.4755152840,-80891.9192362388,-48010.7749130012
2205759733,6847,-2,0,-28780.0099413683,-38198.5008410443,-42612.6613913807,-33124.4617566060,-69844.5874336629,-48021.0201137261,-86066.2931486790,-75722.9477811880,-88242.8385886701,-75935.8946432863,-73014.5158099757,-85972.7722308979,-73931.6802933986,-82264.4719409572,-80902.1157661765,-48017.5888232220
2205759733,6847,-2,0,-28780.6183262094,-38198.0993070491,-42616.1048495816,-33125.7393647725,-69845.5851848023,-48028.3815703040,-86067.6680984200,-75728.9707911154,-88245.3451342156,-75938.4620273160,-73018.8353423479,-85977.2499433287,-73928.1151582295,-82265.8103876077,-80905.9850937662,-48021.7136724450
2205759733,6847,-2,0,-28784.7431754324,-38199.2795736409,-42617.2242776893,-33129.2071583670,-69831.1664640672,-47989.6396236197,-86058.9073567075,-75718.2267148207,-88246.3185499614,-75922.2911582383,-73012.0579352175,-85970.4725361984,-73915.4242504432,-82264.2285870207,-80904.7926594775,-48023.6240008462
2205759733,6847,-2,0,-28788.4421552666,-38199.1700643695,-42615.2166077135,-33133.3320075900,-69826.1168698856,-47968.5530050255,-86055.5247369907,-75706.3875458120,-88247.3041334041,-75913.0315409560,-73009.9529236671,-85965.3499358359,-73915.2052319004,-82264.9099780428,-80903.9530883967,-48025.0354536776
2205759733,6847,-2,0,-28787.7242611540,-38199.0362197045,-42617.1391038115,-33133.3441752868,-69836.8001076962,-48009.5459756220,-86067.1327197598,-75724.9067803765,-88250.0418651893,-75928.2898327720,-73021.7555895854,-85981.5573080041,-73928.4193506501,-82268.6819640579,-80908.2604530720,-48024.5609135015
2205759733,6847,-2,0,-28777.9049298179,-38190.2998133856,-42613.0994284663,-33124.5834335743,-69853.3846784659,-48052.5831192848,-86068.5563402881,-75740.8586309114,-88248.3870584213,-75941.7108023677,-73023.4955702310,-85986.0715235254,-73930.8042192274,-82267.1123311677,-80906.6178140009,-48017.8078417648
2205792171,6848,-2,0,-28771.2248642621,-38186.6495043387,-42608.9867469402,-33119.5825101801,-69848.6027736144,-48043.5790236358,-86061.1583806197,-75742.5742761634,-88243.0819426065,-75938.2673441668,-73012.4473015158,-85970.3265238365,-73920.4495092310,-82264.5936179254,-80899.9377484452,-48013.2084523657
2205792171,6848,-2,0,-28772.4903047317,-38185.4570700501,-42605.1052516537,-33118.2562312263,-69834.4395745125,-48010.5802298520,-86056.3034695874,-75736.3809184805,-88243.4469735112,-75931.7332909729,-73007.2516949724,-85962.7338810190,-73914.8767040861,-82268.0127407326,-80897.4433705964,-48013.3909678181
2205792171,6848,-2,0,-28781.2145433537,-38191.9302847599,-42607.7091387738,-33125.8488740439,-69825.3746403794,-47986.8897241377,-86058.7491766488,-75734.5435962603,-88245.5398173648,-75958.9037579785,-73010.5126377210,-85964.2548431218,-73917.3224111475,-82275.3741973105,-80900.1080962007,-48019.8276794374
2205792171,6848,-2,0,-28783.9887782294,-38194.3759918213,-42610.7632306763,-33128.6231089195,-69844.8551229930,-47997.7554774006,-86065.4535775983,-75738.2304083976,-88247.9125182452,-75990.2355772976,-73016.2436229246,-85970.8619024967,-73929.1007416722,-82277.2601903181,-80905.1211872917,-48022.1760449243
2205792171,6848,-2,0,-28782.0784498282,-38195.6657676845,-42615.3261169849,-33130.1440710224,-69865.6132137729,-48039.6366898652,-86082.4396823631,-75756.6888044780,-88249.7011696782,-76000.2252563892,-73031.7209332834,-85988.6267398582,-73942.3635312092,-82273.7437259362,-80905.4132120155,-48021.1052876038
2205792171,6848,-2,0,-28778.1847868448,-38194.1204701880,-42612.2598573855,-33124.1453964887,-69862.3766064180,-48038.2860755178,-86082.0989868520,-75752.6491291328,-88245.8196743917,-75973.0791247772,-73026.8538545542,-85982.5550591435,-73935.3062670519,-82255.8937146970,-80903.0526788318,-48018.8664313884
2205792171,6848,-2,0,-28777.4303896418,-38192.9037005057,-42605.8353134630,-33119.1566407912,-69833.8555250650,-47975.6467722733,-86059.3575614900,-75718.5187395445,-88231.9485000135,-75920.3199913530,-73001.1800142578,-85953.7662884605,-73912.3823262374,-82230.9377685131,-80886.6749589081,-48007.8181626732
2205792171,6848,-2,0,-28773.9869314409,-38189.3872361239,-42595.2007464398,-33115.6036733189,-69807.0987597514,-47929.8840645222,-86041.3980409793,-75686.6028707779,-88221.5086161395,-75887.4915453247,-72986.8586350972,-85938.9460337301,-73902.5264918108,-82214.9615825846,-80874.1909019678,-47998.8262347210
2205820927,6849,-2,0,-28770.8963364479,-38187.9514478988,-42592.9618902244,-33114.2895620621,-69821.0307726137,-47944.7894931303,-86047.5670632685,-75690.4600306708,-88217.0674067991,-75887.7714023516,-72990.1925840266,-85942.7301874421,-73907.7586014447,-82213.2581050294,-80875.7361994643,-47998.1326760021
2205820927,6849,-2,0,-28770.9693426288,-38185.9194425293,-42597.6951242885,-33112.2332212990,-69833.5148295540,-47969.5507561650,-86054.9771906337,-75698.6975614199,-88220.2310079731,-75902.8350110184,-72996.1060846826,-85951.7829538783,-73919.7802859058,-82221.9945113483,-80880.1165703206,-48003.4986303010
2205820927,6849,-2,0,-28773.7192421108,-38188.8031866764,-42604.9227362013,-33114.3869036367,-69839.3796594226,-47984.0059799907,-86061.4990761308,-75706.5335581739,-88223.3581060565,-75911.2307218262,-73001.7883990989,-85958.8402180356,-73924.4891845762,-82229.8670111927,-80881.2116630346,-48009.3634601697
2205820927,6849,-2,0,-28776.1771168690,-38189.7035962413,-42604.5090345093,-33117.2706477837,-69824.9731063843,-47954.9860230680,-86053.8090917387,-75696.6047175664,-88223.2607644820,-75899.6957452381,-72993.9889054354,-85950.2619917755,-73914.5360085751,-82234.2717174426,-80876.2472427309,-48010.7749130012
2205820927,6849,-2,0,-28775.5200612406,-38188.9613667351,-42597.6586211980,-33115.7010148935,-69806.4173687293,-47911.7176931656,-86038.2709428958,-75672.3058270109,-88220.0606602175,-75881.9187401798,-72979.2294891892,-85933.5557440376,-73902.2344670871,-82230.3415513688,-80868.1070535563,-48006.6865668686
2205820927,6849,-2,0,-28770.7138209955,-38183.6319155266,-42590.7108663121,-33111.0529547072,-69808.5345479765,-47926.5744509864,-86041.8847488522,-75676.9660548941,-88219.4401076796,-75888.3676194959,-72985.2159960261,-85941.0753806741,-73909.1213834889,-82233.2131278190,-80875.0061376549,-48008.0493489128
2205820927,6849,-2,0,-28771.3830443208,-38187.0510383339,-42600.8708931593,-33115.3116485952,-69837.2259770850,-47986.9992334091,-86061.9857840037,-75707.8841725212,-88228.6388864777,-75914.1144659733,-73007.9817567818,-85966.8343948483,-73928.3828475596,-82243.1419684265,-80888.6582934903,-48017.2724631046
2205820927,6849,-2,0,-28772.6241493967,-38187.2213860894,-42608.7677283974,-33121.3711616130,-69847.4103393258,-48007.7573241891,-86070.6126810512,-75720.7940988504,-88235.9638399651,-75923.9946357935,-73012.5446430904,-85972.0421690885,-73927.2147486646,-82241.0247891794,-80887.4050207175,-48021.1782937848
2205862343,6850,-2,0,-28777.1870357053,-38187.6594231750,-42610.5320444367,-33125.8732094375,-69840.8519507382,-47988.1308292137,-86066.2688132854,-75715.0144428595,-88237.8254975790,-75914.6985154208,-73006.9840056423,-85966.4693639436,-73923.9538059160,-82242.4727451013,-80891.9192362388,-48024.9867828904
2205862343,6850,-2,0,-28773.2447019347,-38181.9892764555,-42602.1971721130,-33123.1476453492,-69827.2849687806,-47962.3961504331,-86058.1286241108,-75702.5182182223,-88233.9318345957,-75899.5862359667,-72998.9046549519,-85956.6135295170,-73913.8546175530,-82237.1189584992,-80882.5014388979,-48018.6595805424
2205862343,6850,-2,0,-28766.7593195281,-38174.1776150952,-42595.8334666746,-33118.0737157740,-69823.0019394990,-47960.5831636065,-86052.3976389072,-75696.0936742998,-88228.1886816952,-75896.9823488466,-72993.8793961640,-85951.4787614578,-73909.9974576601,-82235.6466671836,-80879.0214776065,-48012.3810489818
2205862343,6850,-2,0,-28762.1112593417,-38172.2794543908,-42596.5148576967,-33116.6135921552,-69838.3089021022,-48011.4806394169,-86063.6284230748,-75720.4290679457,-88230.3545317297,-75915.0148755382,-73009.5878927624,-85967.9903260465,-73925.7302896522,-82246.0378802704,-80886.6262881209,-48015.8123394859
2205862343,6850,-2,0,-28764.2649416794,-38177.5602348120,-42604.8740654140,-33122.2594034811,-69847.3616685385,-48052.3641007420,-86072.5716802397,-75744.0830705695,-88234.4672132559,-75928.6791990703,-73020.5996583872,-85981.5573080041,-73932.6293737508,-82257.6093599490,-80894.3162725130,-48017.5036493442
2205862343,6850,-2,0,-28765.4817113617,-38179.0325261276,-42602.2701782939,-33122.0282172415,-69837.3841571437,-48025.2666399173,-86064.9790374221,-75738.6197746960,-88230.2693578520,-75912.0946283006,-73007.4342104248,-85964.0479922759,-73918.1376468347,-82257.9257200664,-80889.0111566982,-48014.2792096862
2205862343,6850,-2,0,-28768.1707723595,-38179.1542030958,-42597.3665964743,-33120.7627767719,-69819.3151273616,-47983.9451415066,-86051.9230987311,-75718.6647519063,-88224.5018695579,-75890.9958420097,-72993.4778621688,-85948.0353032569,-73907.0650427258,-82256.8427950492,-80881.8200478758,-48008.6090629667
2205862343,6850,-2,0,-28770.6043117241,-38180.4804820495,-42596.2715037602,-33122.9042914127,-69825.7275035873,-47993.9591559918,-86057.7635932062,-75724.7242649242,-88225.6699684529,-75894.8286665089,-73000.6446355976,-85955.1534058983,-73914.4630023941,-82260.6999549420,-80884.8741397783,-48008.8159138127
2205875455,6851,-2,0,-28773.2203665411,-38184.1307910964,-42603.6207926413,-33125.1796507186,-69845.5486817119,-48030.4744141575,-86069.5297560339,-75741.7590404763,-88229.5757991331,-75912.6421746577,-73011.0358486843,-85967.2724319339,-73926.4481837647,-82261.1501597245,-80891.8705654515,-48012.3688812850
2205875455,6851,-2,0,-28771.2005288684,-38183.0356983823,-42607.3076047786,-33122.8799560191,-69856.6699566080,-48054.4082738082,-86076.6113555849,-75751.4445271474,-88229.7948176759,-75922.8508722921,-73016.2192875309,-85973.0155848344,-73931.6681257018,-82257.9987262474,-80893.1846767084,-48012.2228689231
2205875455,6851,-2,0,-28772.9526772109,-38185.5665793215,-42608.9259084561,-33126.0070541026,-69853.2873368913,-48040.5249317332,-86078.5216839861,-75750.2520928587,-88230.1598485806,-75914.3334845161,-73015.8907597167,-85972.3098584186,-73926.8010469726,-82253.7765354498,-80890.6659634661,-48010.6410683361
2205875455,6851,-2,0,-28772.8066648491,-38185.3110576882,-42603.0732462842,-33126.8101220929,-69835.4008225615,-47988.8973941135,-86065.2467267523,-75727.4376613157,-88224.3436894992,-75887.5888868992,-73001.9222437640,-85955.1412382015,-73915.4485858368,-82245.7458555467,-80882.8299667121,-48008.1831935779
2205875455,6851,-2,0,-28770.4948024527,-38181.8310963968,-42597.5369442298,-33125.9218802248,-69830.9109424339,-47971.8261154709,-86063.4215722288,-75713.9923563263,-88221.3139329903,-75877.8547294409,-72998.7464748932,-85950.8095381325,-73918.8798763409,-82241.9738695315,-80879.7272040222,-48005.5549710641
2205875455,6851,-2,0,-28765.6398914204,-38178.5458182546,-42596.3080068507,-33123.4275023761,-69851.2431638250,-48015.1917869479,-86076.9763864896,-75729.0803003868,-88222.1170009806,-75893.7457414917,-73014.2481206456,-85970.1075052937,-73932.7753861127,-82249.5300092586,-80891.0188266739,-48011.6023163851
2205875455,6851,-2,0,-28762.9386627257,-38181.3930593112,-42601.0899117021,-33123.2206515301,-69861.1720044325,-48042.5812724963,-86083.2549180502,-75740.0920660115,-88222.2630133425,-75904.3924762117,-73017.3995541227,-85974.9502486292,-73936.9489061229,-82250.1870648870,-80894.2432663320,-48015.3377993098
2205875455,6851,-2,0,-28764.3014447698,-38183.4372323775,-42600.2381729245,-33122.2594034811,-69848.3959227684,-48021.2634676625,-86075.1877350566,-75730.7959456388,-88219.1115798653,-75896.2522870372,-73010.2814514813,-85964.3521846964,-73928.8573877357,-82247.1938114686,-80890.3252679550,-48015.5446501558
2205906629,6852,-2,0,-28769.5822251910,-38188.8396897668,-42598.4130184010,-33124.9971352663,-69836.4715798820,-47994.5918762266,-86071.1845628018,-75720.6359187917,-88219.3184307113,-75886.0192540091,-73004.3192800381,-85959.2174166371,-73921.3012480086,-82246.5610912338,-80890.2644294709,-48017.7713386743
2205906629,6852,-2,0,-28772.0522676460,-38190.7500181681,-42598.5833661566,-33125.6785262883,-69834.8046054172,-47979.9419692518,-86068.7145203468,-75711.6074877490,-88221.4842807458,-75884.5956334808,-73003.5648828351,-85955.9443061918,-73922.3841730259,-82246.9626252289,-80891.9800747229,-48021.7988463227
2205906629,6852,-2,0,-28773.1230249665,-38189.6062546667,-42602.4770291399,-33122.8312852318,-69848.5541028271,-48009.0836031428,-86075.3580828121,-75717.5331561018,-88223.8083108390,-75898.3572985876,-73007.9574213881,-85964.6563771170,-73932.0453243033,-82248.4957550286,-80895.5452098921,-48025.3396460982
2205906629,6852,-2,0,-28768.9130018657,-38183.8874371599,-42606.6140460597,-33116.7231014267,-69863.3378544670,-48054.8463108939,-86082.8777194487,-75730.8932872134,-88225.5969622720,-75912.2163052689,-73019.7479196096,-85978.0408436222,-73937.9101541720,-82249.2988230190,-80899.3658666945,-48026.1670494822
2205906629,6852,-2,0,-28767.6840644866,-38176.1852850710,-42605.5432887393,-33113.7420157050,-69849.4910154825,-48044.7471225308,-86074.3846670663,-75724.5539171687,-88220.9610697824,-75905.8769352241,-73008.0060921754,-85967.5522889609,-73923.7834581605,-82244.9792906468,-80893.7687261559,-48021.1296229975
2205906629,6852,-2,0,-28766.3334501393,-38173.9220934619,-42599.7879681420,-33112.7077614751,-69818.8284194887,-47989.4571081674,-86054.7338366972,-75700.2428589164,-88213.3440915713,-75884.9484966887,-72988.1605786572,-85948.1691479219,-73907.0407073322,-82236.7417598977,-80879.8123779000,-48015.5203147621
2205906629,6852,-2,0,-28768.0490953913,-38174.1654473984,-42596.9528947823,-33118.6577652215,-69820.3007108043,-47981.9009684403,-86056.0601156509,-75696.8237361092,-88213.9889795029,-75885.4108691679,-72989.6207022760,-85947.9622970759,-73908.7563525842,-82236.6322506263,-80881.0534829759,-48014.3887189576
2205906629,6852,-2,0,-28768.3289524182,-38176.0027696187,-42600.3720175895,-33119.2904854563,-69832.9794508938,-48010.7262422139,-86065.1128820872,-75710.8652582428,-88218.4423565401,-75903.3582219818,-72999.7685614263,-85961.2007512193,-73921.7392850943,-82240.8666091207,-80886.1274125511,-48017.5036493442
2205984726,6853,-2,0,-28765.6520591172,-38177.4872286310,-42606.0664997027,-33120.4585843513,-69848.0917303479,-48040.7196148824,-86073.0948912031,-75724.3470663227,-88222.1170009806,-75917.1563901790,-73006.9596702487,-85968.9394063987,-73930.4635237163,-82245.6728493657,-80890.1670878963,-48020.4360642786
2205984726,6853,-2,0,-28766.9783380709,-38177.5358994183,-42609.0110823338,-33121.2859877353,-69852.9588090770,-48045.2216627069,-86077.2319081229,-75730.2118961913,-88223.7109692644,-75914.0657951860,-73011.3522088017,-85971.8596536362,-73929.0642385817,-82249.8463693760,-80890.7633050407,-48021.3973123276
2205984726,6853,-2,0,-28767.4528782470,-38176.7936699121,-42606.2125120645,-33120.7506090751,-69835.6806795885,-48004.0705120517,-86066.5243349187,-75716.7422558083,-88218.6978781734,-75893.4050459806,-72998.0529161743,-85958.2805039818,-73916.3611630985,-82245.4903339134,-80882.0025633281,-48019.2314622931
2205984726,6853,-2,0,-28769.8255791274,-38174.4331367285,-42603.7181342158,-33120.9452922242,-69824.8149263256,-47969.6480977396,-86058.7126735583,-75701.5204670828,-88217.2985930387,-75883.2936899207,-72991.1173289852,-85949.1425636677,-73912.5040032057,-82245.1009676150,-80877.7317017433,-48019.4018100486
2205984726,6853,-2,0,-28772.1861123111,-38173.4232178922,-42604.6428791744,-33117.9277034121,-69830.3633960768,-48001.0407555428,-86064.8938635444,-75708.6629051179,-88220.5108650000,-75901.8859306662,-73003.1268457494,-85964.4373585742,-73926.2778360092,-82251.9878840168,-80888.5852873094,-48022.0422002592
2205984726,6853,-2,0,-28771.9427583746,-38172.3524605718,-42610.4225351653,-33117.0394615441,-69853.2143307103,-48051.3785172993,-86082.7803778741,-75731.4895043577,-88225.9863285703,-75925.7954549233,-73018.6406591987,-85977.5906388398,-73937.8493156878,-82257.1226520761,-80897.6623891393,-48025.8993601521
2205984726,6853,-2,0,-28773.1960311474,-38178.3998058928,-42613.5983040361,-33118.2197281359,-69857.2783414492,-48050.3929338567,-86081.8434652188,-75733.2781557907,-88227.9453277588,-75921.5002579448,-73014.8443377899,-85972.0421690885,-73935.1359192963,-82255.3705037336,-80896.5429610315,-48026.6415896583
2205984726,6853,-2,0,-28770.8720010542,-38181.6364132477,-42607.0885862358,-33119.2661500626,-69845.6216878928,-48014.3522158671,-86075.1512319661,-75724.1645508703,-88224.1976771373,-75894.7799957216,-73006.0470929869,-85961.4076020653,-73926.5941961266,-82248.8972890238,-80890.1670878963,-48024.2445533842
2205988543,6854,-2,0,-28771.5168889858,-38179.0690292180,-42604.0831651205,-33121.5658447622,-69840.9736277065,-47987.5467797662,-86069.8217807577,-75720.7210926694,-88220.0606602175,-75874.3504327559,-73000.2674369960,-85955.7374553458,-73923.4427626495,-82246.0500479672,-80883.6208670056,-48022.2977218925
2205988543,6854,-2,0,-28770.8354979638,-38173.2163670462,-42606.5410398788,-33122.6122666890,-69853.5550262214,-48001.1380971174,-86075.3824182058,-75730.1388900104,-88222.6158765503,-75880.3369395928,-73005.1588511189,-85961.2250866129,-73931.8749765478,-82246.5245881433,-80884.7889659006,-48023.6361685430
2205988543,6854,-2,0,-28770.7989948733,-38166.6579784586,-42609.9114918987,-33126.4207557945,-69874.3009493045,-48060.7598115498,-86093.9259881639,-75753.3670232454,-88228.4442033285,-75909.0405363981,-73025.2598862704,-85985.7186603175,-73948.2891995619,-82251.7566977772,-80891.5663730310,-48028.1138809738
2205988543,6854,-2,0,-28770.3974608781,-38163.7864020084,-42615.6911478896,-33125.4230046551,-69875.8949175883,-48090.9113642771,-86098.2698559297,-75761.1421815152,-88230.5978856662,-75928.6913667671,-73032.9133675720,-85996.0125318297,-73946.8290759432,-82246.6219297179,-80887.7213808349,-48027.2986452867
2205988543,6854,-2,0,-28766.9296672836,-38158.5177892841,-42611.0430877032,-33117.8303618375,-69846.2909112181,-48048.8476363601,-86077.8159575704,-75732.7062740400,-88224.5140372547,-75914.6011738462,-73013.4085495648,-85974.7555654800,-73925.7424573490,-82227.8106704296,-80870.4067482559,-48017.4914816474
2205988543,6854,-2,0,-28763.6808922319,-38157.8850690493,-42603.0002401033,-33112.1115443308,-69827.0659502378,-48017.3211338919,-86065.7821054125,-75714.8319274071,-88221.2044237189,-75898.1747831352,-73001.7153929180,-85962.9285641681,-73916.9452125460,-82219.6826489519,-80861.9015281766,-48009.7771618617
2205988543,6854,-2,0,-28764.0580908334,-38162.8616570499,-42605.5797918297,-33111.5396625801,-69835.8388596472,-48030.2797310083,-86066.4391610409,-75728.2285616092,-88224.9034035531,-75895.0841881422,-73006.0470929869,-85967.0777487848,-73924.5013522731,-82226.3870499014,-80868.2774013119,-48010.3855467028
2205988543,6854,-2,0,-28768.5966417483,-38175.0293538728,-42615.3991231659,-33121.4198324003,-69859.2495083345,-48068.7174852720,-86080.7848755952,-75756.1169227274,-88236.4262124444,-75910.1356291122,-73016.1706167436,-85976.0331736464,-73939.8083148763,-82240.3190627636,-80882.3432588392,-48020.8984367578
2206036143,6855,1,0,-28770.2271131226,-38177.7792533548,-42619.3901277238,-33122.6852728699,-69876.3572900676,-48096.3503247569,-86088.6573754396,-75770.7789973990,-88246.3550530519,-75921.4880902480,-73022.3883098202,-85982.8105807768,-73943.4829593169,-82247.2303145591,-80888.2202564047,-48026.0332048171
2206036143,6855,1,0,-28775.4713904533,-38183.4980708616,-42621.8601701788,-33127.3820038436,-69871.5875529130,-48084.6206650196,-86086.5766992829,-75764.2084411146,-88252.5240753411,-75919.1518924580,-73020.2467951793,-85979.2819486982,-73937.6059617514,-82246.2934019037,-80885.3000091672,-48028.0773778834
2206036143,6855,1,0,-28782.8571824248,-38187.8906094147,-42621.8480024820,-33133.6483677074,-69848.6149413113,-48039.7705345302,-86076.4775109198,-75740.6274446718,-88256.4664091118,-75915.4529126238,-73013.1043571443,-85971.0079148586,-73925.4504326253,-82241.8035217760,-80878.8511298510,-48030.9246189399
2206036143,6855,1,0,-28788.2718075110,-38192.8793651121,-42631.4361475785,-33142.1535877866,-69872.3906209033,-48056.0022420920,-86095.2522671176,-75754.7419729864,-88267.5511809175,-75932.1834957553,-73028.5573321094,-85988.2373735599,-73947.5834731462,-82244.1275518692,-80884.8741397783,-48040.5249317332
2206036143,6855,1,0,-28787.8702735159,-38193.7432715865,-42632.6042464735,-33141.0706627694,-69896.7746853365,-48101.5702666939,-86111.0459375938,-75775.9624362456,-88270.0455587662,-75947.2592721190,-73043.5966053825,-86007.3649929655,-73960.1527039643,-82237.1311261960,-80889.4370260869,-48039.2229881732
2206036143,6855,1,0,-28772.1496092206,-38180.4318112622,-42617.3824577480,-33126.1287310708,-69890.0581166902,-48093.8194438177,-86097.4424525458,-75765.1453537700,-88256.6367568673,-75930.0906519018,-73029.9931203345,-85992.9462722303,-73948.2770318651,-82218.4780469664,-80876.4784289705,-48024.9867828904
2206036143,6855,1,0,-28762.1720978258,-38174.3236274571,-42600.1773344404,-33118.1102188645,-69872.7434841112,-48055.3208510699,-86081.8799683092,-75743.2313317919,-88246.3063822646,-75906.3028046129,-73015.1850333010,-85974.9502486292,-73934.4301928806,-82208.7438895081,-80865.1868063188,-48017.9903572172
2206036143,6855,1,0,-28763.0968427844,-38177.4507255406,-42593.5946104591,-33120.4342489577,-69859.8457254788,-48019.0124437503,-86073.2774066554,-75723.3979859705,-88245.0896125823,-75889.1585197894,-73004.8303233046,-85964.3765200901,-73927.0200655154,-82209.1575912001,-80859.2368025724,-48014.4495574417
2206063475,6856,1,0,-28772.2469507952,-38180.4318112622,-42601.2237563671,-33125.0944768408,-69857.9110616840,-48010.2760374314,-86067.8019430851,-75710.9991029079,-88247.2432949200,-75892.4924687189,-73000.5716294166,-85958.9253919134,-73928.2733382882,-82210.2161808237,-80855.8298474620,-48013.4518063022
2206063475,6856,1,0,-28784.8405170070,-38191.3827384028,-42622.3590457486,-33136.9579812432,-69880.2022822636,-48054.4326092019,-86086.6010346765,-75733.9717145096,-88257.3789863735,-75921.9504627272,-73016.4018029833,-85977.2986141160,-73950.8565835916,-82227.6281549773,-80872.5847659872,-48024.8407705285
2206063475,6856,1,0,-28787.9797827873,-38193.0253774739,-42632.1418739942,-33138.6736264952,-69880.5308100778,-48085.3628945258,-86092.5267030293,-75750.8483100030,-88259.2163085938,-75938.2673441668,-73026.2576374099,-85986.4365544301,-73955.3099606288,-82231.9111842590,-80875.9065472198,-48026.9822851693
2206063475,6856,1,0,-28780.4479784539,-38190.1538010237,-42625.2306221988,-33130.6064435016,-69868.9714980960,-48052.0964114119,-86082.8533840551,-75731.7085229005,-88250.3825607003,-75916.9252039394,-73008.9551725276,-85969.1462572447,-73936.3405212818,-82219.3297857440,-80865.7586880695,-48021.1174553007
2206063475,6856,1,0,-28772.2469507952,-38185.7977655611,-42610.1670135320,-33124.1210610950,-69844.1615642741,-47998.8749055083,-86065.5509191728,-75705.9495087264,-88241.9990175893,-75888.4649610705,-72989.4990253077,-85947.9988001664,-73920.0236398422,-82212.8079002469,-80859.4923242057,-48018.9759406598
2206063475,6856,1,0,-28769.8134114306,-38185.6395855024,-42607.0520831453,-33126.9196313643,-69849.6978663285,-48004.1800213231,-86069.5540914276,-75708.9062590543,-88247.4136426755,-75886.8953281803,-72994.4026071274,-85956.0051446759,-73926.6185315203,-82212.0535030439,-80861.4634910910,-48022.8696036432
2206063475,6856,1,0,-28765.7980714791,-38181.1375376779,-42607.8551511356,-33122.6000989921,-69870.0179200228,-48041.4010059045,-86078.1931561719,-75724.4444078972,-88252.6214169157,-75907.0572018160,-73005.1831865125,-85966.0556622516,-73938.7618929496,-82213.6353036309,-80867.6568487739,-48028.0287070961
2206063475,6856,1,0,-28765.6277237235,-38178.3876381959,-42615.8006571610,-33123.1233099555,-69884.2419576088,-48076.5778174196,-86087.7326304811,-75741.7833758699,-88260.7251029998,-75927.1095661802,-73013.2503695061,-85977.0187570891,-73948.2040256842,-82217.1396003159,-80872.1953996888,-48032.5429226174
2206071076,6857,1,0,-28763.0603396939,-38174.8833415109,-42615.7276509801,-33120.4707520481,-69878.3771277402,-48079.9604371364,-86087.0147363685,-75745.4823557041,-88262.3312389804,-75931.7089555792,-73015.3188779660,-85978.4423776174,-73945.7461509259,-82218.0278421840,-80868.8492830625,-48032.0927178350
2206071076,6857,1,0,-28764.3379478603,-38175.0658569633,-42611.0430877032,-33119.1688084881,-69856.6334535176,-48041.3523351172,-86070.0773023910,-75728.8491141471,-88255.1888009454,-75912.9828701687,-73000.1457600278,-85961.0547388574,-73929.4779402737,-82216.1418491764,-80858.6649208217,-48025.2788076141
2206071076,6857,1,0,-28769.9594237925,-38179.6652463624,-42608.9624115465,-33120.8236152560,-69850.2210772919,-48029.2211413847,-86064.1151309477,-75726.4155747826,-88254.8602731311,-75907.2640526620,-73000.1579277246,-85958.1466593167,-73930.3175113544,-82223.1504425465,-80860.4779076484,-48024.1593795064
2206071076,6857,1,0,-28779.6570781604,-38198.7198595871,-42620.0106802618,-33132.2247471791,-69882.2342876331,-48083.0631998263,-86086.4793577083,-75767.1773591394,-88268.4880935728,-75924.8220391775,-73022.8506822994,-85982.5307237499,-73954.1296940369,-82240.1608827049,-80879.3743408144,-48032.3969102555
2206071076,6857,1,0,-28782.5651577011,-38204.7915403017,-42634.2103824541,-33140.1945885981,-69906.7886998217,-48129.0814292106,-86103.7696548937,-75792.4861685311,-88276.3849288109,-75934.1424949438,-73030.0539588186,-85990.0260249928,-73963.3649759255,-82249.2258168380,-80890.1184171090,-48039.7096960461
2206071076,6857,1,0,-28779.2555441652,-38196.5175064621,-42637.1306296916,-33140.4379425346,-69902.8950368384,-48126.2220204572,-86101.0075877149,-75784.3824824471,-88273.5255200575,-75923.7269464634,-73022.6925022407,-85982.9687608355,-73953.0832721102,-82250.9292943932,-80885.1418291085,-48042.4960986186
2206071076,6857,1,0,-28772.9161741205,-38179.5679047878,-42629.8908500820,-33135.1693298102,-69889.9607751156,-48110.4161822842,-86094.2058451909,-75774.1372817221,-88269.9725525852,-75916.5115022474,-73022.9236884804,-85984.3315428797,-73937.3504401181,-82244.5534212580,-80869.3116555418,-48036.4122502071
2206071076,6857,1,0,-28769.9350883989,-38166.8891646983,-42621.5438100614,-33129.9007170859,-69873.3397012555,-48099.4530874468,-86087.4041026668,-75768.0777687043,-88268.2082365459,-75928.4236774370,-73026.6105006177,-85992.6907505971,-73938.9322407051,-82236.6809214136,-80861.3539818196,-48031.1071343923
2206099734,6858,1,0,-28762.0747562512,-38159.8562359346,-42616.0440110975,-33123.9628810363,-69869.3365290007,-48134.3378742381,-86089.6916296696,-75776.3274671503,-88271.2501607516,-75963.2841288348,-73038.8755390152,-86004.2743979725,-73953.3266260466,-82237.0581200151,-80864.7852723237,-48026.9092789884
2206099734,6858,1,0,-28759.0936705296,-38162.5696323261,-42617.3824577480,-33121.4563354908,-69883.0130202297,-48195.8942524654,-86105.5948094171,-75804.6295299604,-88280.5706165180,-75989.7123663342,-73048.1229886007,-86015.0428096608,-73966.9787818820,-82245.5146693070,-80876.2715781245,-48027.5541669200
2206099734,6858,1,0,-28757.1346713411,-38167.6313942045,-42614.6082228724,-33120.5194228354,-69878.2554507719,-48191.3191984600,-86098.9390792550,-75807.8418019217,-88279.3051760484,-75969.3193064589,-73030.4676605106,-85995.0391160839,-73955.3099606288,-82252.0730578946,-80879.8367132937,-48023.4658207875
2206099734,6858,1,0,-28757.9255716346,-38176.8180053058,-42612.5883851998,-33122.0525526351,-69864.3721086970,-48128.2905289171,-86079.5802736097,-75788.3978223986,-88271.0433099057,-75919.7846126927,-73006.3512854075,-85963.7924706426,-73932.6050383572,-82251.4768407503,-80871.2219839430,-48014.8997622241
2206099734,6858,1,0,-28755.4433614827,-38180.4561466558,-42613.4157885837,-33122.1377265129,-69863.7272207653,-48099.1488950262,-86072.6568541174,-75784.9300288041,-88264.3389089562,-75890.6916495891,-73007.0691795201,-85964.0601599727,-73926.6793700044,-82255.5773545796,-80872.0858904174,-48012.4783905564
2206099734,6858,1,0,-28757.2685160062,-38184.7148405439,-42618.9155875477,-33126.0435571930,-69883.5362311931,-48125.7353125843,-86088.1584998699,-75801.6849473293,-88263.1708100612,-75901.9346014535,-73023.8971042262,-85981.9831773929,-73933.3472678634,-82262.4764386782,-80874.6897775375,-48013.8290049037
2206099734,6858,1,0,-28754.7498027638,-38182.9261891109,-42622.8457536215,-33125.5203462296,-69899.3177339724,-48158.4542493412,-86101.8349910988,-75811.8936449637,-88269.3885031377,-75934.2520042152,-73036.2959872888,-85996.6087489740,-73948.3743734397,-82276.0434206358,-80888.7191319744,-48027.2621421962
2206099734,6858,1,0,-28759.5560430089,-38184.0821203091,-42629.2946329377,-33130.2900833842,-69908.0906433818,-48168.2857483741,-86109.7439940338,-75810.3118443767,-88278.9279774469,-75957.9425099295,-73041.3699168639,-86002.9846221093,-73952.7790796896,-82275.0821725868,-80892.1625901753,-48035.7430268818
2206129799,6859,1,0,-28762.4397871559,-38180.0546126607,-42625.0359390496,-33128.7569535845,-69894.2803074878,-48125.7596479780,-86096.3595275285,-75783.1778804616,-88277.2001644981,-75942.2461810279,-73026.5861652241,-85984.3072074861,-73942.0106680013,-82259.3250052011,-80881.0169798855,-48032.5429226174
2206129799,6859,1,0,-28762.5979672146,-38176.7815022153,-42621.3247915186,-33126.9804698484,-69884.3514668802,-48080.5688219776,-86081.9164713997,-75753.4400294263,-88271.8342101991,-75912.3744853276,-73015.6960765675,-85969.6938036017,-73938.3481912576,-82241.7913540792,-80872.8524553173,-48030.3770725829
2206129799,6859,1,0,-28764.7881526428,-38178.4241412864,-42625.7416654654,-33130.1684064160,-69904.5498436063,-48101.4850928162,-86095.8484842620,-75760.3634489186,-88275.8738855444,-75907.9941144713,-73033.0350445402,-85988.8822614915,-73957.7556676902,-82242.6065897663,-80881.3455076997,-48035.0981389502
2206129799,6859,1,0,-28768.1464369659,-38183.4737354679,-42636.0842077649,-33133.1981629249,-69929.0069142204,-48140.6164057988,-86111.0581052906,-75779.6005775956,-88282.4322741319,-75920.7336930449,-73047.1739082485,-86008.8251165843,-73975.5813435358,-82251.8053685645,-80889.3761876028,-48042.9219680074
2206129799,6859,1,0,-28767.7570706676,-38186.6738397324,-42642.0098761176,-33134.2932556390,-69919.2970921557,-48128.5338828536,-86109.7926648211,-75777.0818643533,-88284.7563042251,-75929.3484223956,-73040.0071348198,-86001.9503678793,-73972.6975993887,-82260.6634518516,-80886.0179032797,-48043.7980421786
2206129799,6859,1,0,-28766.3212824424,-38185.8829394389,-42638.7367656723,-33132.2612502696,-69884.4001376675,-48079.1330337524,-86097.9169927219,-75756.7496429622,-88279.3903499262,-75925.8684611042,-73021.4757325584,-85984.5870645130,-73954.2513710052,-82258.5584403012,-80872.0493873270,-48037.6655229799
2206129799,6859,1,0,-28760.3226079087,-38181.1253699811,-42629.7326700233,-33130.4969342302,-69846.3639173990,-48030.5717557321,-86079.4585966415,-75735.2493226760,-88275.0099790699,-75919.2370663357,-73010.5491408114,-85970.3143561397,-73941.7916494585,-82252.9856351563,-80862.5707515019,-48032.3969102555
2206129799,6859,1,0,-28758.7286396249,-38179.3975570323,-42631.4483152753,-33133.4780199519,-69853.5671939182,-48036.3635794198,-86081.6244466759,-75729.3966605042,-88276.1050717840,-75921.8774565463,-73008.6996508943,-85969.9249898413,-73940.5992151698,-82244.9549552532,-80863.8605273651,-48033.6258476346
2206164724,6860,1,0,-28756.4776157127,-38179.7139171496,-42637.8363561074,-33133.4293491646,-69878.5839785862,-48088.8550235140,-86091.7601381295,-75747.0154855038,-88281.2641752369,-75934.1911657311,-73022.1327881869,-85985.8646726794,-73952.7425765991,-82241.2803108126,-80871.5140086668,-48037.7628645544
2206164724,6860,1,0,-28749.5541962204,-38178.5701536483,-42641.4501620638,-33131.7745423966,-69890.9098554678,-48113.9934851502,-86093.3541064133,-75754.5959606245,-88281.5196968702,-75930.7477075302,-73023.1427070232,-85989.2107893057,-73949.5181369410,-82231.1567870559,-80875.2494915914,-48037.6776906767
2206164724,6860,1,0,-28744.1639065279,-38174.0316027333,-42634.5754133588,-33126.5911035501,-69870.0057523260,-48068.1212681277,-86073.4720898046,-75732.1952307735,-88272.6251104926,-75910.0382875376,-73000.1822631183,-85964.1818369409,-73929.5631141514,-82212.8444033374,-80861.2323048514,-48032.5064195269
2206164724,6860,1,0,-28742.8132921805,-38172.8026653542,-42630.6209118914,-33126.6154389437,-69857.8380555030,-48033.7961953902,-86065.4414099014,-75718.6647519063,-88273.1848245465,-75902.4334770232,-72993.1249989610,-85954.5206856635,-73924.6351969381,-82208.8655664763,-80854.0655314227,-48032.1657240159
2206164724,6860,1,0,-28745.6605332371,-38176.6598252471,-42633.7845130653,-33131.6650331252,-69872.4514593874,-48060.1392590118,-86077.8646283577,-75734.9816333459,-88280.7652996672,-75923.0698908349,-73010.0380975449,-85974.0985098516,-73941.2441031014,-82223.2477841210,-80861.6095034529,-48037.4343367402
2206164724,6860,1,0,-28749.2865068903,-38180.4561466558,-42643.2144781031,-33137.7732169303,-69884.3879699707,-48097.0317157790,-86086.3333453464,-75749.8383911667,-88287.8712346118,-75946.4197010382,-73023.9822781040,-85989.0404415502,-73954.3243771861,-82238.7129267830,-80865.0164585633,-48042.1554031075
2206164724,6860,1,0,-28745.9525579608,-38178.7283337070,-42646.9377933309,-33137.8948938986,-69910.4876796559,-48126.6843929365,-86099.9855011818,-75768.4427996090,-88288.6499672084,-75948.0501724124,-73029.2752262219,-85993.7858433111,-73961.0409458324,-82254.2267402322,-80870.8204499478,-48040.0382238603
2206164724,6860,1,0,-28739.6618587034,-38170.7219891975,-42639.1382996674,-33130.8497974381,-69898.8918645837,-48107.8731336482,-86090.4946976599,-75758.1732634904,-88279.5728653785,-75922.4736736906,-73017.6794111497,-85981.6911526691,-73948.9949259777,-82258.9356389027,-80864.0308751206,-48029.7686877418
2206193509,6861,1,0,-28734.9894631234,-38163.2753587418,-42630.6087441945,-33124.1697318823,-69874.7998248742,-48062.0982582003,-86072.8028664793,-75735.3588319474,-88270.3497511867,-75893.4050459806,-73000.7784802626,-85961.3589312780,-73931.5951195208,-82256.7089503841,-80858.2512191298,-48024.2202179905
2206193509,6861,1,0,-28738.5545982925,-38164.4677930305,-42632.1053709038,-33126.2990788263,-69876.4302962485,-48072.0879372920,-86078.8867148908,-75735.8942106076,-88273.5011846639,-75900.9976887981,-73009.6243958529,-85968.7325555527,-73939.6136317272,-82260.6877872452,-80865.4666633458,-48028.0530424897
2206193509,6861,1,0,-28744.0178941660,-38169.4687164247,-42641.8881991494,-33131.5920269443,-69899.9869572977,-48132.1476888100,-86102.6502267860,-75763.6365593639,-88287.6765514626,-75937.6954624161,-73035.2495653620,-85997.5821647199,-73960.7732565023,-82268.7914733293,-80883.1584945263,-48040.0747269508
2206193509,6861,1,0,-28747.9602279366,-38170.7463245911,-42650.3447484413,-33136.7024596099,-69905.6084332299,-48156.3857408813,-86111.3866331049,-75770.5721465530,-88291.9595807443,-75956.1903615870,-73041.0778921402,-86004.2500625789,-73965.1536273585,-82266.6499586885,-80888.1594179205,-48042.5326017090
2206193509,6861,1,0,-28747.9845633303,-38169.0671824296,-42649.6146866320,-33135.0841559325,-69887.5759065383,-48127.0980946285,-86103.3194501112,-75748.1957520956,-88284.5737887728,-75940.4940326854,-73029.9444495472,-85989.9043480246,-73953.6794892545,-82255.0419759194,-80877.1354845990,-48036.0472193024
2206193509,6861,1,0,-28744.7722913690,-38166.2321090698,-42639.7831875990,-33133.0764859567,-69866.6718033965,-48083.9636093912,-86092.1130013373,-75722.1933839850,-88273.2334953338,-75911.9121128483,-73019.2368763430,-85977.4446264779,-73936.4256951596,-82239.5890009542,-80859.7235104453,-48024.4757396238
2206193509,6861,1,0,-28739.2481570114,-38160.0752544774,-42628.8200927616,-33128.2702457116,-69853.7983801578,-48056.7079685078,-86078.2296592623,-75696.8115684123,-88263.3776609072,-75894.5001386947,-73009.5635573688,-85966.3720223690,-73939.1877623384,-82242.0468757125,-80854.1385376036,-48019.4383131391
2206193509,6861,1,0,-28732.9574577539,-38155.0499956895,-42627.8101739253,-33123.4883408602,-69871.2833604924,-48089.4634083551,-86086.1143268036,-75701.9706718653,-88263.2438162421,-75905.5484074099,-73017.2170386704,-85976.5685523067,-73953.5821476799,-82251.8540393518,-80860.5387461325,-48022.8939390368
2206245249,6862,1,0,-28733.4928364141,-38159.6493850886,-42636.1085431585,-33127.4306746308,-69898.1496350775,-48139.8863439894,-86106.1788588646,-75725.3934882494,-88276.5796119601,-75932.4511850854,-73038.6686881693,-86001.5853369746,-73972.2473946063,-82274.0357506600,-80879.3500054207,-48036.9841319578
2206245249,6862,1,0,-28736.5712637103,-38163.7985697052,-42641.0729634623,-33130.3509218684,-69894.4506552433,-48121.7199726327,-86102.8814130256,-75717.8251808256,-88282.7851373398,-75933.4732716186,-73031.4775793469,-85993.2748000446,-73965.1901304490,-82280.0100898001,-80881.4550169711,-48041.5956890537
2206245249,6862,1,0,-28736.8146176468,-38160.7566454995,-42634.5389102683,-33129.9493878732,-69872.6826456270,-48065.2496916775,-86084.9218925150,-75687.0774109540,-88276.2389164490,-75912.3258145403,-73013.0921894474,-85972.3585292059,-73948.0215102318,-82269.2781812022,-80866.7199361185,-48034.0395493266
2206245249,6862,1,0,-28736.3887482580,-38159.9657452060,-42630.7060857691,-33126.8101220929,-69871.6727267907,-48052.8873117054,-86081.3810927395,-75676.1994899943,-88272.9901413973,-75903.8570975515,-73011.1088548653,-85969.9128221445,-73945.7948217132,-82259.1181543551,-80860.4900753452,-48030.6690973067
2206245249,6862,1,0,-28737.6298533339,-38159.2113480030,-42633.8818546399,-33126.2139049485,-69884.3149637898,-48077.9162640701,-86086.3333453464,-75683.1107417897,-88274.6692835589,-75910.1356291122,-73015.8055858389,-85977.6028065366,-73952.3288749072,-82258.2785832743,-80864.3959060253,-48032.7011026761
2206245249,6862,1,0,-28741.9980564934,-38164.0905944290,-42643.9688753061,-33129.2558291543,-69907.9689664136,-48110.0024805923,-86098.2941913234,-75697.9553319137,-88280.9234797259,-75924.4083374855,-73025.2598862704,-85986.3513805523,-73963.9611930699,-82260.5296071865,-80870.1755620162,-48039.3568328382
2206245249,6862,1,0,-28748.7997990174,-38170.7341568943,-42651.8778782410,-33136.5077764608,-69910.3173319004,-48116.7920554194,-86105.6434802044,-75707.0202660468,-88285.1456705234,-75926.1239827375,-73027.2797239430,-85990.9629376482,-73965.6038321410,-82259.2519990201,-80868.6180968229,-48041.8877137774
2206245249,6862,1,0,-28750.9413136582,-38172.9000069288,-42651.8292074537,-33137.5907014780,-69883.7430820391,-48071.3700431794,-86092.7335538753,-75689.1824225044,-88279.6458715595,-75909.1013748822,-73010.6829854765,-85972.1151752695,-73953.7524954354,-82248.6539350873,-80858.2147160393,-48034.7209403487
2206258561,6863,1,0,-28746.3419242592,-38168.2884498329,-42643.0319626508,-33134.9381435706,-69863.9705747018,-48038.6754418162,-86081.9043037029,-75670.5171755780,-88270.1429003408,-75897.8462553210,-72999.6712198517,-85958.2926716786,-73947.5104669653,-82239.0901253845,-80846.9109256908,-48028.0408747929
2206258561,6863,1,0,-28740.9638022634,-38162.5939677198,-42637.7755176233,-33132.7601258393,-69875.0188434170,-48072.1001049888,-86094.2301805845,-75684.8750578290,-88272.2235764975,-75913.2383918020,-73015.8785920199,-85976.6050553971,-73964.0585346445,-82243.0811299424,-80853.0434448895,-48031.3991591160
2206258561,6863,1,0,-28742.4117581854,-38162.3871168738,-42640.8052741322,-33134.5731126659,-69893.7449288276,-48109.6617850812,-86108.2351996277,-75705.7913286677,-88278.9644805374,-75931.0397322540,-73034.0936341638,-85994.5767436046,-73977.9662121131,-82256.1492363303,-80868.3990782801,-48042.2527446821
2206258561,6863,1,0,-28743.0201430265,-38164.2974452750,-42643.7133536728,-33135.9723978005,-69888.0626144112,-48099.5869321118,-86103.8791641651,-75699.2816108674,-88279.1226605961,-75925.2600762631,-73027.0363700065,-85987.6168210219,-73969.3028119752,-82254.5917711369,-80868.0583827690,-48040.0868946476
2206258561,6863,1,0,-28737.1674808547,-38157.4470319637,-42634.5024071779,-33128.1242333498,-69863.3500221638,-48068.1577712182,-86085.4937742656,-75675.6276082436,-88268.3907519982,-75905.3172211703,-73010.9993455939,-85972.4802061742,-73948.5933919825,-82241.0612922698,-80854.9781086844,-48026.8119374138
2206258561,6863,1,0,-28734.8921215488,-38151.7525498505,-42629.1607882726,-33124.0845580045,-69850.5861081966,-48049.2370026585,-86073.9587976775,-75659.0430374739,-88265.6530202131,-75899.9512668714,-73000.8514864436,-85961.6631236986,-73938.2386819862,-82240.1487150081,-80853.2989665228,-48022.8209328559
2206258561,6863,1,0,-28739.1264800432,-38152.5069470535,-42638.2743931930,-33128.4405934672,-69865.7592261348,-48076.4196373609,-86081.5514404950,-75666.1976432058,-88272.7832905513,-75918.1784767121,-73006.9475025518,-85968.4648662226,-73948.2770318651,-82249.2258168380,-80861.0376217022,-48028.1625517611
2206258561,6863,1,0,-28738.9317968940,-38151.5700343982,-42644.0418814871,-33127.0534760293,-69890.9828616487,-48129.1544353916,-86094.4613668241,-75690.8980677564,-88279.1591636866,-75938.8635613111,-73022.6559991503,-85985.9741819508,-73962.2455478178,-82258.7287880567,-80871.3071578208,-48031.9832085635
2206330985,6864,1,0,-28738.2139027814,-38151.4361897331,-42646.4267500644,-33128.1729041370,-69892.5524945389,-48129.8723295041,-86091.1760886820,-75697.9796673073,-88277.2610029822,-75929.9811426304,-73019.9547704556,-85984.1246920337,-73958.4370587123,-82262.7441280083,-80870.2242328035,-48027.6880115850
2206330985,6864,1,0,-28737.8367041799,-38149.6110352097,-42640.5740878925,-33127.7348670514,-69874.3009493045,-48079.8995986523,-86080.6510309301,-75679.6064451047,-88269.1938199886,-75905.0130287497,-73003.3701996859,-85965.3256004423,-73944.9917537229,-82265.9077291823,-80861.6460065433,-48023.1372929733
2206330985,6864,1,0,-28740.8542929920,-38148.5281101924,-42637.0697912075,-33129.1341521861,-69867.3410267218,-48060.4434514324,-86079.3125842796,-75671.0647219350,-88269.9725525852,-75896.2522870372,-73003.1876842335,-85965.3986066232,-73944.9430829356,-82274.5467939266,-80863.0939624653,-48024.0863733255
2206330985,6864,1,0,-28742.5577705472,-38149.1121596399,-42639.6493429340,-33131.7137039125,-69882.7940016869,-48091.7387676610,-86092.4171937579,-75683.8408035991,-88279.1591636866,-75915.1852232937,-73016.2922937119,-85977.7123158080,-73959.9458531183,-82282.7964923725,-80870.7352760701,-48033.1878105490
2206330985,6864,1,0,-28745.9282225672,-38152.7137978995,-42650.1013945049,-33135.7777146514,-69902.9923784130,-48135.9075071283,-86106.2518650456,-75701.6908148383,-88289.3191905337,-75943.1709259864,-73028.2409719920,-85989.6731617850,-73974.2550645821,-82282.6991507979,-80876.8312921784,-48040.1233977381
2206330985,6864,1,0,-28747.6803709097,-38154.8066417531,-42653.8490451264,-33139.1481666713,-69910.2929965067,-48157.6511813509,-86114.6475758534,-75714.2357102628,-88296.0722622704,-75953.0632635035,-73036.5393412252,-85997.7281770817,-73979.5236773064,-82280.5089653698,-80878.3644219781,-48043.2748312152
2206330985,6864,1,0,-28738.9317968940,-38149.9152276303,-42642.7764410175,-33134.3297587295,-69888.9630239761,-48117.7898065589,-86100.7277306880,-75695.1810970381,-88284.5616210759,-75927.1704046643,-73022.5829929693,-85981.3747925517,-73959.7511699691,-82265.4696920966,-80862.6802607733,-48031.1679728764
2206330985,6864,1,0,-28733.0669670253,-38146.4230986421,-42629.3676391186,-33127.5036808118,-69866.6596356997,-48060.6137991879,-86083.9119736787,-75667.9862946388,-88274.2190787764,-75898.0774415606,-73004.6478078523,-85959.9718138402,-73942.3148604219,-82259.3006698074,-80850.7802532805,-48024.8286028317
2206339964,6865,1,0,-28738.6884429575,-38152.6407917186,-42635.5366614078,-33133.8065477661,-69882.9278463520,-48073.7305763631,-86096.4690367999,-75677.6596136130,-88279.7675485277,-75906.4001461875,-73017.0953617022,-85974.6703916023,-73962.8539326590,-82275.0335017995,-80865.3084832871,-48032.4090779523
2206339964,6865,1,0,-28746.9746444940,-38158.6881370396,-42645.2829865630,-33138.5762849207,-69906.5696812789,-48117.9358189208,-86115.2316253009,-75699.6344740753,-88289.2948551401,-75928.3141681656,-73033.6312616846,-85995.5136562600,-73982.3709183630,-82290.7419983979,-80880.8344644331,-48040.5736025205
2206339964,6865,1,0,-28751.6227046803,-38159.3695280617,-42651.1599841285,-33138.6857941921,-69904.8783714205,-48119.9556565934,-86112.9684336918,-75695.8259849697,-88289.5017059861,-75932.3538435108,-73027.8029349064,-85987.2882932077,-73976.4330823134,-82289.3670486569,-80877.4031739291,-48039.6975283493
2206339964,6865,1,0,-28748.0210664207,-38151.7282144569,-42643.7620244601,-33131.0323128904,-69881.7597474569,-48083.3917276405,-86096.6272168586,-75669.5315921353,-88282.0064047431,-75916.0004589808,-73009.6487312465,-85969.6938036017,-73959.3253005803,-82274.1087568409,-80859.3584795406,-48028.6005888468
2206339964,6865,1,0,-28744.1152357406,-38145.8512168914,-42633.6750037939,-33125.0336383567,-69858.6289557965,-48048.9084748443,-86079.1909073113,-75642.9816776676,-88271.6516947468,-75895.8020822547,-72992.0664093374,-85952.4400095068,-73943.0449222312,-82260.4322656119,-80846.6067332702,-48018.5865743615
2206339964,6865,1,0,-28739.0169707718,-38140.5339333798,-42627.5059815047,-33120.8479506496,-69857.2296706619,-48038.9066280558,-86071.8294507335,-75631.3371918081,-88269.6805278615,-75893.1373566505,-72985.0456482705,-85945.0542175352,-73940.9399106809,-82254.9568020416,-80847.2516212018,-48015.9461841509
2206339964,6865,1,0,-28738.3112443560,-38142.5537710524,-42633.3829790702,-33123.2814900142,-69880.6038162588,-48074.8986752581,-86083.9241413755,-75646.1939496289,-88274.4502650161,-75909.5272442710,-72998.6126302281,-85962.1741669651,-73956.6970780666,-82261.1866628150,-80859.3828149343,-48021.6041631736
2206339964,6865,1,0,-28735.9142080819,-38142.8579634730,-42636.3153940045,-33124.8876259949,-69893.8544380990,-48097.2385666250,-86092.5023676357,-75663.9587869904,-88276.8959720775,-75918.5313399200,-73007.4585458184,-85972.3706969027,-73961.2477966784,-82265.2750089475,-80865.8073588568,-48026.0940433012
2206353810,6866,1,0,-28736.3887482580,-38145.7903784073,-42635.9381954030,-33126.6032712469,-69877.6592336276,-48055.7832235492,-86082.1841607298,-75648.5666505094,-88274.3650911383,-75902.0197753313,-72993.4535267752,-85956.1633247346,-73948.8732490094,-82261.9532277148,-80858.0565359806,-48024.9989505872
2206353810,6866,1,0,-28741.8277087379,-38148.8809734003,-42633.8210161558,-33130.0954002351,-69862.9241527750,-48018.9029344789,-86075.6014367486,-75629.3538572259,-88272.7346197640,-75888.0634270753,-72985.8365485640,-85946.0276332811,-73943.9209964025,-82259.9090546486,-80850.0015206838,-48023.4293176970
2206353810,6866,1,0,-28737.0701392801,-38143.0161435317,-42628.9661051234,-33128.6231089195,-69861.6587123054,-48025.5464969442,-86074.9322134233,-75624.5962877682,-88267.2956592842,-75888.7813211879,-72985.5931946276,-85945.7477762542,-73945.2472753562,-82253.0586413372,-80843.2606166439,-48017.2481277110
2206353810,6866,1,0,-28731.5095018320,-38137.9300462597,-42627.0436090254,-33123.8047009776,-69868.8376534310,-48056.7079685078,-86079.1057334336,-75631.8969058619,-88269.3520000473,-75904.6236624514,-72989.2800067649,-85952.9510527733,-73950.5280557774,-82256.0397270589,-80847.4706397446,-48019.8885179215
2206353810,6866,1,0,-28731.4851664384,-38137.5163445677,-42632.3365571434,-33123.9385456427,-69879.6182328161,-48086.5431611176,-86084.7880478499,-75644.6729875260,-88275.5453577301,-75917.6430980519,-72998.0042453870,-85963.9141476108,-73956.2712086778,-82261.1014889372,-80857.8131820441,-48023.9525286604
2206353810,6866,1,0,-28730.7916077195,-38136.0562209489,-42629.1972913631,-33124.8511229044,-69871.1981866146,-48076.4074696641,-86082.3301730917,-75644.1984473499,-88272.8197936418,-75908.4078161633,-72996.4832832841,-85960.6410371654,-73946.0868464370,-82261.6855383847,-80854.9659409876,-48021.0444491197
2206353810,6866,1,0,-28725.5594980856,-38131.9557071196,-42615.2409431072,-33116.7352691235,-69837.2503124786,-48016.4085566302,-86056.4008111620,-75617.1861604030,-88253.7530127202,-75873.2796754355,-72970.6634306258,-85931.0126954016,-73919.4639257884,-82247.3641592241,-80836.3858679389,-48002.2331898315
2206353810,6866,1,0,-28726.3503983791,-38131.2864837943,-42609.7046410527,-33114.0583758224,-69828.5990800375,-48007.1002685606,-86050.5238135965,-75610.8711257519,-88246.9025994089,-75867.7190379874,-72965.9910350458,-85927.0095231468,-73920.2183229914,-82246.6097620211,-80835.2056013471,-47998.7653962369
2206378531,6867,1,0,-28731.4121602574,-38135.3504945332,-42619.7064878412,-33119.1809761849,-69854.1634110625,-48065.0185054378,-86072.4986740587,-75642.0325973155,-88257.0626262561,-75891.1418543715,-72987.4426845447,-85950.4810103183,-73939.9664949350,-82257.5363537681,-80848.2250369477,-48005.8591634847
2206378531,6867,1,0,-28727.6523419391,-38130.9701236769,-42623.5271446436,-33118.5117528596,-69862.8511465941,-48092.0186246879,-86076.9885541864,-75655.9524424809,-88260.8954507553,-75904.9156871751,-72994.4756133083,-85955.6766168617,-73943.9209964025,-82260.8824703944,-80851.7171659358,-48007.9033365509
2206378531,6867,1,0,-28723.3693126575,-38124.4725735735,-42623.6731570055,-33116.2485612506,-69856.2319195224,-48078.3543011558,-86072.2066493350,-75649.9659356440,-88264.7282752545,-75900.3893039570,-72991.3120121344,-85950.7243642547,-73943.7749840406,-82268.6576286643,-80857.0466171443,-48014.8145883464
2206378531,6867,1,0,-28721.2643011071,-38116.9651046337,-42617.5893085940,-33115.2873132016,-69856.3535964906,-48059.1171724787,-86073.6667729537,-75642.4584667043,-88266.6021005653,-75887.5645515056,-72986.2015794687,-85946.0763040684,-73936.1093350422,-82270.6166278527,-80856.6937539364,-48012.8920922483
2206378531,6867,1,0,-28725.6690073570,-38118.1697066192,-42621.6046485456,-33119.0592992167,-69857.0714906032,-48050.1130768297,-86074.7862010614,-75641.2782001124,-88271.2501607516,-75890.0832647480,-72990.1560809362,-85948.4246695552,-73940.8547368031,-82278.1119290957,-80860.6239200102,-48019.9736917993
2206378531,6867,1,0,-28737.6785241212,-38125.6163370748,-42640.2577277751,-33126.5059296723,-69884.1932868215,-48090.5098302819,-86093.0255785990,-75661.9511170146,-88285.4133598536,-75915.6354280761,-73008.2981168992,-85967.9903260465,-73955.1761159637,-82289.1480301141,-80870.8691207351,-48030.1337186465
2206378531,6867,1,0,-28745.0034776087,-38131.8461978482,-42659.7138749950,-33132.8696351107,-69908.6868605261,-48138.9007605467,-86112.4938935157,-75689.7664719519,-88297.7757398257,-75938.7662197365,-73026.9025253415,-85989.2229570025,-73978.8301185875,-82305.0025390744,-80889.8872308694,-48042.9463034010
2206378531,6867,1,0,-28749.9313948219,-38133.9512093986,-42667.1483377538,-33132.3220887537,-69902.9558753225,-48123.3261086134,-86108.0405164785,-75683.9381451737,-88297.3255350432,-75932.4268496918,-73017.7402496338,-85978.1503528936,-73970.6047555352,-82299.6487524723,-80886.3829341844,-48040.4519255523
2206412252,6868,1,0,-28750.9656490519,-38132.8439489877,-42665.6760464383,-33131.1053190714,-69878.8881710067,-48071.5403909349,-86090.0444928774,-75654.3949772876,-88288.8811534481,-75907.7264251412,-72997.5053698172,-85954.9465550523,-73954.7137434844,-82290.3891351900,-80873.3513308870,-48033.4676675759
2206412252,6868,1,0,-28753.6060392625,-38133.6470169780,-42662.9383146531,-33129.8885493891,-69872.4879624779,-48061.8062334766,-86087.0634071558,-75642.8478330026,-88285.5350368218,-75899.0751927001,-72993.6238745307,-85953.2917482844,-73953.8255016164,-82284.7068207737,-80867.4743333215,-48028.6492596341
2206412252,6868,1,0,-28754.1900887100,-38133.5496754034,-42666.0289096461,-33129.4018415162,-69882.4654738727,-48086.2511363939,-86092.9525724181,-75649.6982463139,-88287.2628497706,-75909.1743810631,-72998.6126302281,-85958.2074978008,-73960.1040331770,-82282.6504800106,-80867.1823085978,-48028.4180733944
2206412252,6868,1,0,-28754.4577780401,-38133.5983461907,-42668.9369891868,-33128.7812889782,-69895.1807170527,-48112.8497216488,-86100.0585073627,-75658.3008079677,-88292.6288040696,-75927.7057833245,-73005.9010806251,-85967.8929844719,-73969.5948366989,-82281.6162257807,-80873.4730078553,-48032.5064195269
2206412252,6868,1,0,-28757.3901929744,-38135.6303515601,-42671.7720625466,-33129.7303693304,-69897.9549519283,-48116.4391922116,-86105.6434802044,-75664.6158426188,-88297.8244106130,-75931.5386078237,-73013.2260341125,-85975.9601674655,-73969.1324642196,-82284.6216468959,-80869.6401833560,-48033.4920029696
2206412252,6868,1,0,-28762.1964332195,-38136.6402703964,-42669.9104049326,-33132.1760763918,-69880.3117915350,-48072.6963221331,-86096.5177075872,-75649.6617432234,-88298.6153109064,-75917.6187626583,-73004.3801185222,-85965.7514698311,-73958.1572016853,-82280.4237914920,-80875.4563424374,-48040.0382238603
2206412252,6868,1,0,-28767.0391765550,-38139.3414990911,-42669.8252310549,-33136.5199441576,-69871.4050374606,-48046.8277986875,-86090.2026729361,-75635.0483393391,-88297.7392367352,-75908.1522945300,-72999.3426920375,-85957.4774359915,-73955.7601654112,-82278.2092706703,-80873.9597157282,-48039.3203297478
2206412252,6868,1,0,-28765.5668852394,-38136.0927240394,-42670.6404667420,-33135.4856899276,-69885.9576028609,-48082.6373304375,-86096.1526766825,-75645.9870987829,-88297.4350443146,-75917.8742842916,-73005.4873789331,-85967.0899164816,-73966.1757138917,-82281.0321763332,-80877.3666708386,-48035.2319836153
2206448516,6869,1,0,-28759.7628938549,-38132.3207380243,-42670.7986468007,-33132.3220887537,-69898.7945230091,-48122.4865375326,-86101.7133141306,-75661.9632847114,-88292.6896425537,-75925.8684611042,-73008.2981168992,-85971.4337842474,-73967.6480052072,-82283.9889266612,-80877.5005155036,-48030.0120416782
2206448516,6869,1,0,-28748.9093082888,-38126.7235974857,-42663.7778857339,-33125.2404892027,-69890.1067874775,-48115.0764101674,-86094.5952114892,-75663.7154330539,-88287.2263466802,-75917.5700918710,-72998.6247979249,-85962.3080116302,-73958.8142573138,-82284.6216468959,-80875.1643177136,-48024.1107087191
2206448516,6869,1,0,-28749.5906993109,-38130.5199188945,-42659.3853471808,-33127.1386499071,-69876.8561656373,-48092.2011401403,-86092.0034920659,-75662.4499925844,-88285.4255275504,-75907.1667110874,-72998.3814439885,-85959.4120997863,-73953.0711044133,-82292.0804450484,-80875.2373238946,-48026.6902604456
2206448516,6869,1,0,-28755.4555291796,-38137.8570400787,-42656.5624415179,-33134.5852803627,-69871.4537082479,-48077.5877362559,-86092.2590136992,-75662.6933465208,-88291.1078419667,-75904.8670163878,-72999.9875799691,-85958.9862303975,-73955.9670162572,-82298.4684858805,-80878.0358941639,-48030.6204265194
2206448516,6869,1,0,-28763.4497059922,-38144.4397640599,-42662.9139792595,-33143.2121774102,-69886.5538200052,-48099.5139259309,-86102.0661773385,-75672.2084854363,-88300.2579499775,-75921.4150840670,-73008.5536385325,-85966.8222271515,-73969.0229549482,-82304.3333157491,-80880.9074706141,-48034.5992633805
2206448516,6869,1,0,-28767.3555366724,-38147.4330174784,-42671.7963979402,-33147.3735297236,-69908.3461650151,-48152.9422826804,-86116.5944073451,-75693.8669857812,-88310.2597967660,-75946.2980240699,-73027.2675562462,-85987.8236718679,-73982.7237815709,-82308.0079601896,-80896.4942902443,-48044.5524393816
2206448516,6869,1,0,-28771.6507336509,-38151.1563327062,-42679.1821899117,-33150.5492985944,-69924.2006739754,-48175.2091678664,-86127.3871544270,-75707.6286508879,-88317.3170609233,-75952.4427109655,-73030.2851450583,-85992.7150859907,-73988.9536423442,-82307.7889416468,-80900.5461332863,-48049.1639964775
2206448516,6869,1,0,-28776.4448061991,-38152.5556178408,-42680.5814750464,-33150.3424477484,-69909.4777608196,-48132.6222289861,-86116.0833640785,-75688.3671868172,-88314.0439504779,-75932.9865637456,-73014.0412697996,-85973.6969758564,-73975.7151882008,-82299.3202246581,-80892.1139193880,-48044.3455885357
2206475997,6870,1,0,-28778.8783455637,-38153.2491765597,-42675.2033530506,-33150.2816092643,-69895.9959527398,-48104.7338678679,-86109.5371431878,-75674.9340495247,-88309.3472195043,-75918.0689674407,-73006.0227575933,-85965.1065818995,-73969.9963706941,-82290.3282967059,-80884.3752642086,-48036.4730886912
2206475997,6870,1,0,-28774.7656640376,-38148.3942655274,-42670.8959883753,-33148.0305853521,-69899.0500446424,-48117.5829557129,-86111.5083100731,-75681.3220903567,-88305.4170534305,-75922.0356366050,-73008.3224522928,-85966.4571962468,-73973.4276611981,-82287.8095834636,-80882.1242402964,-48032.1413886222
2206475997,6870,1,0,-28766.9296672836,-38144.3789255758,-42669.7765602676,-33143.6745498895,-69901.4105778260,-48137.5258108057,-86111.1919499557,-75691.5186202944,-88305.5143950051,-75933.0717376234,-73008.9308371340,-85970.3873623206,-73979.2194848858,-82288.6734899380,-80882.3067557487,-48030.7056003971
2206475997,6870,1,0,-28760.9309927499,-38139.7552007831,-42668.5111197980,-33140.7299672583,-69910.5606858369,-48153.3194812819,-86118.6020773209,-75699.8899957085,-88306.2687922081,-75937.2939284210,-73014.1507790710,-85976.8605770304,-73982.5047630280,-82296.5824928729,-80886.5167788494,-48034.1247232044
2206475997,6870,1,0,-28759.1666767106,-38138.1368971057,-42663.6440410688,-33139.7565515125,-69896.2879774636,-48120.5032029504,-86113.1631168410,-75690.0584966756,-88305.2832087654,-75923.3497478619,-73006.6554778281,-85968.4161954353,-73971.1766372859,-82295.3292201001,-80883.4383515532,-48032.6767672824
2206475997,6870,1,0,-28756.4046095317,-38134.3770787874,-42656.1487398259,-33137.1526643924,-69872.3541178128,-48068.4984667292,-86096.6515522523,-75661.7686015623,-88298.5544724223,-75902.3483031455,-72987.5035230288,-85947.1713967824,-73956.4415564333,-82287.4202171652,-80875.6510255866,-48026.7997697170
2206475997,6870,1,0,-28755.4433614827,-38134.3162403032,-42653.9463867009,-33138.7344649794,-69875.8705821946,-48077.1618668671,-86100.9589169276,-75658.7875158406,-88301.3530426916,-75909.3447288187,-72993.3196821101,-85954.6788657222,-73958.8385927074,-82284.4147960500,-80873.6068525203,-48025.3274784014
2206475997,6870,1,0,-28757.9377393314,-38137.1999844503,-42663.0478239245,-33143.0296619579,-69899.3177339724,-48127.1832685062,-86116.3632211054,-75681.7479597455,-88308.0939467315,-75935.1037429928,-73009.0160110117,-85973.1981002867,-73979.1951494922,-82292.5063144372,-80888.7556350649,-48035.1589774343
2206521069,6871,1,0,-28756.9643235856,-38130.5685896818,-42665.4570278954,-33136.7754657909,-69900.4371620802,-48132.5370551083,-86114.5624019757,-75682.8308847628,-88308.4954807267,-75939.8126416633,-73003.6987275001,-85968.2701830734,-73977.3821626656,-82284.7189884705,-80884.4361026927,-48036.3149086325
2206521069,6871,1,0,-28757.5362053363,-38127.0156222095,-42664.5687860274,-33133.5266907391,-69887.2960495114,-48107.9461398292,-86106.7385729185,-75670.4928401843,-88306.3296306922,-75927.0243923024,-72993.5143652593,-85957.3070882359,-73967.9035268405,-82277.9294136433,-80876.6731121197,-48032.3969102555
2206521069,6871,1,0,-28757.7673915759,-38127.0764606936,-42659.8233842664,-33131.3000022205,-69873.1328504095,-48080.9338528822,-86096.6637199491,-75654.7600081923,-88299.9294221633,-75908.0062821681,-72981.8820470966,-85943.9712925180,-73956.9525996999,-82273.7193905426,-80868.6545999134,-48025.6195031251
2206521069,6871,1,0,-28755.3703553018,-38124.6307536322,-42657.1343232686,-33131.3730084015,-69869.6650568149,-48075.6165693706,-86090.8353931709,-75646.1939496289,-88297.5688889797,-75905.9864444955,-72976.7837821278,-85938.3376488890,-73957.1107797586,-82276.3597807532,-80867.5108364120,-48022.8696036432
2206521069,6871,1,0,-28759.4221983438,-38131.1039683420,-42665.4691955923,-33138.8439742508,-69892.2117990279,-48124.6158844766,-86107.9066718135,-75669.0813873529,-88307.2543756507,-75931.4656016428,-72993.8185576799,-85957.7937961089,-73976.2505668611,-82286.5563106908,-80867.5838425930,-48025.2544722205
2206521069,6871,1,0,-28764.3136124667,-38139.8768777513,-42674.5584651190,-33147.2275173618,-69912.3006664825,-48168.6629469757,-86123.4083175659,-75697.5051271312,-88318.4486567278,-75950.9217488627,-73009.2715326450,-85974.8285716610,-73982.5777692090,-82294.1732889020,-80882.9151405899,-48035.0981389502
2206521069,6871,1,0,-28765.1288481538,-38140.9476350718,-42674.2056019111,-33149.8070690882,-69902.5786767210,-48141.7236662097,-86116.5700719514,-75693.5019548765,-88317.3900671042,-75941.0415790424,-73002.3481131528,-85964.9118987503,-73976.2505668611,-82300.4153173721,-80886.4802757590,-48037.9210446131
2206521069,6871,1,0,-28769.0346788340,-38141.6046907002,-42673.3051923462,-33152.4717946925,-69889.7417565728,-48103.8456259998,-86109.7561617306,-75680.8597178775,-88316.2828066934,-75922.4493382970,-72996.6536310396,-85958.2074978008,-73968.6092532562,-82299.3688954454,-80883.5721962183,-48037.3978336498
2206539727,6872,1,0,-28765.5668852394,-38137.8205369883,-42667.6715487172,-33149.4542058804,-69893.8301027053,-48108.9682263623,-86115.4019730564,-75686.8827278048,-88315.1755462825,-75921.7071087908,-73004.5261308841,-85964.8267248725,-73973.9630398583,-82298.5049889709,-80885.7137108591,-48037.0814735324
2206539727,6872,1,0,-28754.3482687687,-38127.3928208110,-42662.5246129611,-33137.7367138399,-69904.6106820904,-48131.8191609958,-86116.8864320688,-75692.8692346417,-88310.0042751327,-75927.5962740531,-73005.5482174172,-85965.3621035327,-73977.6376842989,-82296.7528406284,-80889.3518522092,-48032.7132703729
2206539727,6872,1,0,-28743.1783230852,-38113.6433234011,-42661.5877003057,-33125.4230046551,-69909.6116054847,-48154.1468846659,-86117.2757983672,-75696.2275189648,-88305.8064197288,-75932.7797128997,-73004.8911617888,-85965.4959481978,-73978.1365598686,-82295.8645987604,-80890.7389696470,-48030.1215509496
